,T7,F8,Cz,P4
2000,16.981016159057614,316.1636657714844,13.254205703735352,138.94476318359378
2001,21.84662628173828,334.2161560058594,27.55184364318848,158.4707794189453
2002,26.895490646362305,333.4008483886719,34.71375274658203,157.1431121826172
2003,11.995729446411133,323.62103271484375,28.83836936950684,150.13453674316406
2004,8.267048835754395,315.8495178222656,18.47510528564453,152.13165283203125
2005,23.058353424072266,328.23980712890625,21.39222717285156,169.80267333984375
2006,23.15559005737305,326.3829345703125,22.239315032958984,170.0457763671875
2007,8.296968460083008,309.0447692871094,15.313020706176758,159.25242614746094
2008,-2.0588150024414062,307.67596435546875,12.02564811706543,159.76104736328125
2009,14.591219902038574,314.1422424316406,18.5629940032959,180.12106323242188
2010,23.02843475341797,325.53399658203125,30.59425163269043,178.3595733642578
2011,0.8283878564834595,314.1534729003906,13.364532470703125,157.75271606445312
2012,1.3332743644714355,309.1756591796875,7.1263794898986825,149.91763305664062
2013,25.20879554748535,325.8443908691406,24.573013305664066,172.04661560058594
2014,26.31206703186035,330.23504638671875,30.40351676940918,168.19078063964844
2015,12.26126194000244,323.4209289550781,27.078744888305664,154.87673950195312
2016,7.268495559692383,315.75787353515625,18.23014259338379,151.7688751220703
2017,19.14641761779785,329.9320983886719,21.06124687194824,160.85684204101562
2018,16.99971580505371,323.712646484375,30.88222312927246,162.97735595703125
2019,10.907418251037598,318.94427490234375,26.783292770385746,149.19583129882812
2020,13.271035194396973,308.90264892578125,16.995975494384766,141.8431854248047
2021,23.810073852539066,317.620361328125,21.483856201171875,149.50997924804688
2022,26.77955436706543,322.5196228027344,23.667957305908203,150.4113006591797
2023,21.341739654541016,323.1666259765625,30.38855743408203,146.98928833007812
2024,17.69159698486328,317.35107421875,20.69473648071289,152.12417602539062
2025,26.9254093170166,326.8279724121094,25.59026527404785,171.0106658935547
2026,23.4921817779541,327.93499755859375,26.5738582611084,172.95167541503906
2027,3.644532442092896,316.65545654296875,19.045440673828125,163.55703735351562
2028,-2.159792184829712,312.8744201660156,10.825139999389648,159.60397338867188
2029,12.52305507659912,329.5506286621094,15.746849060058596,178.66998291015625
2030,16.917436599731445,328.3912658691406,18.77242851257324,181.2318115234375
2031,5.854813575744629,317.784912109375,19.206256866455078,172.68988037109375
2032,-1.5202692747116089,316.5582275390625,11.270188331604006,165.18389892578125
2033,15.615952491760256,326.1585388183594,15.514974594116213,174.00257873535156
2034,21.738168716430664,329.36737060546875,30.89718437194824,174.21949768066406
2035,8.727056503295897,317.5343322753906,25.9866943359375,159.1065673828125
2036,6.079207420349121,318.43939208984375,22.99477577209473,157.4497833251953
2037,20.65359687805176,328.817626953125,28.133398056030273,167.52508544921875
2038,19.483009338378906,332.9128112792969,39.88042449951172,170.07568359375
2039,13.802101135253904,320.9825134277344,33.90032196044922,157.63677978515625
2040,8.839253425598145,323.35736083984375,30.066925048828125,149.2743682861328
2041,30.71392822265625,335.89349365234375,41.66061401367188,164.88844299316406
2042,31.02059936523437,337.06036376953125,42.77510452270508,167.68215942382812
2043,15.354159355163574,317.56427001953125,31.41329002380371,158.4296417236328
2044,11.12059211730957,314.50128173828125,17.71403694152832,155.28439331054688
2045,22.905017852783203,320.4439697265625,23.78015327453613,175.02357482910156
2046,18.749988555908203,327.3104248046875,27.501354217529297,180.0500030517578
2047,-3.4014389514923096,316.9060363769531,15.062447547912598,165.8907470703125
2048,-9.059907913208008,311.9319763183594,1.0191227197647097,168.32542419433594
2049,9.160884857177734,326.0089416503906,7.623785972595215,185.20358276367188
2050,13.839499473571776,333.3877868652344,18.9856014251709,192.39915466308597
2051,7.694844245910644,316.775146484375,13.476729393005373,177.12913513183594
2052,5.757575988769531,314.0711975097656,6.868326187133789,169.50347900390625
2053,23.783893585205078,326.5512390136719,15.189603805541992,171.0518035888672
2054,20.982707977294922,331.1325988769531,23.5221004486084,169.17811584472656
2055,12.01442813873291,319.87176513671875,20.167409896850586,150.5347137451172
2056,12.676390647888185,324.81591796875,24.17284393310547,154.83934020996094
2057,29.102031707763672,331.39813232421875,25.0479793548584,160.2472381591797
2058,31.90695571899414,335.00714111328125,32.213626861572266,163.71038818359375
2059,15.993681907653807,326.611083984375,28.25681495666504,151.0882110595703
2060,16.169458389282227,320.0026550292969,22.7703800201416,152.98060607910156
2061,31.446949005126953,333.39898681640625,26.3270263671875,160.1649627685547
2062,40.953773498535156,343.055419921875,37.58786392211914,170.3711395263672
2063,22.938676834106445,327.9013366699219,27.03386688232422,151.4771728515625
2064,11.591819763183596,314.23199462890625,11.565640449523926,141.71603393554688
2065,20.724655151367188,330.3397521972656,12.702569961547852,152.80108642578125
2066,28.398929595947266,341.0321350097656,29.12073135375977,173.9464874267578
2067,20.19733047485352,325.42926025390625,23.11819076538086,171.25375366210938
2068,10.903677940368652,321.10968017578125,15.118545532226562,172.2859649658203
2069,29.23666763305664,333.3616027832031,26.12507057189941,185.27838134765625
2070,27.52753448486328,332.879150390625,31.4506893157959,185.5887908935547
2071,7.960377216339111,323.888427734375,19.14641761779785,167.61109924316406
2072,-9.647071838378906,312.7958679199219,3.812828063964844,162.539794921875
2073,9.9387845993042,328.3089904785156,8.143631935119629,177.622802734375
2074,11.864832878112793,333.0624084472656,15.731888771057127,173.39297485351562
2075,5.993189811706543,323.8173828125,19.23991584777832,165.26243591308594
2076,8.027695655822754,325.3918762207031,10.028541564941406,160.157470703125
2077,22.54972648620605,328.6904602050781,21.955081939697266,170.6366729736328
2078,23.1107120513916,333.95623779296875,34.554805755615234,170.79000854492188
2079,13.832019805908205,326.33056640625,27.28444099426269,154.6074676513672
2080,14.647317886352539,319.25469970703125,23.13315200805664,142.97637939453125
2081,24.95448303222656,333.6645202636719,28.93373680114746,154.70469665527344
2082,32.23980712890625,340.3514709472656,35.7515754699707,156.51107788085938
2083,22.5422477722168,323.6004638671875,28.04738044738769,144.14695739746094
2084,18.42087745666504,320.2158508300781,23.1406307220459,152.08677673339844
2085,25.78474044799805,330.05926513671875,27.452735900878906,166.88555908203125
2086,27.35549736022949,335.8710632324219,30.639129638671875,177.1328887939453
2087,6.479376792907715,321.35650634765625,22.493627548217773,169.43617248535156
2088,-1.6810849905014038,313.0950622558594,9.923824310302734,163.84127807617188
2089,10.604486465454102,327.81158447265625,14.00031566619873,180.8989562988281
2090,16.517267227172848,333.39898681640625,22.605825424194336,181.3178253173828
2091,1.2958753108978271,322.4036865234375,16.326532363891598,164.03201293945312
2092,-4.990896701812744,313.7495422363281,8.569980621337889,155.9575653076172
2093,9.662031173706056,331.0204162597656,15.092366218566895,165.9281463623047
2094,18.97812271118164,338.0925598144531,22.527286529541016,173.39297485351562
2095,6.348480224609375,318.59271240234375,17.448503494262695,148.6722412109375
2096,2.8853328227996826,315.0211181640625,10.522208213806152,151.60806274414062
2097,21.64093017578125,333.6907043457031,18.129165649414066,165.32228088378906
2098,26.345726013183594,332.0451354980469,23.18924903869629,167.90655517578125
2099,4.493489742279053,315.9710693359375,19.51666831970215,150.00364685058594
2100,6.161485195159912,312.4106750488281,13.409411430358887,150.1607208251953
2101,22.508588790893555,325.6125183105469,17.104433059692386,163.14939880371094
2102,27.325578689575195,333.7580261230469,28.15583610534668,162.68191528320312
2103,14.770734786987305,321.2181396484375,25.496767044067386,149.34169006347656
2104,7.814520835876465,311.4270935058594,17.18297004699707,144.42745971679688
2105,29.83505249023437,324.4232177734375,21.86532592773437,152.6888885498047
2106,38.5041389465332,332.8567199707031,28.387710571289066,163.19427490234375
2107,19.815860748291016,318.6488342285156,19.505447387695312,157.08702087402344
2108,13.81332015991211,314.14599609375,12.193943977355955,156.63449096679688
2109,27.06752586364746,325.32080078125,21.81296730041504,177.9781036376953
2110,22.03736114501953,332.2358703613281,26.31206703186035,175.85009765625
2111,6.1427855491638175,317.620361328125,24.46829605102539,170.07943725585938
2112,-4.1082801818847665,307.2645568847656,14.292027473449707,158.65029907226562
2113,6.516775608062744,322.2877502441406,19.067880630493164,170.169189453125
2114,16.53970718383789,331.5365295410156,32.236068725585945,174.4438934326172
2115,0.03926894813776016,312.03668212890625,24.184062957763672,158.84103393554688
2116,4.923578262329102,313.2857971191406,16.708003997802734,157.01222229003906
2117,24.41593742370605,327.58343505859375,27.14606475830078,173.61363220214844
2118,23.9035701751709,334.3601379394531,27.808025360107425,169.7017059326172
2119,18.33485984802246,325.0926818847656,23.94096946716309,154.33819580078125
2120,22.28045463562012,317.2089538574219,21.539953231811523,149.6109619140625
2121,31.899477005004886,327.07855224609375,25.54164695739746,158.91209411621094
2122,38.50788116455078,338.54510498046875,40.38531112670898,162.05360412597656
2123,26.33450508117676,319.8343811035156,32.55769729614258,155.00762939453125
2124,22.09345817565918,316.02716064453125,22.082239151000977,146.5592041015625
2125,35.78523254394531,326.35675048828125,21.745647430419922,163.52713012695312
2126,32.14630889892578,329.8984375,28.88511657714844,174.33543395996094
2127,13.308433532714846,316.84246826171875,20.070173263549805,163.79266357421875
2128,4.848780155181885,307.6048889160156,8.023955345153809,158.44834899902344
2129,18.08054542541504,321.7679138183594,15.892704963684082,172.2149200439453
2130,27.04134750366211,334.5508728027344,34.165855407714844,192.8292388916016
2131,5.649118900299072,319.0228271484375,16.244255065917972,168.73306274414062
2132,5.215290546417236,317.92327880859375,14.2022705078125,167.99256896972656
2133,23.608118057250977,330.18267822265625,24.958221435546875,177.52183532714844
2134,25.80718040466309,333.6645202636719,34.846519470214844,178.1800537109375
2135,13.364532470703125,322.5495300292969,24.93578338623047,160.00787353515625
2136,12.601593017578125,321.4761962890625,21.222063064575195,156.8214874267578
2137,31.495567321777344,332.72955322265625,33.354297637939446,165.8533477783203
2138,35.62067794799805,338.7320861816406,44.147647857666016,170.42724609375
2139,27.220861434936523,316.8050537109375,29.60317802429199,151.24903869628906
2140,19.180076599121094,321.2630310058594,25.40327072143555,154.16241455078125
2141,36.06198501586914,328.8400573730469,29.38626480102539,168.33290100097656
2142,37.06053924560547,335.7513732910156,37.703800201416016,176.20912170410156
2143,14.213489532470705,321.3639831542969,21.659629821777344,153.78094482421875
2144,15.57481288909912,319.3406982421875,18.678930282592773,157.1206817626953
2145,24.56927299499512,333.0810852050781,20.70969581604004,170.30381774902344
2146,26.689796447753906,335.590576171875,28.27177429199219,173.4004669189453
2147,14.295767784118652,323.90338134765625,19.00056266784668,160.77456665039062
2148,9.804147720336914,321.9175109863281,13.708602905273438,157.5694580078125
2149,21.835405349731445,327.1122131347656,20.97148895263672,164.54063415527344
2150,19.961715698242188,343.3919982910156,28.64202308654785,171.6501922607422
2151,3.03118896484375,328.73907470703125,26.315805435180664,157.0384063720703
2152,5.4396843910217285,324.1390075683594,20.07391357421875,160.02658081054688
2153,18.92950439453125,335.18292236328125,32.131351470947266,173.93153381347656
2154,27.27322006225586,343.1750793457031,37.3185920715332,174.01754760742188
2155,11.891012191772461,326.33056640625,26.020353317260746,154.99267578125
2156,10.073420524597168,321.423828125,23.398683547973636,151.02838134765625
2157,22.36273193359375,338.6498107910156,31.90695571899414,161.89279174804688
2158,29.44236183166504,333.79541015625,44.02797317504883,160.5464324951172
2159,22.082239151000977,323.82110595703125,36.72020721435547,156.1221160888672
2160,11.546940803527832,319.74835205078125,19.95423698425293,150.52349853515625
2161,20.773273468017575,330.7885437011719,32.37444305419922,167.51011657714844
2162,27.946401596069336,339.02752685546875,39.670989990234375,176.2315673828125
2163,12.104186058044435,324.5877990722656,30.871004104614254,158.94949340820312
2164,7.451750755310059,317.07806396484375,20.69847679138184,151.858642578125
2165,27.239561080932614,329.662841796875,27.015167236328125,170.07943725585938
2166,29.947248458862305,331.09521484375,32.76713180541992,170.74139404296875
2167,16.315313339233402,317.2201843261719,16.405071258544922,153.37704467773438
2168,7.623785972595215,307.5076599121094,6.527995586395264,144.229248046875
2169,18.71632957458496,321.3490295410156,13.78714084625244,158.47825622558594
2170,22.691843032836914,331.7010803222656,20.522701263427734,166.16001892089844
2171,5.7949748039245605,320.8329162597656,14.26210880279541,150.6356964111328
2172,2.6048402786254883,320.90771484375,14.149911880493164,148.90411376953125
2173,19.393251419067386,339.2781066894531,23.72031593322754,165.65138244628906
2174,22.7292423248291,345.72943115234375,36.989479064941406,171.62400817871094
2175,5.454644203186035,327.8976135253906,29.913589477539066,159.17762756347656
2176,-0.1963447481393814,324.0193176269531,22.351512908935547,149.06492614746094
2177,12.59785270690918,335.1642150878906,24.88342475891113,156.7803497314453
2178,21.468894958496094,342.0830383300781,36.02832794189453,160.28463745117188
2179,11.229049682617188,326.8803405761719,34.517406463623054,152.5767059326172
2180,11.416044235229492,321.9324645996094,22.407609939575195,147.13514709472656
2181,25.88571739196777,328.7428283691406,22.250534057617188,159.4356689453125
2182,33.354297637939446,325.9004821777344,26.89923095703125,160.34072875976562
2183,19.83455848693848,315.8738098144531,23.74649429321289,147.55027770996094
2184,20.077651977539066,310.8025207519531,15.735629081726074,142.2321319580078
2185,30.23522186279297,319.10882568359375,17.732736587524414,156.5222930908203
2186,34.63334274291992,327.7554931640625,25.94929504394531,160.65113830566406
2187,19.984155654907227,313.5999755859375,16.86507797241211,147.9055633544922
2188,10.466110229492188,310.1929016113281,8.940230369567871,143.98240661621094
2189,19.09779930114746,323.00579833984375,19.561546325683594,164.13299560546875
2190,29.04593276977539,337.950439453125,31.82093811035156,178.61387634277344
2191,9.20202350616455,321.5285339355469,25.369611740112305,161.5973358154297
2192,-0.603993833065033,324.47186279296875,12.77362823486328,165.06048583984375
2193,10.223016738891602,329.6553649902344,17.52330207824707,171.66514587402344
2194,17.052074432373047,340.9535827636719,30.43343544006348,178.43063354492188
2195,4.6804847717285165,327.3254089355469,26.061492919921875,160.35569763183594
2196,8.64103889465332,323.1329650878906,28.683162689208984,155.98001098632812
2197,15.163424491882324,330.69879150390625,28.339092254638672,164.49575805664062
2198,21.19588279724121,340.3402404785156,38.01421356201172,166.19741821289062
2199,10.447410583496094,331.61505126953125,28.86267852783203,151.02838134765625
2200,9.351619720458984,324.6289367675781,24.352357864379886,146.37594604492188
2201,31.136537551879886,330.95684814453125,31.16645622253418,162.5248260498047
2202,34.180816650390625,331.012939453125,34.371551513671875,164.59300231933594
2203,16.80150032043457,319.4005432128906,24.767486572265625,153.32093811035156
2204,12.807287216186525,318.9218444824219,17.30264663696289,151.35000610351562
2205,29.02349281311035,332.1797790527344,21.52499389648437,170.9770050048828
2206,31.17393684387207,341.4996032714844,33.58243179321289,174.80667114257812
2207,13.876898765563965,326.6466064453125,23.68852615356445,163.70851135253906
2208,5.514482498168945,317.09490966796875,12.846556663513185,159.92747497558594
2209,25.822139739990234,332.3798828125,17.379314422607422,175.94920349121094
2210,23.75397491455078,336.5984802246094,24.36170768737793,182.1312561035156
2211,16.543447494506836,328.06402587890625,26.34759521484375,174.52056884765625
2212,1.265956163406372,315.9130859375,7.333943843841553,158.6783447265625
2213,20.133750915527344,334.7210388183594,21.863454818725586,173.36119079589844
2214,24.872203826904297,343.4686584472656,28.916906356811523,176.1474151611328
2215,10.626925468444824,330.27056884765625,30.97385215759277,167.7550811767578
2216,4.063401222229004,322.69354248046875,18.542423248291016,156.09033203125
2217,16.99223518371582,335.7607421875,27.20777130126953,167.5045166015625
2218,19.206256866455078,344.646728515625,36.81931686401367,170.14862060546875
2219,2.0588150024414062,334.0366516113281,29.885540008544922,155.97813415527344
2220,-10.686763763427734,325.4423522949219,22.061670303344727,145.08006286621094
2221,6.453197479248048,344.88983154296875,30.05009651184082,165.61585998535156
2222,12.575413703918455,346.7186584472656,35.36823272705078,165.87391662597656
2223,13.04664134979248,335.9552001953125,28.69251251220703,155.05438232421875
2224,6.412058353424072,325.8238220214844,20.247817993164066,145.76072692871094
2225,21.708250045776367,338.6142883300781,24.73943901062012,164.998779296875
2226,32.30712509155273,342.20458984375,31.38898086547852,173.6903076171875
2227,17.291427612304688,327.8283996582031,23.20233917236328,160.85496520996094
2228,7.6350059509277335,323.6696472167969,15.550503730773926,160.17803955078125
2229,26.44670295715332,336.25067138671875,22.89566802978516,172.6655731201172
2230,30.033266067504886,335.38299560546875,30.420345306396484,184.9586181640625
2231,16.37141227722168,317.5623779296875,23.79698371887207,174.9132537841797
2232,11.303847312927244,315.05291748046875,17.97395896911621,172.68800354003906
2233,26.82069206237793,322.8319091796875,26.833782196044922,185.74400329589844
2234,29.54333877563477,326.7401123046875,29.676105499267575,183.78428649902344
2235,20.459123611450195,316.0701599121094,25.700592041015625,163.71224975585938
2236,2.8815929889678955,312.4723815917969,23.72592544555664,151.79693603515625
2237,19.258615493774414,324.22314453125,27.13297462463379,161.68148803710938
2238,26.83191299438477,336.82659912109375,39.8261947631836,163.91793823242188
2239,9.15340518951416,323.976318359375,33.12429428100586,144.44802856445312
2240,7.590126991271973,324.634521484375,20.898561477661133,135.00103759765622
2241,24.96196174621582,332.7688293457031,27.121753692626953,145.17356872558594
2242,38.22364807128906,339.8858337402344,43.71569061279297,156.24740600585938
2243,19.082839965820312,325.48724365234375,30.768156051635746,138.63996887207028
2244,13.36079216003418,318.47491455078125,20.10196304321289,132.28587341308594
2245,27.75940704345703,328.99151611328125,18.347949981689453,151.32943725585938
2246,36.90346145629883,330.6333312988281,27.327449798583984,161.7749786376953
2247,18.061847686767575,315.8009033203125,19.290403366088867,152.58230590820312
2248,14.19478988647461,310.8791809082031,14.6865873336792,160.12942504882812
2249,27.374197006225586,318.0971984863281,22.1663875579834,174.55047607421875
2250,34.420169830322266,332.3462219238281,28.359661102294922,182.9241180419922
2251,18.450796127319336,317.8391418457031,21.7849178314209,171.1883087158203
2252,11.154252052307127,306.5895080566406,15.090496063232422,165.37277221679688
2253,24.80862617492676,322.4579162597656,18.16095352172852,173.70526123046875
2254,21.771827697753906,327.95556640625,21.39222717285156,173.72396850585938
2255,3.659492015838623,314.74249267578125,15.18399429321289,161.78245544433594
2256,-0.35716044902801514,319.8287658691406,15.408388137817385,157.78451538085938
2257,13.723563194274902,334.1451110839844,21.43710708618164,169.99154663085938
2258,19.221216201782227,337.2791442871094,27.55184364318848,169.26226806640625
2259,4.8899192810058585,322.1325378417969,17.405494689941403,149.9008026123047
2260,2.2271103858947754,318.44500732421875,11.49271297454834,136.95326232910156
2261,24.58797264099121,344.7178039550781,26.50467109680176,155.7873992919922
2262,26.51776123046875,335.6298522949219,27.750057220458984,150.0840606689453
2263,19.43065071105957,327.1327819824219,26.31767654418945,145.81309509277344
2264,11.270188331604006,316.6685485839844,18.74063873291016,136.5531005859375
2265,31.731182098388672,326.9046630859375,20.857421875,153.31906127929688
2266,36.02832794189453,332.4920654296875,27.64533996582031,166.4386444091797
2267,21.97378158569336,325.3862609863281,23.228519439697266,155.55552673339844
2268,14.980169296264648,318.40386962890625,15.228872299194336,152.20831298828125
2269,24.67773056030273,328.46044921875,21.4445858001709,162.42572021484375
2270,34.68570327758789,337.21929931640625,36.48646545410156,174.35226440429688
2271,26.798254013061523,327.9443359375,32.66428756713867,162.07791137695312
2272,18.66023063659668,320.1541442871094,22.862009048461914,160.43609619140625
2273,24.924562454223636,324.5447692871094,23.81942367553711,170.2832489013672
2274,25.990434646606445,333.7262268066406,31.445077896118164,178.42127990722656
2275,9.2843017578125,318.6880798339844,16.593936920166016,165.43260192871094
2276,1.797021985054016,320.65155029296875,13.669334411621096,156.10903930664062
2277,10.48480987548828,329.6272888183594,14.379915237426758,170.18975830078125
2278,17.89729118347168,342.06622314453125,24.97505187988281,181.40945434570312
2279,6.786048412322997,323.9351806640625,20.139360427856445,156.2698516845703
2280,1.1275798082351685,321.8819580078125,17.315736770629886,149.11541748046875
2281,16.816459655761722,336.3404235839844,26.07832145690918,162.76231384277344
2282,31.42824935913086,340.60015869140625,35.577667236328125,161.96571350097656
2283,14.617399215698242,328.3856506347656,28.819669723510746,143.9281768798828
2284,12.822246551513672,318.2767028808594,23.284616470336914,139.02891540527344
2285,25.36587142944336,329.19720458984375,21.990612030029297,151.40423583984375
2286,38.92675018310547,335.843017578125,30.42782592773437,161.1691131591797
2287,29.913589477539066,324.60089111328125,27.49948501586914,157.95654296875
2288,19.09031867980957,316.10382080078125,12.405247688293455,158.0836944580078
2289,29.382524490356445,321.6351318359375,15.786117553710938,174.17274475097656
2290,32.36696243286133,329.24957275390625,22.90688705444336,180.2463531494141
2291,28.67942237854004,320.5131530761719,19.06226921081543,173.53697204589844
2292,16.838899612426758,311.4663391113281,8.624209403991701,163.88429260253906
2293,23.42860412597656,327.5666198730469,14.697806358337402,172.13824462890625
2294,32.88681030273437,332.1405029296875,29.92667961120605,177.5311737060547
2295,25.085378646850586,325.78643798828125,26.99085807800293,164.74819946289062
2296,12.552973747253418,317.6334533691406,22.41695976257324,151.90164184570312
2297,26.63743782043457,335.0052795410156,28.80097007751465,166.184326171875
2298,28.739261627197266,341.3780822753906,38.20307922363281,176.41294860839844
2299,10.731642723083496,329.4178771972656,33.11681365966797,157.9528045654297
2300,3.7529895305633545,331.1905822753906,26.93475914001465,157.0253143310547
2301,11.872312545776367,331.9049072265625,24.316829681396484,163.3943634033203
2302,23.00599479675293,339.9569091796875,31.456298828125,168.0056610107422
2303,16.887517929077152,329.2570495605469,28.28486251831055,151.23220825195312
2304,11.580599784851074,324.2306213378906,21.95695304870605,137.56660461425778
2305,19.943016052246094,331.3663635253906,27.27882957458496,146.5087127685547
2306,37.7000617980957,343.07598876953125,41.22117614746094,156.07164001464844
2307,25.14147758483887,329.8816223144531,34.53049468994141,152.2382354736328
2308,22.47492790222168,321.418212890625,23.632427215576172,144.0889892578125
2309,31.27117347717285,332.8398742675781,23.17989921569824,163.45045471191406
2310,39.30447769165039,345.8659362792969,38.681785583496094,179.1505584716797
2311,26.46914100646973,330.77545166015625,32.57826995849609,171.607177734375
2312,23.686656951904297,322.43548583984375,21.17531394958496,164.80056762695312
2313,31.615243911743164,330.4837341308594,24.36918830871582,181.79840087890625
2314,38.17502975463867,335.6186218261719,35.20367813110352,185.4522857666016
2315,21.69702911376953,320.06439208984375,24.619760513305664,166.6480712890625
2316,3.2929818630218506,314.40216064453125,10.931727409362793,155.7088623046875
2317,21.446456909179688,331.37384033203125,24.4252872467041,168.76486206054688
2318,20.29830741882324,338.5993347167969,35.379451751708984,163.91419982910156
2319,5.559361457824707,327.9031982421875,30.038875579833984,148.5806121826172
2320,-5.574320793151856,329.6534729003906,21.53060340881348,140.4912109375
2321,7.721023559570312,346.6401062011719,23.18363952636719,148.9658203125
2322,11.300107955932615,351.0531921386719,30.704578399658203,151.14993286132812
2323,-0.7236706614494324,337.20806884765625,26.082061767578125,137.34220886230472
2324,-2.488903522491455,338.5768737792969,15.838476181030273,132.23725891113278
2325,13.970396041870115,344.5794372558594,18.673320770263672,141.759033203125
2326,22.407609939575195,343.9137268066406,25.341562271118164,143.5055694580078
2327,14.849272727966307,341.7183837890625,23.92414093017578,139.892822265625
2328,13.484209060668945,325.7789306640625,16.982885360717773,132.13253784179688
2329,19.901878356933594,335.30072021484375,20.76392364501953,148.038330078125
2330,16.696783065795902,335.9215393066406,20.894821166992188,157.21231079101562
2331,11.236529350280762,330.1172180175781,25.128387451171875,161.96571350097656
2332,7.208657264709473,325.5732421875,19.937406539916992,153.9361572265625
2333,15.283101081848145,335.3044738769531,16.657514572143555,169.26226806640625
2334,25.264894485473636,342.2943420410156,29.141300201416016,168.84713745117188
2335,10.088379859924316,330.5248718261719,23.782024383544922,150.22242736816406
2336,10.731642723083496,321.3060302734375,15.636521339416506,145.26705932617188
2337,31.91443634033203,326.3923034667969,18.7443790435791,155.1067352294922
2338,44.1513900756836,337.10711669921875,35.6524658203125,160.0658416748047
2339,29.161869049072266,326.15667724609375,29.85936164855957,146.60594177246094
2340,20.83685302734375,318.3440246582031,21.440847396850586,136.79244995117188
2341,23.664216995239254,322.39434814453125,26.306455612182614,141.75155639648438
2342,30.051965713500977,331.8712463378906,28.96926498413086,147.9410858154297
2343,14.415444374084473,326.2838439941406,25.03115081787109,138.40060424804688
2344,7.866879463195801,316.6535949707031,17.98891830444336,132.22602844238278
2345,22.36273193359375,329.5038757324219,17.8056640625,143.1166229248047
2346,31.46938896179199,340.244873046875,34.04056930541992,158.22207641601562
2347,19.76350212097168,323.4789123535156,30.92897224426269,146.8565216064453
2348,15.488795280456545,320.8759460449219,22.61143493652344,148.64793395996094
2349,28.73178100585937,333.05303955078125,20.87238121032715,163.53646850585938
2350,37.01565933227539,338.7638854980469,29.87058067321777,170.79562377929688
2351,15.84782600402832,326.2351989746094,21.14165496826172,157.88174438476562
2352,14.363085746765135,322.35693359375,18.13851547241211,163.83192443847656
2353,26.435482025146484,331.1531677246094,21.560523986816406,179.20291137695312
2354,25.02554130554199,338.060791015625,28.02680969238281,182.7483367919922
2355,21.491334915161133,330.72308349609375,27.39850616455078,181.3234405517578
2356,9.669511795043944,318.871337890625,15.554244041442873,166.95474243164062
2357,22.48240852355957,330.3677978515625,25.094728469848636,176.2409210205078
2358,34.58472442626953,338.038330078125,37.75429153442383,183.70201110839844
2359,21.581092834472656,326.2950439453125,29.94537925720215,163.83192443847656
2360,17.964609146118164,316.33197021484375,23.333236694335934,152.275634765625
2361,26.82069206237793,324.83648681640625,28.72991180419922,151.20228576660156
2362,39.54757308959961,339.0256652832031,37.58225631713867,154.63177490234375
2363,24.41593742370605,322.2409973144531,31.66947364807129,135.76023864746094
2364,21.113605499267575,317.84661865234375,24.410327911376953,132.18862915039062
2365,30.313758850097656,329.80682373046875,29.92293930053711,143.56915283203125
2366,30.994421005249023,337.9336242675781,39.12309265136719,152.4888153076172
2367,16.285394668579098,326.78497314453125,33.65536117553711,142.12181091308594
2368,7.163778305053711,321.3845520019531,19.06600952148437,144.31338500976562
2369,22.32533264160156,334.4854431152344,25.364002227783203,162.68377685546875
2370,33.22714233398437,342.90020751953125,40.39466094970703,179.09071350097656
2371,20.388065338134766,330.40521240234375,30.78685569763184,167.97947692871094
2372,10.712943077087402,324.04364013671875,19.72049331665039,165.1782989501953
2373,23.68291664123535,331.4523620605469,23.191120147705078,180.06309509277344
2374,29.049673080444336,338.11688232421875,30.596120834350586,188.29461669921875
2375,19.699922561645508,324.481201171875,25.906286239624023,175.0778045654297
2376,11.730195999145508,319.33135986328125,22.77972984313965,168.0093994140625
2377,21.057506561279297,327.12530517578125,24.78431701660156,175.36204528808594
2378,29.41618347167969,335.7532653808594,34.42203903198242,177.3853302001953
2379,26.44670295715332,331.2242431640625,32.23793792724609,165.8813934326172
2380,13.506649017333984,315.4568176269531,20.374975204467773,149.5604705810547
2381,33.56747055053711,333.4270324707031,32.63436889648437,165.3241424560547
2382,40.58352279663086,342.2419738769531,36.968910217285156,168.60403442382812
2383,30.788726806640625,325.76397705078125,29.750904083251953,156.19505310058594
2384,23.020954132080078,324.2268981933594,24.00267791748047,152.80670166015625
2385,30.86726379394531,329.9264831542969,26.87492179870605,164.46771240234375
2386,42.1954231262207,335.1324462890625,35.85068130493164,171.3453826904297
2387,26.72345542907715,322.2671813964844,36.30694961547852,155.17031860351562
2388,17.818754196166992,314.19647216796875,28.33348274230957,149.33981323242188
2389,30.837345123291016,322.0091247558594,31.1047477722168,159.68063354492188
2390,38.66869735717773,334.45550537109375,40.929466247558594,162.30230712890625
2391,24.41219711303711,327.4880676269531,34.646434783935554,150.02047729492188
2392,14.228449821472168,312.9248962402344,20.21415901184082,135.85748291015622
2393,39.13992309570313,337.55963134765625,32.641845703125,159.53103637695312
2394,38.152587890625,338.6890869140625,36.37052536010742,165.4587860107422
2395,21.2332820892334,325.6181335449219,27.32370948791504,156.31472778320312
2396,13.29721450805664,314.7051086425781,20.487171173095703,142.83238220214844
2397,19.49422836303711,325.9023742675781,15.576683044433596,154.91600036621094
2398,29.31520652770996,335.5849609375,26.20547866821289,165.09226989746094
2399,15.96750259399414,323.90899658203125,24.87033462524414,151.31822204589844
2400,17.272727966308597,311.53741455078125,19.35772132873535,148.8872833251953
2401,28.69438171386719,326.0818786621094,20.6816463470459,157.698486328125
2402,33.43657684326172,336.007568359375,28.146486282348636,169.4455108642578
2403,18.843486785888672,326.3997802734375,28.42323875427246,156.2287139892578
2404,11.154252052307127,321.264892578125,18.086156845092773,156.4755401611328
2405,24.4907341003418,327.68255615234375,33.247711181640625,168.58160400390625
2406,29.846271514892575,338.8087463378906,41.02296447753906,181.4992218017578
2407,20.365625381469727,327.1065979003906,29.88928031921387,165.22317504882812
2408,11.825563430786133,316.51708984375,25.023670196533203,152.5785675048828
2409,22.731111526489254,330.11163330078125,26.1568603515625,162.73239135742188
2410,27.06191635131836,335.7588806152344,34.010650634765625,165.77293395996094
2411,13.5421781539917,323.7164001464844,28.6102352142334,150.48048400878906
2412,4.155028820037842,317.93450927734375,19.193166732788086,138.17994689941406
2413,18.576082229614254,330.3921203613281,20.27773666381836,149.8484344482422
2414,20.26651763916016,337.17254638671875,26.104501724243164,155.7986297607422
2415,18.38160896301269,332.692138671875,27.78371620178223,153.82022094726562
2416,14.563170433044435,322.5083923339844,16.537837982177734,147.20806884765625
2417,18.25819206237793,327.7891540527344,21.448326110839844,164.07127380371094
2418,30.760677337646484,337.0304260253906,30.85043525695801,178.0659942626953
2419,12.203293800354006,326.0126953125,21.276290893554688,167.2015838623047
2420,8.732666015625,314.4115295410156,14.08820343017578,161.38229370117188
2421,22.18508720397949,325.3656921386719,21.52312469482422,171.6931915283203
2422,34.201385498046875,340.168212890625,32.802661895751946,184.2069091796875
2423,21.481985092163086,324.569091796875,25.03862953186035,168.86582946777344
2424,18.104856491088867,312.6986389160156,27.22273254394531,164.30316162109375
2425,31.086048126220703,326.6372375488281,30.34928894042969,173.02459716796875
2426,43.86902618408203,331.84320068359375,47.0255012512207,185.41114807128903
2427,23.68478584289551,316.330078125,34.09292984008789,162.99044799804688
2428,12.221993446350098,316.64422607421875,23.385595321655273,149.7736358642578
2429,20.008464813232425,328.54833984375,27.01329803466797,155.57423400878906
2430,18.527463912963867,334.98095703125,31.34410095214844,158.1584930419922
2431,10.572697639465332,322.94598388671875,27.454605102539066,147.3950653076172
2432,3.2013542652130127,319.9428405761719,18.082416534423828,142.9408416748047
2433,21.134174346923828,327.46002197265625,24.51130485534668,152.0961151123047
2434,26.23913764953613,335.590576171875,24.70203971862793,161.23269653320312
2435,18.908933639526367,322.3999328613281,21.92703437805176,150.41690063476562
2436,13.886248588562012,315.0510559082031,12.738099098205565,146.007568359375
2437,25.68563270568848,330.2799072265625,10.961647033691406,161.87969970703125
2438,27.391027450561523,336.424560546875,22.158906936645508,172.68426513671875
2439,10.860669136047363,320.3804016113281,18.875274658203125,162.65011596679688
2440,10.56521701812744,319.4678649902344,15.064316749572756,161.71141052246094
2441,18.415267944335934,326.1548156738281,15.56920337677002,172.5010223388672
2442,25.079769134521484,335.7326965332031,28.879507064819336,180.33984375
2443,8.508272171020508,326.02764892578125,22.3421630859375,166.62188720703125
2444,5.370496273040772,316.5096130371094,17.880460739135742,159.1046905517578
2445,23.138761520385746,331.97784423828125,29.878061294555664,177.0674285888672
2446,35.828243255615234,341.3836669921875,41.804603576660156,187.2212677001953
2447,20.71530532836914,324.06793212890625,32.148181915283196,167.55313110351562
2448,12.521184921264648,317.8148193359375,26.13816070556641,155.57797241210938
2449,22.876968383789066,324.0567321777344,31.609634399414066,159.93869018554688
2450,27.80241584777832,341.1705017089844,42.74331665039063,169.29217529296875
2451,17.693466186523438,327.6283264160156,30.02391624450684,152.54864501953125
2452,4.521539211273193,315.7915344238281,16.635074615478516,138.0789794921875
2453,15.31863021850586,325.61627197265625,18.10859489440918,150.2822723388672
2454,32.297775268554695,343.9604797363281,37.69445037841797,167.84483337402344
2455,16.762231826782227,327.89385986328125,27.95201301574707,155.69764709472656
2456,10.83823013305664,321.1358642578125,24.4552059173584,142.357421875
2457,28.299823760986328,332.63604736328125,29.698545455932614,162.69873046875
2458,29.04780387878418,341.2265930175781,27.65656089782715,172.0821533203125
2459,21.16783332824707,326.73822021484375,18.254451751708984,159.89007568359375
2460,9.993012428283693,317.2613220214844,10.011712074279783,153.58834838867188
2461,15.520585060119627,330.8895263671875,11.73206615447998,165.3241424560547
2462,31.014989852905273,340.744140625,26.01474380493164,183.20086669921875
2463,19.06600952148437,328.1668701171875,23.43047332763672,171.79791259765625
2464,8.80372428894043,318.19256591796875,15.74497890472412,157.7134552001953
2465,23.65860748291016,331.65618896484375,22.069149017333984,169.55770874023438
2466,33.430965423583984,342.62158203125,34.26122283935547,180.4669952392578
2467,18.198352813720703,330.51177978515625,27.73135757446289,164.81178283691406
2468,16.743532180786133,322.6505126953125,25.595874786376953,157.20481872558594
2469,29.2086181640625,338.26458740234375,35.27847671508789,173.2303009033203
2470,37.9113655090332,343.4331359863281,43.34170150756836,177.85655212402344
2471,20.988319396972656,330.31732177734375,39.75887680053711,159.4786834716797
2472,5.404155254364014,319.9615173339844,22.704933166503906,144.48916625976562
2473,22.32720184326172,330.9530944824219,24.66838073730469,158.30435180664062
2474,39.874813079833984,338.5787658691406,36.85297393798828,168.60403442382812
2475,23.64364814758301,326.9925537109375,32.12948226928711,156.95799255371094
2476,6.099776744842528,313.46905517578125,11.215959548950195,144.28347778320312
2477,17.577529907226562,326.094970703125,19.080968856811523,155.22642517089844
2478,33.090633392333984,341.013427734375,27.03573608398437,166.2292022705078
2479,20.924739837646484,333.4251708984375,25.666933059692386,161.9881591796875
2480,7.333943843841553,319.27337646484375,11.141161918640137,150.5478057861328
2481,16.881908416748047,328.5184326171875,10.58765697479248,162.3284912109375
2482,28.464378356933594,339.4688415527344,23.871782302856445,176.9888916015625
2483,18.082416534423828,329.7451171875,16.814590454101562,165.47000122070312
2484,11.657268524169922,322.21295166015625,9.211373329162598,158.719482421875
2485,21.38848876953125,332.3031921386719,17.622407913208008,168.5965576171875
2486,30.24083137512207,336.5517272949219,23.871782302856445,174.4569854736328
2487,18.05249786376953,326.8354797363281,24.896514892578125,166.62937927246094
2488,6.915074825286865,316.40863037109375,10.97286605834961,156.04171752929688
2489,17.760784149169922,321.5509948730469,21.515644073486328,166.62188720703125
2490,23.39681434631348,336.611572265625,29.418052673339844,173.75387573242188
2491,1.7278337478637695,319.83062744140625,23.17616081237793,147.7391357421875
2492,-4.3682031631469735,314.6059875488281,14.133082389831545,137.92190551757812
2493,15.554244041442873,322.4784851074219,21.541824340820312,157.0664520263672
2494,26.67296600341797,337.7110900878906,35.353275299072266,166.19927978515625
2495,20.14310073852539,331.7309875488281,32.36509323120117,157.3992919921875
2496,17.506471633911133,315.0024108886719,17.409235000610348,147.46986389160156
2497,27.1254940032959,325.0814514160156,19.630735397338867,159.9499053955078
2498,31.093528747558594,332.1947326660156,25.304162979125977,172.78524780273438
2499,17.91786003112793,327.75921630859375,25.37522125244141,165.3017120361328
2500,6.926294803619385,311.3111572265625,11.896621704101562,150.9105682373047
2501,12.75679874420166,323.3424072265625,8.08940315246582,165.36903381347656
2502,28.31478309631348,334.2330017089844,17.244678497314453,176.95896911621094
2503,13.463640213012695,324.228759765625,10.29220485687256,160.55203247070312
2504,7.057191371917725,316.15057373046875,7.532158374786378,149.88958740234375
2505,16.739791870117188,323.2713317871094,13.77031135559082,159.89007568359375
2506,24.39910697937012,335.93463134765625,25.117168426513672,170.33935546875
2507,14.667887687683105,320.1223449707031,20.27773666381836,154.8187713623047
2508,16.549057006835938,319.2658996582031,18.149734497070312,159.01119995117188
2509,23.07892227172852,328.83258056640625,25.02741050720215,175.45553588867188
2510,26.78890419006348,334.8687744140625,31.93500518798828,183.309326171875
2511,17.992658615112305,325.8780517578125,32.73160552978516,173.46591186523438
2512,6.301731586456299,317.3847351074219,23.030303955078125,152.5299530029297
2513,22.05792999267578,323.0506896972656,23.22477912902832,157.80694580078125
2514,28.6102352142334,332.75946044921875,32.51469039916992,165.9674072265625
2515,25.69311332702637,324.3970642089844,32.44363021850586,157.85556030273438
2516,5.568710803985597,313.207275390625,15.543024063110352,141.83383178710938
2517,10.086509704589844,315.6494140625,14.611788749694824,157.78451538085938
2518,23.84934234619141,333.0474548339844,22.278583526611328,170.74700927734375
2519,12.775498390197756,329.0569763183594,21.541824340820312,162.9717559814453
2520,10.108949661254883,316.26275634765625,12.2332124710083,153.636962890625
2521,17.5999698638916,328.9747009277344,11.42165470123291,168.4357452392578
2522,35.592628479003906,343.5266418457031,19.746671676635746,170.8816375732422
2523,27.46956443786621,329.7675476074219,23.576330184936523,157.26092529296875
2524,21.4034481048584,315.0809631347656,20.726526260375977,150.9105682373047
2525,30.962631225585934,327.75921630859375,17.745824813842773,159.575927734375
2526,36.03019714355469,335.7214660644531,25.307903289794922,170.18601989746094
2527,23.88300132751465,323.2975158691406,24.75813865661621,167.1492156982422
2528,6.769218921661378,314.1534729003906,13.568357467651367,150.5029296875
2529,18.13103485107422,329.8385925292969,22.544116973876953,167.13800048828125
2530,33.26266860961914,343.0741271972656,39.788795471191406,183.38412475585938
2531,15.898314476013185,331.1587829589844,38.031044006347656,169.63624572753906
2532,2.9171218872070312,319.96527099609375,19.230566024780273,158.10240173339844
2533,16.317184448242188,326.9102783203125,23.363155364990234,159.85641479492188
2534,22.678752899169922,339.4913024902344,34.908226013183594,176.2259521484375
2535,13.44867992401123,329.66656494140625,31.03742980957031,164.29193115234375
2536,-0.6657021641731262,313.8468017578125,25.08350944519043,154.20916748046875
2537,12.169634819030762,319.3033142089844,16.754751205444336,165.90008544921875
2538,28.00063133239746,332.3293762207031,33.92837142944336,183.0625
2539,19.77659034729004,325.7621154785156,31.04864883422852,170.23463439941406
2540,11.066364288330078,308.3192138671875,21.766218185424805,158.65216064453125
2541,27.828596115112305,314.063720703125,23.00412368774414,165.1782989501953
2542,42.27582931518555,329.3075256347656,32.866241455078125,168.10289001464844
2543,30.09871482849121,321.0872497558594,26.044662475585934,154.57566833496094
2544,23.30331611633301,310.7314453125,20.10196304321289,147.00985717773438
2545,37.61591339111328,319.89422607421875,27.64533996582031,156.1053009033203
2546,49.42277908325195,330.3023681640625,38.16941833496094,165.43260192871094
2547,30.62230110168457,327.22442626953125,31.6619930267334,160.74276733398438
2548,15.479445457458494,318.0018310546875,27.00207710266113,150.2037353515625
2549,24.672119140625,329.4421691894531,28.98422431945801,169.77462768554688
2550,28.84584808349609,331.62628173828125,36.69215774536133,181.9554901123047
2551,31.748010635375977,334.9996643066406,49.18342590332031,192.8909454345703
2552,14.522031784057615,314.8116760253906,25.38644027709961,166.03846740722656
2553,26.082061767578125,327.7517395019531,28.56161689758301,176.98141479492188
2554,34.80350875854492,328.9933776855469,34.429519653320305,189.30812072753903
2555,13.026071548461914,315.6643981933594,22.85826873779297,168.5105438232422
2556,3.923155069351196,309.1943664550781,8.67282772064209,164.65097045898438
2557,22.028011322021484,318.7311096191406,14.29389762878418,171.16961669921875
2558,36.71833801269531,333.6607971191406,31.39272117614746,188.1749420166016
2559,24.174713134765625,321.2817077636719,24.15975379943848,173.49583435058594
2560,16.90060806274414,316.8162841796875,24.51130485534668,163.6411895751953
2561,28.96178436279297,320.9376525878906,21.941993713378906,163.82070922851562
2562,44.75164413452149,338.70965576171875,36.291988372802734,178.75787353515625
2563,26.05962371826172,327.093505859375,30.31936836242676,157.76580810546875
2564,12.93631362915039,315.5559387207031,15.808557510375975,144.97161865234375
2565,18.59478187561035,324.5055236816406,22.091588973999023,161.36734008789062
2566,24.84415626525879,338.6236267089844,34.17146682739258,167.42222595214844
2567,17.323217391967773,331.4729309082031,30.29319000244141,157.16368103027344
2568,6.739299774169923,321.15081787109375,20.464733123779297,156.44561767578125
2569,13.474859237670898,328.9485168457031,21.280031204223636,165.09974670410156
2570,16.276044845581055,337.44183349609375,26.72906494140625,179.59934997558594
2571,0.991073489189148,327.8564453125,21.71385955810547,172.26539611816406
2572,-1.7240939140319824,315.8999938964844,9.289911270141602,165.98985290527344
2573,11.30197811126709,326.517578125,10.935467720031738,170.27203369140625
2574,24.43276596069336,342.2513427734375,23.62868881225586,179.40487670898438
2575,13.501038551330565,328.19305419921875,21.066856384277344,165.2979736328125
2576,3.9194152355194087,313.3344421386719,15.266271591186525,147.54466247558594
2577,19.26796531677246,319.9054260253906,20.24407768249512,158.8915252685547
2578,36.3630485534668,326.3193664550781,31.347841262817386,165.2979736328125
2579,26.21295928955078,315.79901123046875,24.567401885986328,147.67555236816406
2580,15.139115333557127,308.00506591796875,15.902054786682127,137.77230834960938
2581,26.89362144470215,315.5858459472656,17.910381317138672,148.86111450195312
2582,36.96142959594727,331.8918151855469,32.245418548583984,155.94821166992188
2583,21.440847396850586,318.17010498046875,27.99315071105957,145.55503845214844
2584,9.42080783843994,320.89276123046875,22.061670303344727,140.51739501953122
2585,17.270858764648438,324.4568786621094,19.417560577392575,150.0840606689453
2586,30.97759056091309,338.1449279785156,31.86020851135254,164.1909637451172
2587,20.281476974487305,333.32794189453125,33.969512939453125,165.13340759277344
2588,4.981546878814697,319.0489807128906,25.69311332702637,147.67555236816406
2589,13.766571998596193,328.1182556152344,23.299575805664066,161.3860321044922
2590,18.68828010559082,333.1671142578125,30.45400619506836,172.8376007080078
2591,11.17108154296875,323.49200439453125,27.40224647521973,166.8612518310547
2592,1.7353135347366333,317.7923889160156,20.91352081298828,159.70681762695312
2593,11.462793350219727,317.0631103515625,20.887340545654297,162.81092834472656
2594,31.10100746154785,333.53363037109375,34.03683090209961,177.98744201660156
2595,24.148534774780273,322.5794677734375,28.01559066772461,162.85955810546875
2596,16.545316696166992,309.0223083496094,26.1568603515625,157.26092529296875
2597,24.60480117797852,313.7196350097656,25.057329177856445,156.62139892578125
2598,33.898452758789055,318.57403564453125,30.139854431152344,165.36154174804688
2599,30.19221305847168,320.672119140625,28.76357078552246,160.25283813476562
2600,14.85114288330078,301.98382568359375,16.90060806274414,139.07005310058594
2601,18.748119354248047,316.3114013671875,20.76392364501953,154.11192321777344
2602,33.692760467529304,329.16168212890625,30.49514389038086,165.92626953125
2603,17.65606689453125,321.4836730957031,29.305856704711914,154.3849334716797
2604,4.727233409881592,313.3493957519531,15.311150550842285,145.996337890625
2605,17.259637832641598,330.7474060058594,23.475351333618164,161.3897705078125
2606,24.94513320922852,335.7887878417969,29.52651023864746,171.29302978515625
2607,29.81074333190918,333.548583984375,39.766357421875,169.81576538085938
2608,10.045371055603027,321.6332702636719,18.890233993530273,157.75833129882812
2609,14.374305725097654,329.2626647949219,24.993751525878906,167.00149536132812
2610,28.15209770202637,341.518310546875,35.495391845703125,179.7096710205078
2611,17.100692749023438,331.27099609375,33.99195098876953,170.42724609375
2612,5.61545991897583,312.92303466796875,21.17531394958496,159.88072204589844
2613,8.805594444274902,320.0961608886719,22.39826011657715,159.21502685546875
2614,28.11469841003418,334.7976989746094,26.938499450683594,178.99534606933594
2615,22.3477725982666,321.74920654296875,29.36569404602051,171.34352111816406
2616,11.65539836883545,311.2513122558594,18.190874099731445,154.94406127929688
2617,21.319299697875977,318.9293212890625,20.8462028503418,160.56886291503906
2618,39.20724105834961,335.5456848144531,31.79662895202637,169.4847869873047
2619,30.41099739074707,317.1229553222656,26.10076141357422,152.7075958251953
2620,21.28190040588379,307.59368896484375,18.29559135437012,141.09893798828125
2621,28.16331672668457,315.402587890625,20.558229446411133,144.11331176757812
2622,42.69656753540039,334.29656982421875,28.299823760986328,164.4920196533203
2623,31.70500183105469,324.4942932128906,22.84330940246582,154.37185668945312
2624,10.802700996398926,310.9595947265625,13.665594100952148,149.50997924804688
2625,23.68291664123535,322.714111328125,18.99869155883789,163.66549682617188
2626,33.04388427734375,342.0718078613281,33.49828338623047,179.9265899658203
2627,23.638036727905273,335.1193542480469,28.77853012084961,167.457763671875
2628,12.889565467834473,324.2100524902344,24.24951171875,158.66151428222656
2629,10.589527130126953,332.26580810546875,23.26217842102051,166.92669677734375
2630,24.34113883972168,342.3934631347656,28.36714172363281,176.25399780273438
2631,14.942770004272461,339.7867431640625,31.086048126220703,170.8049774169922
2632,6.445717811584473,316.1356201171875,14.99699878692627,148.99012756347656
2633,9.908864974975586,326.18096923828125,13.272905349731445,160.22105407714844
2634,16.670604705810547,334.92486572265625,21.171573638916016,170.53195190429688
2635,20.522701263427734,332.84173583984375,28.153966903686523,168.3478546142578
2636,2.0401153564453125,317.4744873046875,18.834136962890625,152.33734130859375
2637,11.090673446655273,323.73883056640625,14.267718315124512,163.26907348632812
2638,33.462753295898445,337.00799560546875,32.73160552978516,175.30032348632812
2639,16.678083419799805,328.87371826171875,25.20318603515625,164.07688903808594
2640,4.8674798011779785,310.79876708984375,13.02981185913086,148.1673583984375
2641,18.00200843811035,320.0325927734375,16.025470733642578,153.0815887451172
2642,27.83794593811035,327.8863830566406,24.28691101074219,157.1505889892578
2643,22.54972648620605,325.3096008300781,26.620607376098636,147.4492950439453
2644,9.669511795043944,318.0616760253906,18.542423248291016,137.13090515136722
2645,10.301554679870604,322.50091552734375,15.636521339416506,140.00315856933594
2646,32.06777191162109,341.3836669921875,35.330833435058594,151.4397735595703
2647,15.91888427734375,335.3624267578125,35.37197494506836,144.3526611328125
2648,6.860846519470215,328.39501953125,27.61916160583496,137.67694091796878
2649,5.06943416595459,331.4841613769531,24.70203971862793,152.528076171875
2650,16.67434310913086,345.9912414550781,33.49828338623047,170.3487091064453
2651,2.6684186458587646,333.5411071777344,26.00352478027344,167.69337463378906
2652,-1.7072643041610718,321.2929382324219,12.955013275146484,159.45811462402344
2653,10.065940856933594,324.2212829589844,9.63772201538086,164.5742950439453
2654,21.51751518249512,334.240478515625,24.0737361907959,176.56068420410156
2655,19.318452835083008,324.4157409667969,24.716999053955078,173.15362548828125
2656,11.090673446655273,312.2610778808594,16.122709274291992,159.4842987060547
2657,15.29058074951172,314.95379638671875,18.332988739013672,166.88182067871094
2658,30.160423278808594,327.4637756347656,25.7641716003418,174.84031677246094
2659,15.8366060256958,317.7437744140625,26.81882286071777,167.798095703125
2660,10.649365425109863,312.27978515625,16.762231826782227,154.828125
2661,13.626325607299805,318.4954833984375,17.858022689819336,159.9069061279297
2662,29.842531204223636,326.2296142578125,30.569942474365234,170.52073669433594
2663,14.991389274597168,325.1973876953125,33.87975311279297,157.7489776611328
2664,5.454644203186035,315.89251708984375,30.50262451171875,145.77381896972656
2665,11.733936309814453,324.3634033203125,35.03912353515625,149.39404296875
2666,22.512327194213867,328.49224853515625,37.31298065185547,155.3741455078125
2667,18.92950439453125,322.527099609375,31.93500518798828,142.7445068359375
2668,6.703770637512207,307.6572570800781,22.244924545288086,129.48281860351562
2669,14.179830551147461,322.6579895019531,12.311750411987305,146.66390991210938
2670,27.5125732421875,327.13092041015625,30.47644424438477,169.828857421875
2671,23.686656951904297,325.05902099609375,28.59901428222656,159.80218505859375
2672,7.350773334503174,315.9673156738281,14.989519119262695,149.4912872314453
2673,7.481669902801514,317.2201843261719,17.0838623046875,166.2310791015625
2674,30.55685234069824,332.8978576660156,23.890480041503906,181.5384826660156
2675,20.88547134399414,327.01123046875,27.387287139892575,176.953369140625
2676,5.604239940643311,307.8966064453125,15.43456745147705,164.29380798339844
2677,15.96750259399414,314.2694091796875,20.00472450256348,172.2560577392578
2678,34.790420532226555,331.50286865234375,36.04141616821289,187.1146697998047
2679,18.72380828857422,325.34326171875,30.783117294311523,170.70773315429688
2680,14.6921968460083,310.8287048339844,29.657405853271484,156.4400177001953
2681,22.437530517578125,318.39825439453125,23.639907836914066,163.57948303222656
2682,35.07465362548828,335.3661804199219,46.95818328857422,171.70254516601562
2683,23.01347351074219,324.3297424316406,44.51976776123047,156.30911254882812
2684,4.467310428619385,312.7510070800781,29.937898635864254,135.62373352050778
2685,13.009242057800293,332.10125732421875,34.29114151000977,156.11837768554688
2686,20.612459182739254,345.18341064453125,41.27727508544922,155.02259826660156
2687,4.403732299804688,336.15155029296875,30.57742118835449,142.81930541992188
2688,-2.975090503692627,324.8346252441406,24.541223526000977,130.10737609863278
2689,11.565640449523926,329.71893310546875,20.692867279052734,131.26675415039062
2690,32.703556060791016,342.84222412109375,32.215499877929695,150.321533203125
2691,19.99537467956543,331.012939453125,25.63701438903809,146.69009399414062
2692,14.70341682434082,313.19232177734375,18.16469383239746,140.96804809570312
2693,27.07126617431641,321.57342529296875,21.470766067504886,162.7828826904297
2694,40.22075271606445,328.9634704589844,28.75983047485352,179.64984130859375
2695,28.634544372558594,322.6430358886719,25.35652160644531,172.77215576171875
2696,7.261015892028809,308.1434326171875,14.129342079162598,169.6156768798828
2697,14.164871215820312,318.34588623046875,21.54930305480957,184.3209686279297
2698,22.79281997680664,328.6755065917969,24.500083923339844,193.1433868408203
2699,15.630911827087402,323.95947265625,30.37172698974609,183.66275024414062
2700,-2.0737745761871342,316.1879577636719,18.96503257751465,166.6050567626953
2701,12.777368545532227,324.0866394042969,22.2075252532959,175.06471252441406
2702,29.52090072631836,339.5174560546875,34.496837615966804,180.90643310546875
2703,17.616798400878906,332.10498046875,34.97928237915039,160.47911071777344
2704,15.066186904907227,321.3752136230469,28.80097007751465,145.1941375732422
2705,25.40327072143555,330.73992919921875,31.18702507019043,157.7452392578125
2706,30.82238578796387,349.4394226074219,40.72377014160156,165.34844970703125
2707,12.803547859191895,341.45098876953125,38.10958099365234,153.98289489746094
2708,7.620046138763428,326.74945068359375,24.761877059936523,134.2586669921875
2709,24.32617950439453,334.9286193847656,29.77334403991699,146.43203735351562
2710,38.52658081054688,345.4601745605469,41.924278259277344,163.05963134765625
2711,23.01721382141113,329.02703857421875,30.278230667114254,147.42684936523438
2712,5.7164368629455575,310.9109802246094,12.663301467895508,130.19338989257812
2713,13.43185043334961,316.23284912109375,5.553751468658447,140.89698791503906
2714,25.519207000732425,327.9088134765625,16.212467193603516,160.44544982910156
2715,15.376598358154295,321.7978210449219,19.671873092651367,150.57211303710938
2716,12.721269607543945,311.8160400390625,15.412127494812012,153.549072265625
2717,23.94096946716309,323.5555725097656,22.88444709777832,169.94105529785156
2718,35.91986846923828,331.16253662109375,35.12139892578125,189.41845703125
2719,21.300600051879886,326.5250549316406,37.61591339111328,187.04736328125
2720,8.087533950805664,312.4667663574219,24.881553649902344,178.056640625
2721,19.28853416442871,314.9425964355469,24.324308395385746,183.8572235107422
2722,32.28842544555664,333.39898681640625,39.085693359375,199.41146850585938
2723,18.099245071411133,317.938232421875,42.95648956298828,188.3974609375
2724,0.7835090160369873,303.9622497558594,23.85308265686035,170.0457763671875
2725,7.036621570587157,325.27593994140625,27.36110877990723,178.50167846679688
2726,15.79920768737793,337.3932189941406,37.31298065185547,185.4317169189453
2727,12.100446701049805,333.7430725097656,36.66971969604492,174.1634063720703
2728,0.09162754565477373,323.6416015625,27.05069732666016,153.8108673095703
2729,13.56274700164795,327.093505859375,27.72013854980469,157.57321166992188
2730,25.410749435424805,337.01922607421875,34.02186965942383,163.71786499023438
2731,19.23243522644043,331.2073974609375,34.70627212524414,156.9037628173828
2732,13.334612846374512,319.6099853515625,23.72218513488769,143.89639282226562
2733,16.11709976196289,325.2871398925781,18.53494453430176,151.26025390625
2734,30.033266067504886,333.1072692871094,28.94308662414551,164.48080444335938
2735,25.52294731140137,326.3006591796875,30.87287330627441,157.46849060058594
2736,5.248949527740479,314.73687744140625,22.3421630859375,146.79481506347656
2737,15.473835945129395,320.0438232421875,23.12006187438965,163.4710235595703
2738,35.112049102783196,335.9907531738281,33.18039321899414,178.3932342529297
2739,26.861831665039066,325.8369140625,38.12828063964844,175.53221130371094
2740,9.29552173614502,309.7927551269531,27.544363021850586,165.15023803710938
2741,15.253182411193848,318.794677734375,24.69455909729004,170.7114715576172
2742,31.170196533203125,326.3866882324219,33.487064361572266,187.716796875
2743,19.774721145629886,320.4626770019531,26.61312866210937,175.0310516357422
2744,-1.6324663162231443,312.5340881347656,20.43107414245605,160.755859375
2745,16.29287338256836,318.12896728515625,27.08061599731445,172.30841064453125
2746,23.608118057250977,326.4540100097656,36.83053588867188,178.138916015625
2747,15.91888427734375,324.37835693359375,36.28076934814453,168.36656188964844
2748,7.017922401428223,312.0142517089844,35.03538131713867,156.50733947753906
2749,14.183570861816404,322.32513427734375,35.59636688232422,165.7710723876953
2750,27.38167762756348,336.6714172363281,44.17943954467773,176.9384002685547
2751,19.98041534423828,323.8435363769531,40.402137756347656,160.51651000976562
2752,7.765902042388916,311.7225341796875,27.185333251953125,144.53965759277344
2753,15.761808395385742,319.0115966796875,27.787456512451172,152.7075958251953
2754,33.844223022460945,333.18206787109375,34.145286560058594,164.42095947265625
2755,19.8831787109375,320.1859130859375,29.63122749328613,147.29969787597656
2756,12.268741607666016,308.6221618652344,23.50153160095215,139.65908813476562
2757,25.40327072143555,315.9486083984375,21.37352752685547,154.06143188476562
2758,42.75266647338867,330.7212219238281,32.810142517089844,174.3616180419922
2759,28.87015724182129,325.34326171875,27.82111549377441,172.39068603515625
2760,12.852166175842285,312.16009521484375,21.81857681274414,161.93392944335938
2761,23.638036727905273,312.3844909667969,18.224533081054688,169.16690063476562
2762,42.51331329345703,329.3038024902344,29.178699493408203,184.5715484619141
2763,24.726348876953125,320.2831726074219,28.064208984375,171.72872924804688
2764,7.721023559570312,311.1278991699219,20.015945434570312,164.97447204589844
2765,17.07077407836914,313.5812683105469,20.098222732543945,168.39646911621094
2766,31.82093811035156,328.8587646484375,34.014389038085945,181.5684051513672
2767,19.569026947021484,320.01763916015625,28.696252822875977,169.20803833007812
2768,-1.437991499900818,309.38134765625,18.007617950439453,153.07411193847656
2769,8.790635108947754,321.248046875,15.008218765258787,161.34677124023438
2770,26.697275161743164,333.6495666503906,27.29752922058105,176.38864135742188
2771,19.38577079772949,322.4822082519531,27.293790817260746,161.00643920898438
2772,-0.2823624610900879,315.7242126464844,23.314537048339844,146.93319702148438
2773,7.758422374725343,319.9465637207031,17.551349639892578,150.90122985839844
2774,24.273820877075195,341.8212585449219,26.16434097290039,163.74777221679688
2775,19.78968048095703,331.42431640625,29.720985412597656,152.8272705078125
2776,10.208057403564453,322.3700256347656,17.405494689941403,142.6472625732422
2777,14.920331001281738,327.3104248046875,13.085909843444824,160.78204345703125
2778,34.61464309692383,343.724853515625,25.92498588562012,182.64923095703125
2779,28.52234649658203,331.7422180175781,26.358814239501953,174.59349060058594
2780,21.988740921020508,320.5038146972656,20.15058135986328,169.17811584472656
2781,26.775814056396484,318.7872009277344,19.1669864654541,174.9525146484375
2782,46.45516586303711,333.31298828125,32.45859146118164,185.2447204589844
2783,35.4000244140625,327.1458740234375,31.91630554199219,178.32217407226562
2784,22.142078399658203,310.9296875,26.7141056060791,164.5331573486328
2785,23.623077392578125,315.6419372558594,25.53229713439941,172.7085723876953
2786,39.237159729003906,328.11077880859375,37.58225631713867,186.273193359375
2787,23.264047622680664,319.4678649902344,37.79542922973633,175.02357482910156
2788,14.38552474975586,317.18280029296875,29.059022903442386,158.07809448242188
2789,21.308080673217773,317.3623046875,28.890727996826172,163.560791015625
2790,33.24958038330078,330.0816955566406,36.24337005615234,175.0048828125
2791,24.04194641113281,322.515869140625,32.331436157226555,157.37872314453125
2792,12.814766883850098,312.78466796875,24.672119140625,145.35121154785156
2793,15.02504825592041,318.2823181152344,19.72797203063965,144.0908660888672
2794,21.842885971069336,336.9070129394531,32.406234741210945,161.02886962890625
2795,14.415444374084473,330.59033203125,35.47669219970703,155.90521240234375
2796,-0.8470873236656189,320.2420349121094,20.008464813232425,142.8267822265625
2797,9.108526229858398,325.6199951171875,14.709026336669922,158.32492065429688
2798,23.60437774658203,340.1270751953125,22.876968383789066,174.99740600585938
2799,23.12941169738769,329.7151794433594,23.617467880249023,172.14759826660156
2800,10.720423698425293,318.3384094238281,19.597076416015625,159.0953369140625
2801,17.545740127563473,318.0803527832031,19.623254776000977,167.1585693359375
2802,34.760501861572266,335.56439208984375,29.89302062988281,177.5554962158203
2803,29.247886657714844,325.9004821777344,29.294635772705078,171.07798767089844
2804,15.283101081848145,316.5282897949219,19.49983787536621,153.43687438964844
2805,18.5742130279541,323.8809509277344,18.684539794921875,155.5424346923828
2806,34.083580017089844,339.7643127441406,31.76671028137207,169.67926025390625
2807,28.541046142578125,329.4122619628906,33.771297454833984,160.7969970703125
2808,10.17813777923584,318.74981689453125,17.723386764526367,148.56752014160156
2809,9.433897972106934,323.98193359375,19.06600952148437,146.79855346679688
2810,16.326532363891598,329.7320251464844,26.091411590576172,157.66482543945312
2811,8.435344696044924,327.686279296875,28.612104415893555,149.28372192382812
2812,-6.636452674865723,314.9781188964844,13.25233554840088,138.16873168945312
2813,11.50206184387207,320.8534851074219,19.426910400390625,148.4197998046875
2814,16.356452941894528,337.43621826171875,21.794267654418945,165.36903381347656
2815,13.42811107635498,321.66131591796875,18.551773071289066,156.91685485839844
2816,5.4658637046813965,317.7867736816406,16.696783065795902,149.87088012695312
2817,8.614859580993652,323.5050964355469,9.886425971984863,148.95834350585938
2818,18.536813735961914,328.553955078125,22.29915428161621,158.30809020996094
2819,19.16885757446289,324.23809814453125,20.578800201416016,152.39157104492188
2820,12.34354019165039,308.2874450683594,16.89499855041504,143.2886505126953
2821,20.395544052124023,313.3849182128906,15.52619457244873,147.16319274902344
2822,36.967041015625,334.88934326171875,31.2749137878418,171.2818145751953
2823,25.06293869018555,322.9141845703125,27.86038398742676,159.8638916015625
2824,10.365132331848145,307.59930419921875,12.089226722717285,144.41810607910156
2825,17.84867286682129,315.4717712402344,15.313020706176758,151.9727020263672
2826,27.007686614990234,331.6244201660156,23.95218849182129,166.92108154296875
2827,20.23098945617676,325.4947204589844,30.02204704284668,159.16079711914062
2828,6.909465312957764,319.3276062011719,17.964609146118164,140.77919006347656
2829,17.669157028198242,320.0045471191406,20.833112716674805,145.5438232421875
2830,32.699813842773445,328.553955078125,29.102031707763672,157.7919921875
2831,23.926010131835934,324.3128967285156,35.01107406616211,150.8806610107422
2832,7.7247633934021,319.552001953125,22.29167366027832,134.87762451171878
2833,10.92985725402832,325.7826843261719,24.20276260375977,150.39447021484375
2834,16.03856086730957,336.1235046386719,34.872695922851555,163.79078674316406
2835,3.868926525115967,326.2015686035156,23.765193939208984,155.15536499023438
2836,-9.265602111816406,318.5198059082031,14.44162368774414,146.43017578125
2837,-0.18512505292892456,318.62078857421875,12.567934036254885,153.60704040527344
2838,17.987049102783203,336.0599365234375,27.348018646240234,174.9581298828125
2839,10.481069564819336,327.2150573730469,23.3051872253418,164.71827697753906
2840,7.735982894897461,317.1397705078125,18.417137145996094,158.82420349121094
2841,14.27706813812256,318.9461364746094,21.136045455932614,159.0186767578125
2842,31.521747589111328,330.83154296875,23.297706604003906,167.123046875
2843,25.46684837341309,323.7930603027344,23.37998390197754,163.4579315185547
2844,16.098400115966793,311.64959716796875,15.114805221557615,143.98802185058594
2845,20.204809188842773,321.4256896972656,12.28744125366211,149.6988525390625
2846,44.09529113769531,335.5251159667969,26.36442565917969,169.29217529296875
2847,33.72454833984375,330.2892761230469,31.054258346557614,159.41136169433594
2848,24.57675170898437,316.7882385253906,23.899829864501953,151.20602416992188
2849,29.805131912231445,321.6164245605469,26.020353317260746,159.20567321777344
2850,42.93966293334961,333.2998962402344,37.49436569213867,165.52610778808594
2851,34.54358673095703,329.9078063964844,39.89164352416992,154.2615203857422
2852,20.22724914550781,319.08453369140625,33.548770904541016,144.45550537109375
2853,16.30035400390625,325.161865234375,26.48036193847656,148.60679626464844
2854,26.18116950988769,338.6965637207031,37.479408264160156,164.87161254882812
2855,13.746002197265625,335.9776611328125,40.23571395874024,164.1161651611328
2856,4.418691635131836,326.7737731933594,29.80139350891113,147.7391357421875
2857,3.767949104309082,327.8508605957031,20.6760368347168,155.47325134277344
2858,12.53427505493164,340.4393615722656,25.66506385803223,171.63710021972656
2859,9.175844192504883,331.3700866699219,23.383724212646484,165.3839874267578
2860,-4.471050262451172,323.43402099609375,16.23677635192871,159.45249938964844
2861,8.023955345153809,325.6705017089844,15.713190078735352,165.56724548339844
2862,26.69353675842285,339.56048583984375,24.88342475891113,186.1329498291016
2863,23.03217315673828,334.657470703125,28.32787132263184,182.5089874267578
2864,17.51582145690918,316.09259033203125,24.584232330322266,170.3356170654297
2865,26.072711944580078,316.57879638671875,18.690149307250977,167.6129608154297
2866,46.68330001831055,329.2533264160156,35.04099273681641,186.12921142578125
2867,33.75820541381836,320.8235778808594,37.51306533813477,176.25587463378906
2868,23.559499740600586,305.7293395996094,27.553712844848636,158.75314331054688
2869,28.223154067993164,314.974365234375,30.025787353515625,156.49424743652344
2870,45.22100067138672,332.439697265625,39.5849723815918,166.68173217773438
2871,31.854597091674805,322.83563232421875,33.48145294189453,153.87631225585938
2872,17.822492599487305,315.2810363769531,28.87015724182129,147.7840118408203
2873,14.95398998260498,318.366455078125,22.60208511352539,154.20169067382812
2874,25.2536735534668,332.1031188964844,28.118438720703125,163.9740447998047
2875,16.75288200378418,328.1650085449219,27.53501319885254,157.59751892089844
2876,-2.679638385772705,321.39202880859375,11.569380760192873,145.1660919189453
2877,5.189111232757568,324.68316650390625,7.223616600036621,149.44827270507812
2878,22.51606750488281,342.1447448730469,17.676637649536133,173.9820098876953
2879,20.982707977294922,333.1839599609375,26.012874603271484,174.9207305908203
2880,-2.5637013912200928,321.05169677734375,13.450550079345705,160.01348876953125
2881,6.355959892272949,321.62017822265625,9.231943130493164,169.9990234375
2882,26.098892211914066,333.3709411621094,25.51546669006348,183.91519165039062
2883,17.68411636352539,323.57989501953125,17.30264663696289,169.8269805908203
2884,13.573966979980467,313.8187561035156,13.308433532714846,163.99273681640625
2885,10.062200546264648,316.3955383300781,16.70426368713379,165.44381713867188
2886,30.788726806640625,331.6468505859375,24.48325538635254,178.23802185058594
2887,22.605825424194336,321.8558044433594,26.35320472717285,162.4930419921875
2888,10.873759269714355,312.9772644042969,18.41339683532715,143.65890502929688
2889,23.41738319396973,317.05377197265625,23.907310485839844,153.1358184814453
2890,40.0075798034668,327.3347473144531,36.37239837646485,168.23753356933594
2891,34.891395568847656,323.29937744140625,40.68824005126953,164.9464111328125
2892,21.85410499572754,307.9471130371094,29.027233123779297,147.5297088623047
2893,25.91563606262207,318.8040466308594,32.774612426757805,158.69705200195312
2894,33.612350463867195,328.6025695800781,34.06488037109375,168.99673461914062
2895,14.026494979858398,325.38250732421875,38.29844665527344,167.194091796875
2896,-1.3519738912582395,311.7056884765625,28.4101505279541,154.79258728027344
2897,5.656598567962647,323.8341979980469,28.79536056518555,156.58773803710938
2898,17.52330207824707,341.2322082519531,37.03062057495117,172.93858337402344
2899,5.780015468597412,331.8936767578125,32.10517120361328,162.9717559814453
2900,-1.9129588603973389,318.0672607421875,18.630311965942386,148.4160614013672
2901,10.802700996398926,320.7188720703125,21.0687255859375,155.26380920410156
2902,22.396390914916992,334.2161560058594,25.395790100097656,170.78065490722656
2903,23.009735107421875,330.0574035644531,25.1826171875,167.7962188720703
2904,8.910311698913574,314.4470520019531,11.95458984375,146.2095184326172
2905,25.04424095153809,318.14581298828125,15.71692943572998,157.193603515625
2906,30.70270919799805,324.1333923339844,17.65793800354004,166.92855834960938
2907,20.75457572937012,325.8948669433594,21.326780319213867,158.63720703125
2908,18.203962326049805,318.1420593261719,14.284547805786133,153.2106170654297
2909,24.464555740356445,320.4495849609375,18.536813735961914,159.72177124023438
2910,31.278654098510746,334.0703125,30.029525756835934,173.94461059570312
2911,24.38227844238281,330.88763427734375,30.80742645263672,173.0133819580078
2912,13.158838272094727,318.5235290527344,20.32074546813965,155.72007751464844
2913,12.59411334991455,320.1990051269531,13.68242359161377,160.66796875
2914,27.17224311828613,337.1220703125,27.25078010559082,175.66497802734375
2915,18.615352630615234,334.8145446777344,28.36901092529297,169.20989990234375
2916,5.151712417602539,321.18634033203125,16.49856948852539,149.7437286376953
2917,10.316514015197754,328.2958984375,16.094659805297848,152.17465209960938
2918,21.26320075988769,341.28082275390625,26.02409362792969,165.05487060546875
2919,27.538753509521484,332.36865234375,22.47492790222168,167.42222595214844
2920,3.74550986289978,316.6461181640625,11.13181209564209,148.94712829589844
2921,15.971242904663086,318.9461364746094,11.101893424987793,161.32244873046875
2922,22.14581680297852,332.6753234863281,23.548280715942386,176.42042541503906
2923,18.0169677734375,332.275146484375,21.64093017578125,168.7349395751953
2924,11.685317039489744,320.0157470703125,12.747448921203613,150.61512756347656
2925,15.518714904785154,325.42364501953125,9.781708717346193,156.04171752929688
2926,32.352005004882805,334.5976257324219,17.074512481689453,170.9788818359375
2927,20.724655151367188,326.0931091308594,14.538861274719238,159.55348205566406
2928,10.454890251159668,318.2467956542969,11.292628288269045,153.73045349121094
2929,19.40073013305664,321.418212890625,8.51014232635498,165.04739379882812
2930,36.91094207763672,338.2889099121094,23.03217315673828,181.34213256835938
2931,24.606672286987305,332.27142333984375,22.35525131225586,172.90118408203125
2932,6.621492862701416,322.88427734375,13.76470184326172,159.26925659179688
2933,7.197437286376952,322.697265625,13.057860374450685,162.05548095703125
2934,27.553712844848636,343.4350280761719,26.499061584472656,182.02279663085938
2935,14.699676513671875,337.3988037109375,33.62356948852539,171.83157348632812
2936,3.547295093536377,326.52691650390625,28.024940490722656,156.1277313232422
2937,7.264755725860597,330.13592529296875,23.869911193847656,163.70851135253906
2938,25.44067001342773,341.63238525390625,34.95497512817383,184.3265838623047
2939,19.35211181640625,335.5887145996094,35.097091674804695,177.14596557617188
2940,9.542354583740234,321.5603332519531,26.80199241638184,165.2007293701172
2941,14.766995429992676,319.3388366699219,20.825632095336914,168.36842346191406
2942,26.58133888244629,329.5263366699219,28.43258857727051,174.57666015625
2943,27.65468978881836,325.7527770996094,30.84108543395996,172.18312072753906
2944,15.948802947998047,308.4295349121094,23.716575622558594,153.43125915527344
2945,32.23232650756836,316.5600891113281,29.651796340942386,160.95220947265625
2946,43.19023513793945,327.9368591308594,34.558544158935554,166.41993713378906
2947,39.88416290283203,328.2659912109375,42.21411895751953,158.8167266845703
2948,25.130258560180664,311.4065246582031,30.53815269470215,141.4336700439453
2949,26.82069206237793,313.6691589355469,23.39120483398437,151.090087890625
2950,47.06851196289063,333.0044250488281,39.34187698364258,174.52804565429688
2951,29.22170829772949,325.337646484375,40.07489776611328,165.0773162841797
2952,15.08862590789795,318.02239990234375,29.59943771362305,156.5690460205078
2953,25.94929504394531,322.274658203125,28.526086807250977,162.1489715576172
2954,28.63080406188965,336.0412292480469,35.81515121459961,170.23463439941406
2955,17.010934829711914,333.483154296875,31.45816802978516,161.95449829101562
2956,-0.974243938922882,321.2162780761719,21.2445011138916,154.07452392578125
2957,1.80450177192688,322.5289611816406,16.165718078613278,159.1570587158203
2958,8.633559226989746,336.7892150878906,19.31097412109375,175.65748596191406
2959,8.693397521972656,325.1094970703125,15.107325553894045,173.36119079589844
2960,-7.130119323730469,313.70654296875,12.766148567199707,162.9717559814453
2961,9.834067344665527,315.7934265136719,9.79666805267334,167.14547729492188
2962,26.48036193847656,335.1212158203125,18.03192710876465,182.43792724609372
2963,22.86387825012207,325.7303161621094,26.435482025146484,180.56797790527344
2964,10.754082679748537,308.8110046386719,13.069080352783205,156.19879150390625
2965,17.067033767700195,310.4528503417969,11.206610679626463,157.67979431152344
2966,41.03605270385742,330.3752746582031,31.06173896789551,177.73313903808594
2967,36.940860748291016,323.5724182128906,29.9248104095459,165.0399169921875
2968,18.693889617919922,309.1625671386719,17.20541000366211,146.13845825195312
2969,22.02614021301269,309.98907470703125,18.536813735961914,151.2509002685547
2970,37.07923889160156,333.4233093261719,21.229541778564453,159.74795532226562
2971,23.31266593933105,322.6224670410156,29.5956974029541,159.36648559570312
2972,9.08234691619873,316.41424560546875,21.33799934387207,144.65745544433594
2973,10.28659439086914,316.7096862792969,19.030481338500977,152.72442626953125
2974,18.903324127197266,331.96099853515625,26.585079193115234,166.91734313964844
2975,16.412551879882812,329.30194091796875,28.339092254638672,160.41366577148438
2976,-3.0386686325073238,317.4726257324219,14.183570861816404,150.4617919921875
2977,4.4336514472961435,314.40216064453125,9.527395248413086,155.70138549804688
2978,15.960022926330565,332.7276916503906,12.34354019165039,170.33187866210938
2979,11.490842819213867,326.63165283203125,21.405317306518555,172.89744567871094
2980,-6.928164482116699,312.5022888183594,10.271635055541992,163.3756561279297
2981,-0.22252404689788816,322.20361328125,16.651905059814453,169.42681884765625
2982,21.00514793395996,331.4635925292969,28.847719192504886,187.2250061035156
2983,19.655044555664066,331.54962158203125,36.78752517700195,179.25901794433594
2984,11.303847312927244,311.18212890625,25.945556640625,163.19239807128906
2985,20.586278915405273,316.2608947753906,25.410749435424805,158.52874755859375
2986,39.85424423217773,319.8998107910156,33.694629669189446,162.18263244628906
2987,34.62586212158203,318.22808837890625,34.96245574951172,156.3895263671875
2988,18.076807022094727,299.8502197265625,22.605825424194336,142.2302703857422
2989,20.634897232055664,309.37200927734375,25.51546669006348,152.09237670898438
2990,39.97391891479492,325.161865234375,34.408950805664055,164.12738037109375
2991,24.748788833618164,324.60089111328125,32.11265182495117,157.67605590820312
2992,11.898491859436035,314.94818115234375,33.462753295898445,154.75144958496094
2993,10.73912239074707,320.59918212890625,25.48554801940918,156.2174835205078
2994,23.638036727905273,340.57025146484375,35.35888290405273,176.24465942382812
2995,14.19105052947998,338.5731506347656,36.222801208496094,168.23379516601562
2996,6.56913423538208,330.0349426269531,26.3681640625,160.36129760742188
2997,4.49722957611084,330.1322021484375,23.477222442626953,162.16018676757812
2998,21.300600051879886,343.966064453125,26.86931037902832,171.98117065429688
2999,17.358745574951172,335.1174621582031,28.79536056518555,163.87680053710938
3000,0.9368449449539183,317.861572265625,12.28744125366211,151.91661071777344
3001,14.363085746765135,322.5514221191406,14.39300537109375,161.28878784179688
3002,26.01661491394043,328.43426513671875,25.455629348754886,179.09445190429688
3003,27.299400329589844,327.6750793457031,28.17079734802246,173.7763214111328
3004,17.50834083557129,310.96893310546875,14.508941650390625,162.22750854492188
3005,20.18610954284668,309.375732421875,10.290334701538086,163.1737060546875
3006,38.18251037597656,326.8036804199219,29.48724174499512,180.9307556152344
3007,36.1741828918457,327.3609313964844,39.71960830688477,180.5417938232422
3008,23.978368759155273,317.3641662597656,28.45502853393555,161.15042114257812
3009,24.86098480224609,314.7499694824219,25.119037628173828,157.7882537841797
3010,38.93048858642578,330.5099182128906,33.33933639526367,175.41439819335938
3011,34.80350875854492,332.1143493652344,43.940086364746094,172.14385986328125
3012,21.0631160736084,315.9429931640625,29.66488647460937,156.87010192871094
3013,16.945486068725586,321.5752868652344,26.048402786254886,159.31973266601562
3014,32.009803771972656,338.1019287109375,39.73269653320313,174.1072998046875
3015,19.301624298095703,331.3514099121094,40.84718704223633,164.0694122314453
3016,7.3526434898376465,322.1923828125,29.5788688659668,149.50250244140625
3017,2.3561370372772217,319.88861083984375,20.756444931030273,147.621337890625
3018,17.555089950561527,338.6404724121094,33.30006790161133,167.18101501464844
3019,11.848003387451172,339.0780334472656,34.79602813720703,163.2653350830078
3020,4.285925388336182,328.93914794921875,22.125247955322266,146.16650390625
3021,7.94354772567749,332.89971923828125,20.958398818969727,151.28269958496094
3022,30.180992126464844,338.99200439453125,33.285110473632805,167.49142456054688
3023,28.225025177001953,332.604248046875,32.97469711303711,156.44749450683594
3024,19.04730987548828,318.5721435546875,19.731712341308594,150.69552612304688
3025,29.743423461914066,318.59832763671875,26.99085807800293,161.1822052001953
3026,45.68661880493164,327.16644287109375,31.05986976623535,181.6918182373047
3027,32.66054534912109,320.9432678222656,29.05154228210449,171.23880004882812
3028,17.86176300048828,309.8282775878906,24.47016525268555,158.1678466796875
3029,21.399707794189453,312.75286865234375,12.573543548583984,163.47850036621094
3030,32.290294647216804,332.76507568359375,26.09328269958496,185.51025390625
3031,32.88867950439453,328.5950927734375,34.545455932617195,173.396728515625
3032,23.87552070617676,319.63055419921875,31.99484443664551,167.42410278320312
3033,22.61143493652344,326.7363586425781,29.79204368591309,167.4128875732422
3034,37.02874755859375,340.09527587890625,39.48212432861328,180.2145538330078
3035,31.30670166015625,336.52740478515625,45.09197235107422,170.65538024902344
3036,16.27230453491211,326.2613830566406,38.70796585083008,159.25616455078125
3037,1.847510576248169,318.7965393066406,22.79469108581543,151.27146911621094
3038,21.38848876953125,339.4482727050781,33.44966506958008,171.11912536621094
3039,15.905794143676758,331.3401794433594,31.650774002075195,163.01101684570312
3040,4.839430332183838,318.6694030761719,18.7742977142334,144.27786254882812
3041,2.1055636405944824,325.595703125,24.70951843261719,151.75765991210938
3042,14.634228706359865,333.9580993652344,19.870088577270508,159.51795959472656
3043,23.16119956970215,335.5363464355469,30.28570938110352,167.10995483398438
3044,4.487879753112793,320.77496337890625,14.903501510620115,151.33131408691406
3045,10.344563484191896,321.8744812011719,14.21909999847412,154.30079650878906
3046,31.968664169311523,335.5513000488281,29.982778549194336,167.47645568847656
3047,26.25783729553223,330.8203430175781,33.674060821533196,166.2572479248047
3048,13.06721019744873,314.645263671875,21.90459442138672,151.177978515625
3049,10.726033210754396,316.6573181152344,18.609743118286133,146.73870849609375
3050,29.3731746673584,337.2267761230469,30.936452865600586,166.8219757080078
3051,21.47824478149414,333.0268859863281,32.76526260375977,162.98483276367188
3052,4.0353522300720215,320.2364196777344,26.77768325805664,151.45472717285156
3053,8.04078483581543,318.0859680175781,21.149133682250977,153.39199829101562
3054,26.14937973022461,332.3088073730469,31.62459373474121,170.18040466308594
3055,26.55328941345215,326.7924499511719,30.26327133178711,171.2687225341797
3056,19.671873092651367,317.1996154785156,30.8691349029541,159.12899780273438
3057,7.363862991333008,316.1898498535156,17.674766540527344,152.97686767578125
3058,23.378114700317386,336.4787902832031,28.92812538146973,167.2782440185547
3059,12.046217918395994,337.873779296875,36.08629608154297,160.04153442382812
3060,-1.1631089448928833,323.3031311035156,29.39187431335449,144.5733184814453
3061,0.7180607914924622,331.441162109375,25.670673370361328,155.8004913330078
3062,14.742685317993164,341.4640808105469,31.65825271606445,163.6804656982422
3063,12.719399452209473,332.2414855957031,31.29922294616699,157.30767822265625
3064,5.224640369415283,318.59832763671875,16.769710540771484,144.6144561767578
3065,12.622162818908693,319.2752685546875,15.31863021850586,150.497314453125
3066,33.120555877685554,329.34307861328125,26.44483184814453,169.24917602539062
3067,21.25385093688965,327.2524719238281,26.145641326904297,168.8976287841797
3068,10.221146583557127,316.159912109375,17.525171279907227,157.281494140625
3069,11.49271297454834,310.9988708496094,9.978053092956543,159.96673583984375
3070,19.978546142578125,323.15728759765625,14.245279312133787,175.2479705810547
3071,15.69636058807373,322.4616394042969,18.733158111572266,167.47645568847656
3072,1.821331262588501,309.84698486328125,13.680554389953613,152.21392822265625
3073,11.316937446594238,309.6038818359375,6.00253963470459,154.4840545654297
3074,26.40369415283203,330.3341369628906,21.074337005615234,169.94105529785156
3075,29.19365882873535,321.4780578613281,29.47789192199707,168.59469604492188
3076,16.743532180786133,312.6481628417969,22.39452171325684,154.33819580078125
3077,23.389333724975586,319.19671630859375,29.081462860107425,158.65777587890625
3078,37.59721374511719,329.9788513183594,42.496482849121094,175.31529235839844
3079,42.15989303588867,330.15087890625,47.50046920776367,169.20054626464844
3080,18.85283660888672,319.2602844238281,28.54665565490723,146.73123168945312
3081,15.550503730773926,319.11444091796875,26.77768325805664,149.53990173339844
3082,25.244325637817386,337.204345703125,33.13177490234375,161.75440979003906
3083,20.49091148376465,327.2936096191406,32.74656295776367,159.0616912841797
3084,3.754859447479248,310.8268127441406,18.351688385009766,148.1299591064453
3085,10.29220485687256,312.0796813964844,14.697806358337402,145.1604766845703
3086,26.78890419006348,331.3551330566406,17.992658615112305,165.00437927246094
3087,19.413820266723636,333.78607177734375,16.455560684204098,169.6904754638672
3088,5.209680557250977,318.4973449707031,12.322970390319824,153.97915649414062
3089,6.114736557006836,321.2574157714844,5.6435089111328125,160.06024169921875
3090,22.484277725219727,333.5915832519531,22.042970657348636,182.3650054931641
3091,19.77659034729004,332.2003479003906,31.43385887145996,178.80087280273438
3092,13.115829467773438,316.7358703613281,19.215606689453125,157.7078399658203
3093,11.264578819274902,320.5356140136719,13.934866905212402,159.38705444335938
3094,31.41889953613281,337.193115234375,27.649080276489254,172.92922973632812
3095,31.63581466674805,333.5242919921875,39.03707504272461,171.8633575439453
3096,17.570049285888672,316.3282165527344,26.23913764953613,148.8854217529297
3097,23.639907836914066,315.9429931640625,24.387887954711914,150.19064331054688
3098,29.49285125732422,330.0050354003906,32.40997314453125,168.66949462890625
3099,28.17640686035156,332.7875061035156,35.304656982421875,168.9873809814453
3100,4.873089790344238,325.3899841308594,31.50491714477539,153.60516357421875
3101,11.634828567504885,321.8034362792969,23.307056427001953,161.00643920898438
3102,25.2181453704834,331.3962707519531,31.029949188232425,176.5756378173828
3103,25.41636085510254,328.026611328125,34.201385498046875,177.4171142578125
3104,10.116429328918457,310.9352722167969,23.729665756225586,161.12985229492188
3105,7.270365715026855,313.459716796875,13.893728256225586,162.0610809326172
3106,28.217544555664066,331.86376953125,25.60709571838379,175.9884796142578
3107,28.464378356933594,327.76483154296875,29.19365882873535,169.09957885742188
3108,5.737006664276122,310.4004821777344,13.153227806091307,153.6762237548828
3109,10.187487602233887,309.7198181152344,10.572697639465332,151.96710205078125
3110,23.41551399230957,329.7207946777344,17.136220932006836,162.62954711914062
3111,25.04985046386719,329.11492919921875,21.968172073364254,167.20718383789062
3112,3.208834171295166,312.087158203125,11.455313682556152,150.1981201171875
3113,10.800830841064453,314.8958435058594,14.028365135192873,148.35435485839844
3114,30.28196907043457,329.60113525390625,23.957799911499023,166.45921325683594
3115,34.336021423339844,327.92938232421875,28.56535530090332,166.7397003173828
3116,18.389087677001953,320.4308776855469,30.59986114501953,150.7815399169922
3117,22.10654830932617,316.9153747558594,23.92040061950684,147.6138458251953
3118,38.20681762695313,333.67388916015625,38.20681762695313,169.88121032714844
3119,28.08290863037109,331.2055358886719,38.977237701416016,167.00149536132812
3120,13.216806411743164,315.8382873535156,26.91231918334961,157.11318969726562
3121,17.513952255249027,318.7367248535156,23.954059600830078,164.42843627929688
3122,34.810989379882805,325.25537109375,31.47125816345215,172.98907470703125
3123,29.436752319335934,328.37445068359375,38.50226974487305,173.21347045898438
3124,18.684539794921875,318.1083984375,36.51638412475586,159.74234008789062
3125,14.963339805603027,312.8837585449219,22.5478572845459,158.5044403076172
3126,31.17206573486328,331.171875,30.068796157836914,171.04806518554688
3127,16.58271598815918,327.27117919921875,27.64159965515137,160.29959106445312
3128,3.6838014125823975,310.056396484375,15.786117553710938,147.8681640625
3129,8.998199462890625,308.96435546875,12.431427001953125,150.6581268310547
3130,21.21271324157715,328.9429016113281,22.660053253173828,163.1830596923828
3131,20.85368156433105,321.45562744140625,25.405139923095703,161.8965301513672
3132,10.16130828857422,314.0393981933594,18.897714614868164,150.74789428710938
3133,16.500438690185547,306.08837890625,12.81663703918457,156.24554443359375
3134,29.653667449951172,321.65008544921875,22.45809936523437,170.16171264648438
3135,31.310441970825195,319.6529846191406,27.55558204650879,171.14529418945312
3136,16.34336280822754,301.10308837890625,11.889142036437988,148.6872100830078
3137,22.40574073791504,310.8081359863281,19.540977478027344,158.41468811035156
3138,30.498884201049805,326.1417236328125,29.242277145385746,169.0696563720703
3139,33.060714721679695,318.8863220214844,34.80350875854492,163.84127807617188
3140,15.284971237182615,305.8078918457031,23.381855010986328,144.36761474609375
3141,9.106656074523926,305.5086975097656,16.537837982177734,141.87684631347656
3142,36.02645492553711,329.38421630859375,37.27558135986328,167.0613250732422
3143,28.913166046142575,329.70208740234375,38.2516975402832,163.5121612548828
3144,4.7982916831970215,310.28826904296875,15.292450904846193,146.06927490234375
3145,4.237306594848634,314.2151794433594,15.917014122009276,150.60951232910156
3146,18.20957374572754,331.2130126953125,26.71784591674805,172.0765380859375
3147,17.682247161865234,328.2547607421875,29.05528259277344,174.43641662597656
3148,2.3823163509368896,312.5135192871094,22.839569091796875,156.40635681152344
3149,6.7579994201660165,315.8495178222656,19.82894897460937,162.8427276611328
3150,19.361461639404297,324.832763671875,25.277984619140625,173.57623291015625
3151,23.01160430908203,322.33074951171875,31.68069267272949,169.6231689453125
3152,9.544224739074707,306.159423828125,22.364601135253906,153.27606201171875
3153,7.371342658996582,303.3058776855469,13.860069274902346,151.35374450683594
3154,34.347240447998054,322.3644104003906,25.969865798950195,171.1826934814453
3155,30.87287330627441,319.7053527832031,31.10100746154785,164.64161682128906
3156,20.513351440429688,309.99658203125,28.718690872192386,158.86346435546875
3157,28.43819999694824,309.33087158203125,28.00811004638672,162.4949188232422
3158,50.806541442871094,327.1851501464844,39.022117614746094,181.6170196533203
3159,34.960586547851555,324.4886779785156,37.96746444702149,175.3040771484375
3160,23.44543266296387,312.20684814453125,24.13357353210449,157.1618194580078
3161,16.051651000976562,308.9157409667969,19.129589080810547,153.5453338623047
3162,29.59756851196289,326.3249816894531,29.15999984741211,176.4783935546875
3163,24.09991455078125,329.9078063964844,34.79228973388672,174.4850311279297
3164,8.096883773803711,315.2099914550781,27.8472957611084,153.56777954101562
3165,6.7019004821777335,313.99078369140625,20.37871551513672,152.42335510253906
3166,30.020177841186523,337.43994140625,36.43784713745117,172.23361206054688
3167,19.791549682617188,330.1920166015625,35.140098571777344,169.6493377685547
3168,11.21969985961914,316.8705139160156,24.51504325866699,151.43603515625
3169,15.086756706237793,314.5218505859375,16.694913864135742,156.83270263671875
3170,28.617713928222656,324.5933837890625,25.827749252319336,177.6377716064453
3171,33.64788055419922,325.0085144042969,32.84006118774414,181.38514709472656
3172,17.865501403808594,309.61883544921875,23.66982650756836,163.07833862304688
3173,16.167587280273438,308.99053955078125,13.407541275024414,161.74319458007812
3174,33.46088409423828,323.4003601074219,21.0631160736084,179.64608764648438
3175,32.31647491455078,324.2979431152344,36.74077606201172,174.8739776611328
3176,19.170726776123047,313.4260559082031,23.591289520263672,158.126708984375
3177,19.42504119873047,311.9562683105469,21.440847396850586,152.67393493652344
3178,4.0353522300720215,299.3004455566406,12.76801872253418,136.45773315429688
3179,-4.229826927185059,301.5743103027344,5.336837291717528,135.87055969238278
3180,12.147194862365724,315.8719482421875,11.61238956451416,146.4282989501953
3181,13.669334411621096,313.29888916015625,22.56281661987305,151.67538452148438
3182,-1.043432116508484,299.34906005859375,12.106056213378904,129.47160339355472
3183,-7.322724342346191,299.8689270019531,-0.5535051822662354,135.99024963378906
3184,3.1190764904022217,313.3736877441406,3.971773862838745,147.3483123779297
3185,6.63458251953125,313.3587341308594,10.273505210876463,151.66041564941406
3186,-9.465686798095703,293.7354736328125,4.3046250343322745,139.16168212890622
3187,-13.486079216003418,287.1495056152344,-3.534205436706543,144.83135986328125
3188,6.271812438964844,308.9194641113281,14.054544448852539,164.3686065673828
3189,0.8152981996536255,301.21527099609375,5.733266830444336,161.67213439941406
3190,-17.955259323120114,291.8206481933594,-5.894082546234131,144.00485229492188
3191,-20.08700180053711,295.4147033691406,-14.357476234436035,143.6757354736328
3192,-4.701054096221924,307.6890563964844,-4.031611919403076,164.7313690185547
3193,1.290265440940857,309.49542236328125,0.6619622707366943,158.73257446289062
3194,-9.132835388183594,290.3359069824219,-2.606710195541382,141.44302368164062
3195,2.2476799488067627,294.2142028808594,-3.4407079219818115,143.2119903564453
3196,16.85198974609375,303.9603576660156,-1.3575836420059204,149.08737182617188
3197,12.487525939941404,306.3688659667969,1.5034397840499878,147.75596618652344
3198,-7.214266777038574,291.0053405761719,-6.230673313140869,124.7817611694336
3199,-3.4893267154693604,304.88787841796875,1.1668487787246704,130.21583557128906
3200,16.096529006958008,321.67626953125,9.660161972045898,143.09979248046875
3201,16.3209228515625,320.59918212890625,13.646895408630373,141.77960205078125
3202,-1.0845710039138794,303.9042663574219,14.873581886291506,131.27796936035156
3203,1.604417085647583,301.4359436035156,7.251666069030763,132.36253356933594
3204,6.054898262023926,316.3394470214844,10.475460052490234,149.2294921875
3205,6.548564910888673,315.5615234375,16.44059944152832,154.5139617919922
3206,-16.799631118774414,302.71124267578125,5.441554546356201,145.7177276611328
3207,-14.3051176071167,300.8001403808594,-4.959107398986816,152.34857177734375
3208,-0.24683339893817904,314.0543518066406,3.7511196136474614,170.96205139160156
3209,-10.916768074035645,311.6009826660156,5.03764533996582,167.99256896972656
3210,6.210103988647461,308.7492980957031,17.166141510009766,169.6904754638672
3211,7.160038471221924,306.5502624511719,8.912181854248047,167.79061889648438
3212,19.067880630493164,319.7969665527344,11.062623977661133,179.23097229003906
3213,18.791128158569336,320.4065856933594,15.786117553710938,174.05868530273438
3214,5.42472505569458,308.87646484375,9.458207130432127,162.64825439453125
3215,12.130365371704102,308.7530517578125,7.610696315765381,162.38645935058594
3216,27.475175857543945,321.62579345703125,17.719646453857422,172.94046020507812
3217,28.604625701904297,320.3691711425781,22.26362419128418,167.65597534179688
3218,19.797161102294922,306.2697448730469,20.82002258300781,152.25132751464844
3219,20.679777145385746,309.310302734375,26.13442039489746,156.3988800048828
3220,39.89164352416992,322.702880859375,33.80869674682617,165.00437927246094
3221,26.08767127990723,325.3955993652344,34.02186965942383,161.28692626953125
3222,14.51268196105957,313.196044921875,28.853328704833984,151.86611938476562
3223,15.829126358032227,315.2006530761719,23.20233917236328,146.52928161621094
3224,28.683162689208984,321.12091064453125,30.37172698974609,163.4822540283203
3225,14.449103355407715,326.5549621582031,33.516983032226555,166.07398986816406
3226,2.574921131134033,318.1551513671875,26.72158432006836,152.1914825439453
3227,6.419538497924805,314.4451904296875,18.968772888183594,147.6138458251953
3228,30.900922775268555,328.7315979003906,29.19365882873535,170.91717529296875
3229,24.872203826904297,324.7972106933594,28.80097007751465,171.82969665527344
3230,10.327733993530273,308.1471862792969,17.674766540527344,156.7803497314453
3231,15.821646690368652,308.57354736328125,12.524925231933596,163.32516479492188
3232,31.22629547119141,316.65545654296875,22.678752899169922,176.18295288085938
3233,23.91105079650879,320.3280334472656,25.99604415893555,175.19187927246094
3234,8.397945404052733,306.3632507324219,16.15262794494629,171.78855895996094
3235,16.113359451293945,307.86669921875,10.494159698486328,167.70458984375
3236,33.466495513916016,320.9526062011719,19.813989639282227,174.25315856933594
3237,27.20590209960937,320.7880554199219,28.92812538146973,175.15074157714844
3238,13.140138626098633,311.99554443359375,24.47390556335449,155.4526824951172
3239,13.89559841156006,309.78900146484375,22.420700073242188,149.5286865234375
3240,37.85339736938477,325.0328369140625,30.068796157836914,162.58840942382812
3241,33.63105010986328,330.0256042480469,34.721229553222656,161.75440979003906
3242,11.32254695892334,318.55157470703125,28.718690872192386,149.66331481933594
3243,7.122639656066895,319.97650146484375,25.96612548828125,145.89723205566406
3244,18.72380828857422,336.23382568359375,31.36654090881348,161.91522216796875
3245,15.941323280334473,340.4861145019531,44.29163360595703,168.44883728027344
3246,1.183678388595581,325.3544616699219,33.51324462890625,154.36062622070312
3247,2.541261911392212,322.33636474609375,22.087848663330078,149.90640258789062
3248,25.83335876464844,336.6751403808594,24.00641822814941,165.8122100830078
3249,18.506895065307614,338.4740295410156,27.21151161193848,169.3688507080078
3250,10.63066577911377,321.4163513183594,16.91556739807129,159.9143829345703
3251,11.232789993286133,314.1160583496094,8.942100524902344,159.83958435058594
3252,26.72345542907715,331.259765625,20.827503204345703,182.8885803222656
3253,29.12073135375977,331.48040771484375,24.79179763793945,187.02117919921875
3254,14.50146198272705,318.4767761230469,11.234659194946287,163.15687561035156
3255,5.076914310455322,311.39715576171875,3.99047327041626,165.38584899902344
3256,28.19323539733887,322.4934387207031,21.69141960144043,181.0111541748047
3257,24.82732582092285,321.506103515625,23.41551399230957,172.6786651611328
3258,14.407964706420898,315.69805908203125,21.893373489379886,158.41468811035156
3259,16.04604148864746,312.4667663574219,16.234905242919922,152.2288818359375
3260,34.992374420166016,332.9315185546875,30.592382431030273,175.8949737548828
3261,35.0185546875,335.74017333984375,41.51662826538086,173.4677734375
3262,17.598098754882812,322.7889099121094,36.94647216796875,154.7907257080078
3263,14.886672019958494,324.1015930175781,35.31587600708008,158.20150756835938
3264,16.42751121520996,342.0942687988281,44.29163360595703,165.34844970703125
3265,23.121931076049805,337.4941711425781,45.56694030761719,168.93502807617188
3266,10.170658111572266,325.5190124511719,36.033935546875,156.08847045898438
3267,6.576613903045653,323.53314208984375,28.569095611572266,143.888916015625
3268,24.352357864379886,334.7117004394531,38.12080001831055,160.4716339111328
3269,20.021554946899414,334.0123291015625,40.12164688110352,155.1160888671875
3270,9.97244358062744,320.7955322265625,30.60360145568848,147.01173400878906
3271,8.195990562438965,320.7095031738281,19.89626693725586,148.44410705566406
3272,19.344633102416992,329.5207214355469,19.21186637878418,163.57574462890625
3273,19.643823623657227,331.1026916503906,21.08181571960449,169.41372680664062
3274,11.752635955810547,315.30908203125,16.276044845581055,160.4604034423828
3275,13.858199119567873,315.3614501953125,6.873936176300049,160.28463745117188
3276,30.900922775268555,327.0748291015625,17.095083236694336,175.756591796875
3277,34.857738494873054,329.9732360839844,29.653667449951172,173.1835479736328
3278,15.197083473205565,315.85137939453125,23.467872619628906,159.89942932128906
3279,16.334012985229492,314.62469482421875,16.414421081542972,156.9822998046875
3280,32.265987396240234,323.39849853515625,23.935359954833984,171.64271545410156
3281,33.20844268798828,327.86767578125,36.49020385742188,175.756591796875
3282,18.13664436340332,315.8738098144531,28.26242446899414,158.96444702148438
3283,13.390711784362793,308.77923583984375,24.2906494140625,158.1828155517578
3284,28.91877555847168,326.1435852050781,31.80036926269531,171.76612854003906
3285,24.15414428710937,328.4062194824219,40.402137756347656,168.31793212890625
3286,8.517621994018555,327.3440856933594,35.09522247314453,159.3085174560547
3287,3.3229010105133057,323.3311767578125,34.321060180664055,143.4962158203125
3288,17.8411922454834,334.9061584472656,36.93151092529297,159.2337188720703
3289,24.408456802368164,333.5261535644531,40.114166259765625,155.0712127685547
3290,11.341246604919435,316.7190246582031,32.623146057128906,140.41079711914062
3291,10.75034236907959,307.5076599121094,21.22393226623535,141.83570861816406
3292,22.34029197692871,321.1994323730469,17.169879913330078,155.31430053710938
3293,26.06523323059082,328.1556396484375,24.50382423400879,157.73402404785156
3294,10.447410583496094,308.8240966796875,6.780438423156737,144.9547882080078
3295,9.385278701782227,309.11956787109375,3.2200539112091064,148.43289184570312
3296,25.840839385986328,322.03717041015625,11.376775741577148,158.28378295898438
3297,26.431743621826172,327.8901062011719,22.514198303222656,165.7935028076172
3298,11.595560073852539,307.8442687988281,15.531804084777832,147.621337890625
3299,6.43823766708374,305.9256896972656,13.942346572875975,146.84716796875
3300,21.09116554260254,319.6211853027344,23.83064270019531,168.99859619140625
3301,24.43463706970215,330.4369812011719,31.276782989501953,171.0181427001953
3302,9.112266540527344,314.733154296875,22.63013458251953,157.457275390625
3303,5.050734996795653,313.57379150390625,17.555089950561527,153.21621704101562
3304,23.106971740722656,330.0330810546875,33.292591094970696,174.03250122070312
3305,23.09201240539551,334.8500671386719,39.72521591186523,183.1765594482422
3306,4.777722358703613,318.4842834472656,28.30356216430664,161.11114501953125
3307,5.39106559753418,324.93560791015625,27.66029930114746,165.73367309570312
3308,13.256075859069824,329.25518798828125,34.911964416503906,173.70339965820312
3309,9.254382133483887,334.5321960449219,38.47608947753906,163.5046844482422
3310,1.5015698671340942,318.14019775390625,30.592382431030273,148.4628143310547
3311,-0.16268564760684967,316.47967529296875,21.34360885620117,144.25167846679688
3312,20.223508834838867,331.24853515625,28.76731109619141,156.69058227539062
3313,23.98958778381348,329.0345153808594,30.820514678955078,151.69781494140625
3314,9.000069618225098,312.7659606933594,18.482585906982425,143.06613159179688
3315,6.516775608062744,310.166748046875,8.571850776672362,148.76199340820312
3316,19.09405899047852,321.2929382324219,16.451820373535153,165.06796264648438
3317,19.5428466796875,331.45050048828125,23.51275062561035,173.0002899169922
3318,1.2061177492141724,311.4308166503906,14.320076942443848,160.3781280517578
3319,3.4051790237426762,314.0300598144531,9.746179580688477,159.37583923339844
3320,15.481315612792967,323.6902160644531,17.637367248535156,171.0592803955078
3321,24.68520927429199,324.2586669921875,23.815683364868164,172.5851593017578
3322,20.986448287963867,317.7662048339844,25.68189239501953,158.45956420898438
3323,12.900784492492676,316.2665100097656,21.164093017578125,150.08966064453125
3324,31.95931434631348,337.40069580078125,29.616268157958984,165.00064086914062
3325,31.551666259765625,339.1397399902344,43.846588134765625,167.76817321777344
3326,16.461170196533207,323.3760681152344,31.43385887145996,150.21682739257812
3327,7.874359130859375,322.7103576660156,17.005325317382812,138.91484069824222
3328,23.136890411376953,335.0819396972656,33.35616683959961,161.18594360351562
3329,28.137136459350586,336.2674865722656,39.583099365234375,160.39309692382812
3330,17.912250518798828,316.62554931640625,30.323108673095703,141.60757446289062
3331,16.285394668579098,318.1589050292969,26.74028396606445,142.79685974121094
3332,24.90586280822754,327.66571044921875,24.705780029296875,148.4141845703125
3333,19.393251419067386,336.20391845703125,25.96612548828125,157.116943359375
3334,7.133859157562256,322.18304443359375,18.2170524597168,148.7694854736328
3335,-1.6549056768417358,317.9419860839844,-0.5385456085205078,146.70880126953125
3336,16.535966873168945,337.4530334472656,11.634828567504885,167.56622314453125
3337,19.64756393432617,338.28704833984375,12.584763526916506,175.8126983642578
3338,9.549834251403807,329.3636474609375,14.940899848937988,168.33663940429688
3339,3.386479377746582,319.0602111816406,8.747626304626465,161.42530822753906
3340,24.22146224975586,337.5465393066406,21.62784194946289,180.41651916503903
3341,32.44550323486328,335.95709228515625,35.001724243164055,180.1285400390625
3342,8.293228149414062,321.1433410644531,28.76357078552246,162.00125122070312
3343,11.176691055297852,314.310546875,15.651481628417967,154.12875366210938
3344,18.783647537231445,331.3906555175781,32.140701293945305,169.67926025390625
3345,23.43608283996582,333.4775390625,37.1783447265625,171.0592803955078
3346,17.108171463012695,325.7733459472656,35.22237777709961,155.57235717773438
3347,10.51098918914795,323.9071350097656,33.401046752929695,149.76803588867188
3348,31.368410110473636,335.31756591796875,41.49419021606445,166.1001739501953
3349,33.885364532470696,337.5989074707031,51.10573196411133,163.43736267089844
3350,23.080793380737305,325.6199951171875,33.7862548828125,146.39463806152344
3351,16.412551879882812,322.3027038574219,24.73943901062012,143.7093963623047
3352,35.803932189941406,334.8650207519531,33.090633392333984,156.04733276367188
3353,36.73516845703125,333.1671142578125,34.437000274658196,161.67213439941406
3354,15.96750259399414,320.23828125,17.192319869995114,148.6685028076172
3355,10.163178443908693,310.0807189941406,12.218253135681152,141.47293090820312
3356,23.21916961669922,317.5081481933594,12.147194862365724,156.62327575683594
3357,24.03072738647461,326.18096923828125,16.006771087646484,161.9451446533203
3358,0.18886494636535645,311.2513122558594,9.144055366516113,146.9780731201172
3359,-1.886779546737671,315.8027648925781,2.371096611022949,157.17677307128906
3360,12.960623741149902,329.66656494140625,9.746179580688477,175.84262084960938
3361,21.596052169799805,336.3759460449219,27.892173767089844,177.05433654785156
3362,3.468757152557373,318.43939208984375,21.81109619140625,158.82606506347656
3363,7.881839275360107,311.40838623046875,17.031503677368164,154.570068359375
3364,23.15559005737305,326.0650329589844,27.92957305908203,171.22384643554688
3365,35.76653289794922,334.7939758300781,40.44701766967773,173.03395080566406
3366,17.186710357666016,318.3758239746094,27.17411231994629,165.4606475830078
3367,12.092966079711914,313.536376953125,24.2906494140625,157.5021514892578
3368,31.00564002990723,329.5917663574219,29.99399757385254,173.20223999023438
3369,31.140277862548828,331.24853515625,36.68093872070313,176.79629516601562
3370,14.722116470336914,315.0959167480469,25.405139923095703,158.8522491455078
3371,13.697383880615234,311.07177734375,16.32840347290039,152.87588500976562
3372,33.1112060546875,323.3087463378906,19.25300407409668,168.8639678955078
3373,26.514020919799805,330.11163330078125,26.05962371826172,168.45631408691406
3374,14.355606079101562,317.2463684082031,18.789257049560547,156.88131713867188
3375,11.423524856567385,309.4710998535156,9.058037757873537,152.4906768798828
3376,24.479515075683594,322.5570068359375,16.721092224121097,167.00149536132812
3377,28.41389083862305,326.1697692871094,18.755598068237305,168.39646911621094
3378,10.223016738891602,310.3649597167969,8.42225456237793,154.4915313720703
3379,1.4940900802612305,305.49932861328125,0.1869949996471405,149.29306030273438
3380,17.426063537597653,324.0043640136719,6.507425785064697,169.1070556640625
3381,16.625724792480472,329.9283752441406,14.92594051361084,169.6942138671875
3382,-10.065940856933594,313.371826171875,8.859823226928711,155.3778839111328
3383,-4.250396251678467,317.1004943847656,14.15178108215332,155.18341064453125
3384,10.69050407409668,331.9329528808594,21.62784194946289,164.51820373535156
3385,21.442716598510746,338.15240478515625,35.042861938476555,173.70713806152344
3386,5.802454948425293,315.6419372558594,30.035137176513672,153.80712890625
3387,6.539215087890625,308.4014892578125,20.685386657714844,150.76658630371094
3388,27.819246292114254,325.71722412109375,33.898452758789055,167.13986206054688
3389,30.684009552001953,330.837158203125,35.248558044433594,170.36366271972656
3390,17.818754196166992,315.0248718261719,27.226470947265625,156.095947265625
3391,17.635498046875,308.5847473144531,12.147194862365724,150.68431091308594
3392,27.740707397460934,319.980224609375,18.43396759033203,162.3191375732422
3393,29.606918334960934,327.81158447265625,28.90568733215332,166.6536865234375
3394,12.983062744140625,315.2791748046875,19.5372371673584,149.97372436523438
3395,13.899337768554688,315.6793518066406,14.87732219696045,150.4000701904297
3396,25.313512802124023,328.6380920410156,15.845955848693848,163.51589965820312
3397,16.640684127807614,326.764404296875,13.691773414611815,165.1165771484375
3398,-2.298168420791626,320.4439697265625,11.578730583190918,155.85659790039062
3399,-9.370319366455078,319.25469970703125,5.213420391082764,151.342529296875
3400,11.307587623596193,335.4372253417969,12.95875358581543,170.0869140625
3401,11.790034294128418,334.3825988769531,17.98891830444336,166.64620971679688
3402,2.05507493019104,325.4367370605469,11.54133129119873,155.1609649658203
3403,1.8792997598648071,314.7144470214844,-1.125709891319275,152.9058074951172
3404,23.38746452331543,331.2672424316406,10.995306015014648,167.79061889648438
3405,33.75820541381836,334.2629089355469,22.162647247314453,170.88351440429688
3406,25.23123550415039,314.392822265625,17.697206497192386,148.72085571289062
3407,23.926010131835934,316.1879577636719,18.2170524597168,151.12936401367188
3408,32.38566207885742,329.33746337890625,23.39681434631348,162.89134216308594
3409,39.11000442504883,330.97552490234375,34.773590087890625,176.1530303955078
3410,16.749141693115234,319.135009765625,22.55533599853516,157.85369873046875
3411,13.214936256408693,315.41754150390625,8.033305168151855,156.65879821777344
3412,29.66675567626953,327.1084899902344,16.72483253479004,170.8479766845703
3413,29.73781394958496,326.2221374511719,20.0832633972168,171.79043579101562
3414,10.372612953186037,312.42938232421875,11.81434440612793,151.23968505859375
3415,11.909711837768555,313.40924072265625,6.7019004821777335,148.98452758789062
3416,20.63115882873535,327.21319580078125,21.313690185546875,170.82554626464844
3417,31.43572998046875,336.929443359375,34.623992919921875,180.9307556152344
3418,15.354159355163574,319.3070373535156,24.937652587890625,162.34344482421875
3419,11.730195999145508,312.2161865234375,20.68912696838379,158.6820831298828
3420,32.179969787597656,325.1076354980469,29.3432559967041,175.27975463867188
3421,32.052810668945305,325.6312255859375,38.65560531616211,176.8206024169922
3422,19.55780601501465,310.3612060546875,22.98168563842773,160.12942504882812
3423,21.2445011138916,306.0603332519531,18.991212844848636,159.4786834716797
3424,39.229679107666016,323.18157958984375,21.4445858001709,167.94207763671875
3425,40.38531112670898,319.3070373535156,32.40997314453125,162.8296356201172
3426,28.851457595825195,316.2552795410156,25.68189239501953,153.39761352539062
3427,16.82394027709961,305.5329895019531,17.884201049804688,144.88558959960938
3428,34.738059997558594,325.6686096191406,30.27449035644531,161.83482360839844
3429,32.39688491821289,331.29718017578125,37.60095596313477,166.39749145507812
3430,14.939030647277832,318.3384094238281,32.301517486572266,150.17381286621094
3431,9.9387845993042,317.32489013671875,25.079769134521484,143.26995849609375
3432,27.52753448486328,332.2171936035156,31.1047477722168,168.57786560058594
3433,24.75252723693848,331.7347412109375,36.8380126953125,167.94581604003906
3434,13.760961532592773,321.2817077636719,33.008358001708984,158.91021728515625
3435,11.26270866394043,319.8605651855469,20.894821166992188,165.33163452148438
3436,27.35923767089844,325.0814514160156,27.518184661865234,181.1588897705078
3437,30.29505920410156,324.19134521484375,32.45111083984375,187.0006103515625
3438,12.003209114074707,313.7607727050781,22.63387489318848,165.5597686767578
3439,2.3879261016845703,306.5128479003906,15.064316749572756,158.40159606933594
3440,29.453582763671875,319.4416809082031,24.253252029418945,167.96826171875
3441,32.426803588867195,323.196533203125,29.60130882263184,165.2493438720703
3442,20.047733306884766,309.87127685546875,28.0230712890625,150.89935302734375
3443,14.565040588378904,302.866455078125,16.492958068847653,138.74093627929688
3444,26.55142021179199,311.8160400390625,18.47510528564453,157.29458618164062
3445,27.635990142822266,318.08782958984375,28.60649490356445,165.36154174804688
3446,20.76579475402832,309.06719970703125,30.79433631896973,150.86569213867188
3447,8.558760643005371,307.48895263671875,19.95984649658203,151.48651123046875
3448,17.19045066833496,321.31536865234375,21.265071868896484,157.9116668701172
3449,24.65903091430664,331.6636657714844,35.41685104370117,170.586181640625
3450,10.073420524597168,321.06854248046875,31.6732120513916,148.73020935058594
3451,11.01213550567627,315.2043762207031,23.58380889892578,149.0630645751953
3452,28.16705703735352,331.2111511230469,27.55558204650879,159.5796661376953
3453,27.763147354125977,332.4752502441406,29.283416748046875,164.99130249023438
3454,16.176937103271484,312.9828796386719,24.776836395263672,157.08888244628906
3455,16.80150032043457,306.071533203125,16.111488342285153,151.53887939453125
3456,31.581584930419922,318.701171875,25.689373016357425,166.62937927246094
3457,37.812259674072266,325.7322082519531,35.865638732910156,171.37156677246094
3458,17.31760597229004,304.4559020996094,19.61577606201172,156.83084106445312
3459,15.384078025817873,301.5462646484375,12.2332124710083,152.0961151123047
3460,23.42860412597656,318.55908203125,21.08181571960449,161.61790466308594
3461,35.26538848876953,321.36773681640625,29.19365882873535,159.37022399902344
3462,22.7703800201416,306.8494567871094,27.07687568664551,149.0069580078125
3463,16.887517929077152,300.4878845214844,18.88649559020996,137.05050659179688
3464,34.083580017089844,316.6330261230469,28.78974914550781,151.54635620117188
3465,33.97886276245117,324.66632080078125,32.095821380615234,160.44357299804688
3466,21.558652877807614,312.9193115234375,29.975297927856445,148.05328369140625
3467,15.46635627746582,303.4947509765625,19.716753005981445,143.19142150878906
3468,35.77775192260742,324.6925048828125,30.84295463562012,165.163330078125
3469,34.09105682373047,322.52337646484375,35.9815788269043,165.01747131347656
3470,19.722362518310547,311.4719543457031,32.15192031860352,153.99224853515625
3471,21.8316650390625,306.669921875,18.50128555297852,148.1991424560547
3472,27.501354217529297,314.6321716308594,18.572343826293945,165.3428497314453
3473,29.954729080200195,322.92352294921875,35.009204864501946,171.76425170898438
3474,16.13205909729004,306.7559509277344,24.00267791748047,155.87716674804688
3475,14.303247451782227,304.63916015625,16.029211044311527,151.37057495117188
3476,27.602331161499023,321.24432373046875,20.502132415771484,168.6938018798828
3477,32.88681030273437,326.69708251953125,36.396705627441406,174.20640563964844
3478,15.447656631469727,305.8471374511719,29.825702667236328,153.1993865966797
3479,13.7534818649292,302.5036926269531,10.886848449707033,147.5708465576172
3480,21.24076271057129,313.94403076171875,17.11378288269043,158.4165496826172
3481,23.79511260986328,323.9258117675781,28.210065841674805,162.93809509277344
3482,10.473589897155762,316.41986083984375,23.12006187438965,145.72706604003906
3483,14.142431259155273,312.93426513671875,30.19221305847168,152.46636962890625
3484,29.99960708618164,327.2356262207031,34.096668243408196,163.67111206054688
3485,36.39109802246094,331.9441833496094,37.8590087890625,170.3804931640625
3486,28.76918029785156,317.0743408203125,37.12224578857422,156.9056396484375
3487,18.174043655395508,310.6641540527344,26.79638290405273,146.5535888671875
3488,41.062232971191406,329.00836181640625,37.1147689819336,166.46107482910156
3489,42.55819320678711,333.8403015136719,42.13371276855469,167.885986328125
3490,12.852166175842285,315.5858459472656,30.65221977233887,151.77822875976562
3491,13.211196899414062,313.82061767578125,19.09218978881836,146.93505859375
3492,24.371057510375977,319.61370849609375,21.21645164489746,164.34803771972656
3493,26.450443267822266,329.3561706542969,29.36569404602051,171.4875030517578
3494,16.53970718383789,310.3424987792969,22.41322135925293,166.21424865722656
3495,14.594959259033205,300.5439758300781,19.55593681335449,161.0606689453125
3496,20.107572555541992,313.13995361328125,14.215359687805176,175.71359252929688
3497,26.603778839111328,324.62518310546875,29.941638946533203,192.3262176513672
3498,10.436190605163574,307.7657165527344,19.33154296875,167.73638916015625
3499,3.79412841796875,305.8845520019531,8.201601028442383,157.72840881347656
3500,18.114206314086914,322.6393127441406,15.37846851348877,166.97344970703125
3501,20.23098945617676,326.7569274902344,20.202939987182614,162.1676788330078
3502,10.211796760559082,311.6776428222656,17.49525260925293,143.1652374267578
3503,14.041454315185547,315.0323486328125,22.13272857666016,140.22193908691406
3504,35.03351211547852,316.423583984375,30.43156623840332,144.8594207763672
3505,48.007225036621094,323.4471130371094,45.59312057495117,158.2519989013672
3506,34.652042388916016,310.2677001953125,44.516029357910156,147.4025421142578
3507,27.18720245361328,305.97430419921875,39.09317398071289,146.44139099121094
3508,35.467342376708984,323.1853332519531,43.31178283691406,163.95909118652344
3509,41.032310485839844,327.8601989746094,49.79676818847656,164.7369842529297
3510,17.923471450805664,316.3861999511719,32.64932632446289,153.57337951660156
3511,8.416645050048826,315.1931457519531,21.680200576782227,155.31617736816406
3512,13.10647964477539,324.6214599609375,22.170127868652344,174.06430053710938
3513,13.244855880737305,337.610107421875,31.44881820678711,176.63734436035156
3514,0.3197614550590515,314.61346435546875,21.721338272094727,161.64035034179688
3515,-3.356560230255127,314.97998046875,15.703840255737305,163.6823272705078
3516,14.16861057281494,326.9775695800781,25.435060501098636,182.9465484619141
3517,17.38118553161621,324.98046875,31.370281219482425,188.227294921875
3518,6.441977500915527,310.2602233886719,24.12235450744629,166.4797821044922
3519,7.590126991271973,300.0951843261719,16.874427795410153,152.94508361816406
3520,29.419923782348636,318.1663818359375,28.68877220153809,164.71453857421875
3521,40.31051254272461,323.1628723144531,38.7154426574707,159.9910430908203
3522,32.14630889892578,304.9159240722656,27.55932235717773,142.5743408203125
3523,28.234375,311.9805908203125,27.043216705322266,135.60316467285156
3524,42.06452560424805,320.825439453125,27.94453239440918,146.69944763183594
3525,47.9249496459961,327.72930908203125,45.30140686035156,151.50148010253906
3526,31.12157821655273,313.1361999511719,38.88000106811523,134.37648010253906
3527,17.975830078125,308.8278503417969,29.7546443939209,134.44754028320312
3528,27.5125732421875,325.8070068359375,26.3625545501709,145.11746215820312
3529,22.7703800201416,326.2296142578125,33.76007843017578,154.13063049316406
3530,5.8473334312438965,322.5757141113281,27.44338607788086,149.32859802246094
