,T7,F8,Cz,P4
8000,75.95736694335938,362.4879455566406,59.50367736816406,230.09173583984372
8001,69.63319396972656,349.3197326660156,65.27060699462889,219.11138916015625
8002,53.45064926147461,338.7994079589844,54.51839065551758,211.5867156982422
8003,68.87025451660156,352.5884094238281,59.10725021362305,227.62713623046875
8004,77.19901275634766,363.72210693359375,69.94921875,243.48057556152344
8005,63.91115188598633,353.6131591796875,66.70298767089844,235.6679229736328
8006,45.52580261230469,335.1230773925781,51.94160079956055,225.2373504638672
8007,55.33929824829102,353.54583740234375,58.9688720703125,247.9273223876953
8008,71.5031509399414,359.9298400878906,74.19774627685547,262.49423217773443
8009,52.336158752441406,346.9935302734375,72.6419448852539,251.5288391113281
8010,35.64498519897461,344.13250732421875,61.2689094543457,243.1514587402344
8011,46.55427551269531,353.7702331542969,68.25504302978516,254.8162078857422
8012,55.44401550292969,366.43353271484375,77.90398406982422,263.78076171875
8013,41.3221549987793,352.0274353027344,76.7745361328125,247.63560485839844
8014,30.13237380981445,337.17254638671875,63.74098587036133,230.97434997558597
8015,50.7990608215332,348.6502990722656,61.003379821777344,241.37875366210938
8016,67.24340057373047,361.3360290527344,72.6195068359375,242.79617309570312
8017,54.85685348510742,346.8476867675781,64.93401336669922,227.0100555419922
8018,41.38947296142578,341.2901916503906,54.92977905273438,211.8746795654297
8019,63.57830047607422,349.6189270019531,61.53070449829102,221.0374298095703
8020,77.99561309814453,358.9013671875,67.21909332275389,228.02731323242188
8021,66.83201599121094,346.447509765625,64.99385070800781,207.2633819580078
8022,62.6021842956543,336.93695068359375,53.07104873657226,208.9276428222656
8023,73.54887390136719,350.6661071777344,58.96513366699219,230.33482360839844
8024,78.50424194335938,359.2229919433594,67.18917083740234,245.6684112548828
8025,60.69857788085938,347.9434509277344,57.12884140014648,240.38394165039062
8026,48.58504104614258,339.02752685546875,50.69995498657226,239.4003448486328
8027,53.71992111206055,349.8059387207031,51.14500045776367,262.11648559570307
8028,57.85999298095703,364.6570739746094,57.19615936279297,265.81524658203125
8029,46.1989860534668,352.25555419921875,55.64410018920898,258.93759155273443
8030,28.98422431945801,339.9700012207031,46.44768905639648,249.34474182128903
8031,38.031044006347656,355.8945007324219,53.02243041992188,256.25982666015625
8032,49.75188827514648,363.8417663574219,59.51115798950195,257.03024291992193
8033,46.29622268676758,351.30938720703125,63.714805603027344,243.839599609375
8034,37.56729507446289,336.929443359375,47.88380813598633,227.30177307128903
8035,53.94431686401367,349.1776428222656,54.01350402832031,241.0197296142578
8036,68.26065063476561,359.26788330078125,70.80939483642578,247.42991638183597
8037,69.26668548583984,350.509033203125,69.43685150146484,230.3759613037109
8038,55.73946762084961,339.4651184082031,53.81155014038086,217.30126953125
8039,59.8720588684082,353.7664794921875,59.64205551147461,229.8262023925781
8040,74.12107849121094,360.28887939453125,67.40982818603516,241.5994110107422
8041,70.53077697753906,359.90740966796875,63.88310241699219,235.14059448242188
8042,54.14627075195313,343.3508605957031,54.95595932006836,220.46897888183597
8043,65.27621459960939,353.74029541015625,54.62310791015625,228.94358825683597
8044,76.97462463378906,363.0638732910156,65.18458557128906,237.84454345703125
8045,65.39588928222656,356.272216796875,60.73410415649414,235.48092651367188
8046,48.77577590942383,341.9483947753906,50.84580993652344,231.43435668945312
8047,56.8203010559082,353.42242431640625,52.34925079345703,247.830078125
8048,70.77386474609375,361.9456481933594,60.82760238647461,264.20709228515625
8049,56.32663345336914,355.427001953125,65.29678344726561,257.30325317382807
8050,50.86637878417969,340.4636535644531,59.04367065429688,249.7935333251953
8051,65.95313262939453,350.24725341796875,61.425987243652344,251.9065704345703
8052,73.36561584472656,354.54437255859375,66.53095245361328,260.58688354492193
8053,63.85879135131836,344.5738220214844,69.16010284423828,240.35401916503903
8054,53.77602005004883,342.210205078125,63.5465087890625,224.5267639160156
8055,59.63270568847656,345.0375671386719,61.22403335571289,226.41915893554688
8056,72.45307922363281,364.9151306152344,76.8343734741211,243.30479431152344
8057,62.822837829589844,355.61773681640625,74.32490539550781,236.79364013671875
8058,52.55681228637695,348.0855712890625,60.64060592651367,223.8161773681641
8059,54.2809066772461,355.6102600097656,61.84485626220703,239.6172637939453
8060,67.54259490966797,368.7111206054688,72.238037109375,252.9499969482422
8061,56.790382385253906,354.9557800292969,70.83931732177734,240.118408203125
8062,47.28729629516602,345.66961669921875,61.54192352294922,228.7453765869141
8063,62.77796173095703,355.6925354003906,65.64833068847656,235.2378387451172
8064,75.66565704345703,366.22784423828125,75.60395050048828,245.64224243164062
8065,72.1277084350586,357.4278564453125,70.27832794189453,236.9357452392578
8066,56.26679611206055,347.74151611328125,57.996498107910156,221.43386840820312
8067,67.47527313232422,356.6349792480469,55.06067657470703,239.0562744140625
8068,75.63947296142578,366.1268615722656,67.58186340332031,252.39276123046875
8069,65.48564910888672,350.0452880859375,67.52202606201172,242.1416931152344
8070,46.10174560546875,338.4029846191406,56.16394805908203,228.12828063964844
8071,57.50470352172852,346.08099365234375,62.14404678344727,238.51773071289062
8072,72.53536224365234,366.2315673828125,70.11003112792969,257.5575561523437
8073,57.02973556518555,353.6355895996094,61.77379608154297,245.6534576416016
8074,50.3839340209961,340.0635070800781,58.66968154907226,236.0007781982422
8075,51.77143478393555,351.4402770996094,50.87572860717773,244.50531005859372
8076,56.40517044067383,363.15362548828125,58.40414810180664,254.71897888183597
8077,39.13057327270508,357.59613037109375,53.10097122192383,239.7332000732422
8078,26.328895568847656,347.60687255859375,45.44165420532226,232.5899810791016
8079,43.902687072753906,358.0785827636719,46.91891479492188,244.6399383544922
8080,58.125526428222656,374.5715637207031,63.21365737915039,255.5791473388672
8081,54.202369689941406,358.4376220703125,59.709373474121094,246.45753479003903
8082,46.45703887939453,348.5268859863281,52.25949096679688,228.04226684570312
8083,62.68072509765625,348.9382629394531,53.54227828979492,227.5785217285156
8084,79.7197036743164,361.4332885742188,66.42996978759766,249.3970947265625
8085,70.4784164428711,351.6758728027344,68.74871063232422,228.89871215820312
8086,59.07545852661133,338.9078674316406,62.402099609375,217.2975311279297
8087,69.98101043701172,350.5576477050781,65.38654327392578,229.40359497070312
8088,85.9167251586914,363.056396484375,77.09990692138672,247.80389404296875
8089,78.49675750732422,350.1088562011719,73.99952697753906,232.88917541503903
8090,59.73742294311523,339.0724182128906,68.07553100585939,223.1616973876953
8091,64.07570648193361,351.0326232910156,68.00820922851561,237.52291870117188
8092,71.2824935913086,361.2088928222656,73.17301177978516,255.60906982421875
8093,55.41035842895508,351.2532653808594,70.50646209716797,244.1462860107422
8094,41.84199905395508,340.2916259765625,55.06441879272461,236.9394989013672
8095,51.763954162597656,346.7429504394531,62.54421615600586,252.841552734375
8096,52.26884078979492,357.7906188964844,67.17795562744139,264.72320556640625
8097,42.48152542114258,352.2518310546875,70.31572723388672,251.6073760986328
8098,25.45375823974609,339.6221923828125,50.80841064453125,230.5779266357422
8099,43.491294860839844,351.46270751953125,50.73361206054688,237.2798156738281
8100,58.41349792480469,364.5598449707031,62.61527633666992,247.43739318847656
8101,58.13674545288086,358.1459045410156,62.86211013793945,237.6912078857422
8102,45.40986633300781,341.3051452636719,52.48388671875,219.6948089599609
8103,60.14133071899414,352.28173828125,55.71889877319336,232.66477966308597
8104,71.95567321777344,363.8043823242188,63.69610595703125,244.1761932373047
8105,66.94795227050781,353.0521545410156,60.584510803222656,237.1152648925781
8106,57.43364334106445,335.45220947265625,52.584861755371094,227.0923309326172
8107,64.71522521972656,343.6799621582031,56.78850936889648,234.80401611328125
8108,77.63284301757812,355.5616455078125,57.75714492797852,251.0202178955078
8109,59.34847259521485,346.2268371582031,56.95680618286133,249.84962463378903
8110,45.4996223449707,337.8382568359375,50.026771545410156,237.11900329589844
8111,58.34243774414063,350.6436767578125,56.33224487304688,254.89474487304688
8112,72.14266967773438,363.3780212402344,71.06370544433594,269.22604370117193
8113,55.97882080078125,352.5622253417969,68.28870391845703,258.05123901367193
8114,39.8074951171875,337.54278564453125,58.32186889648438,241.6068878173828
8115,49.6957893371582,351.5262756347656,61.92339324951172,253.76156616210938
8116,61.22964096069336,361.4856262207031,66.19809722900389,259.10214233398443
8117,53.55910873413086,350.06024169921875,62.379661560058594,244.191162109375
8118,41.52784729003906,339.50250244140625,52.1211166381836,225.5028839111328
8119,59.14277648925781,352.74176025390625,55.93207550048828,236.65899658203125
8120,65.36971282958984,363.8118591308594,56.6800537109375,245.64224243164062
8121,52.2838020324707,358.138427734375,59.97864532470703,229.3063507080078
8122,45.71279525756836,342.2176818847656,51.34321594238281,217.41722106933597
8123,54.85685348510742,351.002685546875,55.12799453735352,230.8995513916016
8124,67.34812164306639,362.4206237792969,53.82276916503906,240.87387084960938
8125,59.943115234375,358.65826416015625,59.95620727539063,238.4616241455078
8126,52.10802459716797,346.013671875,59.29424285888672,238.62245178222656
8127,58.86228561401367,353.45233154296875,54.64928817749024,251.15858459472656
8128,64.10936737060547,363.2508850097656,62.06924819946289,270.07125854492193
8129,56.58842468261719,351.95635986328125,63.32585525512695,266.54452514648443
8130,44.86009979248047,342.8197937011719,52.99999237060547,255.24256896972656
8131,56.53606796264648,356.096435546875,63.44179153442383,262.26983642578125
8132,69.74165344238281,358.044921875,69.61637115478516,275.59136962890625
8133,64.34123992919922,346.6868591308594,75.55158996582031,263.16366577148443
8134,51.06085586547852,332.8267822265625,57.36819458007813,241.19175720214844
8135,61.65225219726562,344.81317138671875,67.10689544677734,249.18019104003903
8136,75.40386199951172,358.8938903808594,70.6897201538086,256.12890625
8137,65.882080078125,349.7124328613281,70.97021484375,240.3315734863281
8138,47.74356460571289,343.7958984375,60.19181823730469,229.16050720214844
8139,52.57551193237305,355.251220703125,62.90324783325195,239.47140502929688
8140,71.55176544189453,371.7853393554688,76.77827453613281,248.8174133300781
8141,58.52569580078125,362.64874267578125,78.88009643554688,229.86734008789062
8142,47.97917556762695,348.2389221191406,68.763671875,210.7489776611328
8143,60.64995574951172,358.92755126953125,64.60490417480469,217.1329803466797
8144,71.81356048583984,372.1929626464844,71.05435943603516,223.1673126220703
8145,57.41120529174805,365.1320495605469,68.41024780273439,212.19070434570312
8146,54.00041580200195,352.12841796875,64.34123992919922,206.67808532714844
8147,64.1392822265625,361.6464538574219,65.42207336425781,217.19842529296875
8148,72.45682525634766,372.1892395019531,73.30951690673828,242.89154052734372
8149,58.09934616088867,361.706298828125,69.90247344970703,246.6127471923828
8150,37.36534118652344,345.7855529785156,59.37839126586914,240.535400390625
8151,50.17449951171875,353.04095458984375,55.88158416748047,254.24588012695312
8152,57.37754440307617,361.1565246582031,65.30987548828125,268.59213256835943
8153,47.26859664916992,349.44317626953125,58.21154403686523,258.11294555664057
8154,38.58454895019531,340.4449768066406,52.20152282714844,245.4608612060547
8155,55.65719223022461,348.8522644042969,56.13589859008789,259.21621704101557
8156,71.94819641113281,357.2445983886719,64.95832061767578,268.62579345703125
8157,58.89968490600586,350.1612243652344,65.97183227539061,254.5263671875
8158,48.4878044128418,343.6500549316406,58.87724685668945,244.02847290039062
8159,54.80823516845703,356.1824645996094,57.11949157714844,249.04367065429688
8160,64.80124664306639,362.0840148925781,61.30818176269531,249.84027099609372
8161,49.69953155517578,353.4448547363281,59.842140197753906,239.0543975830078
8162,42.90413284301758,349.4693298339844,53.476829528808594,220.05197143554688
8163,47.7248649597168,359.5857849121094,51.31516647338867,224.3678131103516
8164,64.96580505371094,376.4938659667969,64.3973388671875,234.31968688964844
8165,53.80594253540039,363.4977111816406,65.41832733154297,226.2901306152344
8166,44.366432189941406,350.43798828125,62.24315643310547,212.1832275390625
8167,53.06169891357422,365.1095886230469,64.64791107177734,226.6154937744141
8168,63.884971618652344,375.9852294921875,83.4109878540039,242.061279296875
8169,49.15724563598633,371.2505187988281,81.87763214111328,238.59439086914062
8170,32.630626678466804,358.1085205078125,70.15304565429689,231.79525756835938
8171,46.92078399658203,361.7212524414063,70.08572387695311,245.39727783203125
8172,62.01128005981445,368.72607421875,75.82646942138672,262.62698364257807
8173,52.03696823120117,354.7014465332031,69.84637451171875,244.7465362548828
8174,41.63256454467773,334.30029296875,50.619544982910156,228.40316772460938
8175,52.78494644165039,341.13311767578125,49.6434326171875,240.48678588867188
8176,62.441368103027344,349.0018615722656,55.63101196289063,256.71795654296875
8177,53.29731369018555,341.93719482421875,54.09765243530274,244.4922180175781
8178,42.15241241455078,328.4361572265625,42.137451171875,228.504150390625
8179,54.28464889526367,339.1771240234375,40.925724029541016,229.41294860839844
8180,72.43812561035156,352.85394287109375,56.599647521972656,239.1217193603516
8181,53.45064926147461,346.50360107421875,56.790382385253906,227.3672180175781
8182,47.97917556762695,335.1642150878906,49.81172561645508,214.5842437744141
8183,54.662376403808594,341.24530029296875,46.16158676147461,216.1288146972656
8184,60.115150451660156,353.5196533203125,53.06917953491211,232.6442108154297
8185,43.89146423339844,353.5420837402344,52.51941680908203,221.4245147705078
8186,32.787704467773445,340.26171875,43.655853271484375,212.0859832763672
8187,36.796875,349.5067443847656,44.53099060058594,223.2869873046875
8188,48.4691047668457,367.6527404785156,62.6021842956543,241.4180145263672
8189,36.25833129882813,354.1778869628906,64.28514099121094,235.34068298339844
8190,27.36484718322754,349.5516052246094,51.42736434936523,221.719970703125
8191,44.19813919067383,359.7091979980469,55.39165878295898,240.8046722412109
8192,57.04469299316406,365.41253662109375,63.55960083007813,257.17047119140625
8193,49.56863403320313,351.4851379394531,58.06194686889648,247.6075592041016
8194,43.031288146972656,336.62652587890625,50.4362907409668,236.0138702392578
8195,54.98027038574219,341.1966857910156,46.81980895996094,242.1173858642578
8196,69.73417663574219,358.27679443359375,53.27861404418945,257.166748046875
8197,52.56803512573242,346.4400329589844,49.3143196105957,237.42755126953125
8198,49.01886749267578,335.6728515625,38.67804718017578,224.03121948242188
8199,61.58867263793945,346.06976318359375,43.61845397949219,231.02110290527344
8200,74.34547424316406,364.4102478027344,59.1091194152832,241.0889129638672
8201,63.71293640136719,356.7658996582031,57.04843521118164,229.64108276367188
8202,46.954444885253906,345.239501953125,44.38887405395508,217.0189208984375
8203,59.5317268371582,350.7035217285156,41.15760040283203,229.53636169433597
8204,64.70027160644531,363.901611328125,51.49468231201172,247.76837158203125
8205,57.40746307373047,355.27740478515625,48.181129455566406,239.92953491210938
8206,38.70796585083008,341.2116394042969,41.38573455810547,230.68450927734372
8207,46.87590789794922,350.8979797363281,44.856361389160156,246.7361602783203
8208,54.87181091308594,370.99993896484375,64.68904876708984,265.68621826171875
8209,41.0117416381836,358.6470642089844,67.12746429443361,259.3321533203125
8210,30.67091941833496,347.808837890625,61.77566909790039,249.3391265869141
8211,45.91849136352539,355.06048583984375,63.48106002807617,251.9794921875
8212,64.80498504638672,371.860107421875,75.57589721679688,263.75271606445307
8213,51.79387283325195,356.436767578125,67.22096252441406,245.30751037597656
8214,49.19090270996094,339.24072265625,54.72595596313477,233.2987060546875
8215,64.03083038330078,354.0170593261719,57.73657608032226,242.85787963867188
8216,78.45561981201172,361.16400146484375,62.41893005371094,249.39523315429688
8217,70.9421615600586,353.560791015625,61.75322723388672,239.7051544189453
8218,58.60797119140625,338.1860656738281,52.253883361816406,227.55421447753903
8219,66.61883544921875,349.0242919921875,55.08124542236328,241.44419860839844
8220,80.83793640136719,354.6678161621094,64.69278717041016,249.37652587890625
8221,66.49168395996094,343.9716796875,60.6761360168457,240.2362060546875
8222,55.70954895019531,336.0580749511719,48.65235900878906,229.6373443603516
8223,69.18067169189453,349.3459167480469,54.76335525512695,247.64495849609372
8224,79.1288070678711,361.6315002441406,64.40481567382811,259.15261840820307
8225,56.75298309326172,348.5530700683594,57.72161483764648,251.5157470703125
8226,47.88193893432617,341.7801208496094,46.96566390991211,245.77127075195312
8227,51.61809921264648,350.23602294921875,51.16183090209961,248.65098571777344
8228,67.21348571777344,365.1095886230469,66.25606536865234,266.60626220703125
8229,49.34798049926758,351.55621337890625,68.94879913330078,252.52926635742188
8230,39.70651626586914,341.1705017089844,58.23398208618164,240.9281005859375
8231,43.73065185546875,349.0467224121094,61.67095184326172,243.62081909179688
8232,64.79376983642578,362.51409912109375,74.54742431640625,253.2622833251953
8233,57.12697219848633,348.80364990234375,75.83769226074219,244.81385803222656
8234,48.46536254882813,329.4646301269531,58.31251907348633,229.15863037109372
8235,62.01128005981445,337.63629150390625,66.48793792724611,236.55615234375
8236,83.83733367919922,353.31768798828125,77.50194549560547,256.80770874023443
8237,70.92720031738281,340.0559997558594,68.48130798339844,244.57449340820312
8238,54.95782852172852,328.8662414550781,56.48370742797852,226.9595642089844
8239,58.0133285522461,335.78131103515625,53.84333801269531,235.5725555419922
8240,70.41109466552734,352.95867919921875,64.99945831298828,252.12535095214844
8241,59.02684020996094,341.5257873535156,55.81426620483398,242.6260070800781
8242,45.24905014038086,328.99713134765625,41.41565322875977,227.21762084960938
8243,55.61231231689453,340.34771728515625,44.65440368652344,238.5495147705078
8244,60.48540115356445,352.868896484375,52.37730026245117,251.48208618164062
8245,48.098854064941406,347.52459716796875,45.38742446899414,244.8213348388672
8246,34.69879150390625,335.42974853515625,39.33626937866211,234.24114990234372
8247,42.61989974975586,347.8985900878906,43.76804733276367,246.61648559570312
8248,60.7247543334961,359.46234130859375,57.08209228515625,256.39633178710943
8249,48.5401611328125,342.14288330078125,61.47647476196289,244.3987274169922
8250,43.031288146972656,333.5934753417969,58.98196029663086,233.8858642578125
8251,47.04046249389648,342.7898864746094,60.35076522827149,236.6982727050781
8252,57.523399353027344,353.23541259765625,70.63175201416016,248.8417205810547
8253,50.97483825683594,348.52313232421875,74.72694396972656,239.62661743164062
8254,47.08160018920898,337.34832763671875,65.73995971679689,237.3116149902344
8255,62.14217758178711,340.3028564453125,62.33291244506836,250.44239807128903
8256,77.9469985961914,351.9040222167969,72.32966613769531,259.31716918945307
8257,64.70401000976561,345.69952392578125,73.39927673339844,246.7436370849609
8258,47.48925018310547,329.2888488769531,55.54125595092773,227.35226440429688
8259,56.48370742797852,339.9999084472656,51.610618591308594,227.85340881347656
8260,67.11250305175781,357.21466064453125,65.10417938232422,238.14187622070312
8261,66.42062377929689,355.11285400390625,63.675537109375,225.4000244140625
8262,49.744407653808594,339.8316345214844,48.00535583496094,206.4462127685547
8263,69.46115875244139,353.48974609375,59.63644409179688,224.5847320556641
8264,81.1633071899414,367.6789245605469,65.51930999755861,237.4051055908203
8265,68.24569702148439,353.6355895996094,61.52509307861328,235.2471923828125
8266,50.997276306152344,336.3011474609375,50.74296188354492,223.05511474609372
8267,54.1687126159668,342.5056457519531,51.83501434326172,241.62745666503903
8268,57.48600387573242,355.0829162597656,57.99089050292969,257.06201171875
8269,43.6521110534668,343.7585144042969,51.88737106323242,251.81494140625
8270,37.01752853393555,339.3155212402344,54.05651473999024,250.09458923339844
8271,40.76116943359375,342.5991516113281,47.54534912109375,255.25938415527344
8272,57.70291519165039,357.5213317871094,61.76070785522461,269.55328369140625
8273,47.12648010253906,349.9555358886719,60.29092788696289,257.31259155273443
8274,38.92487716674805,341.80255126953125,52.17534255981445,244.89239501953125
8275,49.665870666503906,348.3323974609375,58.14422607421875,259.76596069335943
8276,70.90850067138672,357.51385498046875,70.75142669677734,267.46267700195307
8277,58.054466247558594,351.27197265625,70.96086120605469,249.96743774414062
8278,47.66502380371094,336.4021301269531,63.02105331420898,232.37120056152344
8279,62.31047439575195,349.3721008300781,69.69677734375,235.66232299804688
8280,69.64441680908203,360.4122924804688,79.2148208618164,250.3339385986328
8281,64.42351531982422,354.26763916015625,73.76578521728516,233.7587127685547
8282,51.79387283325195,341.54449462890625,67.61365509033203,220.3773498535156
8283,62.89015579223633,353.6131591796875,64.63294982910156,222.59136962890625
8284,82.06836700439453,367.1253967285156,77.59170532226562,239.7949066162109
8285,72.79341125488281,354.0731506347656,71.75372314453125,230.3516540527344
8286,65.14157867431639,343.3770446777344,57.72909545898438,218.9113006591797
8287,70.75142669677734,350.4903259277344,56.8203010559082,232.70779418945312
8288,85.10142517089844,359.0584411621094,70.59809112548828,251.28387451171875
8289,71.40216827392578,351.7992858886719,72.26234436035156,252.8471527099609
8290,53.89569854736328,337.9205322265625,64.21781921386719,248.0787811279297
8291,62.9649543762207,343.8520202636719,64.20660400390625,262.85137939453125
8292,78.35838317871094,355.3858642578125,76.67543029785156,278.34579467773443
8293,52.91584396362305,342.84222412109375,66.40566253662111,254.3805084228516
8294,40.64523315429688,332.96514892578125,55.305641174316406,233.410888671875
8295,43.38657760620117,341.7464599609375,54.007896423339844,242.77186584472656
8296,59.24375534057617,354.1778869628906,61.48395538330078,256.93112182617193
8297,47.59022521972656,347.8761291503906,55.724510192871094,239.2787933349609
8298,48.68975830078125,336.08050537109375,52.81112670898438,229.9365234375
8299,56.25183486938477,345.7369079589844,51.47972106933594,234.8619842529297
8300,72.10153198242188,366.87109375,66.90680694580078,250.5284118652344
8301,69.10587310791016,362.91802978515625,70.93468475341797,229.2259521484375
8302,60.2310905456543,351.7880859375,62.1384391784668,217.2283477783203
8303,67.17982482910156,348.7026672363281,62.018760681152344,219.7976531982422
8304,89.52572631835938,363.7333068847656,70.77012634277344,235.2958068847656
8305,67.07510375976561,348.71014404296875,60.26848602294922,219.5583038330078
8306,59.62148666381836,336.29742431640625,49.03756713867188,216.86558532714844
8307,61.18102264404297,344.05023193359375,53.45064926147461,232.45347595214844
8308,68.45886993408203,354.72015380859375,68.1708984375,251.6167297363281
8309,60.27596664428711,345.62847900390625,66.67119598388672,251.06321716308597
8310,42.58624267578125,334.8874816894531,51.950950622558594,244.59320068359372
8311,49.14602661132813,342.7786560058594,54.25473022460938,253.8868408203125
8312,63.43244171142578,358.819091796875,61.23712158203125,272.2348022460937
8313,48.67479705810547,347.7901306152344,62.00006103515625,258.47195434570307
8314,37.731849670410156,337.17254638671875,55.51133346557617,243.73675537109372
8315,44.39261245727539,341.4884033203125,54.02659606933594,245.23272705078125
8316,70.92720031738281,354.46209716796875,66.25606536865234,250.8799743652344
8317,55.99378204345703,343.395751953125,65.76988220214844,237.25177001953125
8318,43.29308319091797,329.311279296875,55.11116409301758,217.3517608642578
8319,51.83501434326172,338.57501220703125,61.14736557006836,217.85665893554688
8320,63.61943817138672,353.82257080078125,66.70859527587889,229.5326232910156
8321,50.8289794921875,344.6112060546875,58.53691482543945,208.46202087402344
8322,47.19005584716797,341.024658203125,52.31745910644531,201.1879119873047
8323,53.63390350341797,348.9756774902344,57.05217361450195,213.09202575683597
8324,71.73127746582031,365.7453918457031,71.42460632324219,231.98599243164062
8325,63.87001037597656,355.8271789550781,73.10382080078125,230.17588806152344
8326,50.12213897705078,341.7464599609375,64.56937408447266,226.0806884765625
8327,55.69832992553711,342.2438659667969,60.09271240234375,232.2627410888672
8328,70.79630279541016,358.65826416015625,73.1113052368164,251.8299102783203
8329,59.29237365722656,346.189453125,71.65274047851562,249.5747375488281
8330,44.7254638671875,333.2718200683594,58.585533142089844,241.70225524902344
8331,44.57960891723633,338.0888366699219,59.352210998535156,246.7361602783203
8332,59.88701629638672,357.0164489746094,69.67059326171875,270.3125
8333,44.91993713378906,347.55450439453125,73.5339126586914,254.2758026123047
8334,33.55438232421875,333.5111999511719,57.15689086914063,236.473876953125
8335,39.0333366394043,334.7640686035156,50.85515975952149,231.7653350830078
8336,58.85480499267578,353.3064880371094,66.70859527587889,247.01290893554688
8337,55.16352462768555,337.90557861328125,60.7247543334961,231.2043609619141
8338,45.9409294128418,324.6513671875,50.77288055419922,209.9729461669922
8339,62.65828323364258,340.5160217285156,53.1290168762207,214.35610961914062
8340,77.76374053955078,347.0271911621094,54.1500129699707,220.54937744140625
8341,71.06183624267578,339.06494140625,58.7164306640625,205.32798767089844
8342,56.85770034790039,329.3711242675781,54.71099472045898,191.28466796875
8343,61.21468353271485,335.8860168457031,44.48236846923828,205.6945037841797
8344,79.1923828125,354.6191711425781,60.55646133422852,231.69802856445312
8345,69.16757965087889,346.3147277832031,64.57311248779297,232.31884765625
8346,57.94039916992188,335.5513000488281,58.59301376342773,233.1266632080078
8347,68.61407470703125,346.8682556152344,61.7981071472168,247.57763671875
8348,72.75414276123047,360.2608337402344,69.779052734375,265.40200805664057
8349,61.17915344238281,350.4286193847656,72.61016082763672,259.80709838867193
8350,47.74917221069336,339.15283203125,64.62547302246094,255.07614135742188
8351,55.1429557800293,346.1539306640625,69.30034637451172,263.44976806640625
8352,69.35831451416016,357.6914978027344,78.72115325927734,273.22213745117193
8353,60.67426681518555,350.32391357421875,84.98175048828125,254.9901123046875
8354,49.263832092285156,337.13702392578125,75.49362182617188,235.7969512939453
8355,61.35492706298828,342.76556396484375,67.71836853027344,239.3087158203125
8356,77.4552001953125,357.0632019042969,75.5235366821289,247.51405334472656
8357,71.7144546508789,346.7373352050781,68.11853790283203,231.0585021972656
8358,57.27843856811523,333.77484130859375,57.572021484375,214.15789794921875
8359,69.97914123535156,347.99395751953125,62.51616668701172,220.0557098388672
8360,78.88384246826172,358.66015625,71.77989959716797,225.13075256347656
8361,67.82869720458984,348.6035461425781,67.65479278564453,212.35899353027344
8362,56.089149475097656,339.37347412109375,55.98256301879883,204.72586059570312
8363,63.87936019897461,346.71490478515625,55.35799789428711,215.5379180908203
8364,81.58030700683594,370.093017578125,73.5713119506836,243.9200134277344
8365,64.07757568359375,355.6345520019531,71.56672668457031,241.3357391357422
8366,40.88271713256836,339.4407958984375,48.81317520141602,234.4805145263672
8367,50.51295852661133,350.8624572753906,57.40746307373047,256.41128540039057
8368,62.7723503112793,362.28411865234375,68.35041046142578,273.08749389648443
8369,53.6469955444336,353.59259033203125,67.43787384033203,262.07723999023443
8370,46.81045913696289,342.0736999511719,62.75178146362305,251.5643768310547
8371,55.1728744506836,348.0575256347656,62.403968811035156,261.10110473632807
8372,61.26143264770508,357.68402099609375,73.07390594482422,266.65859985351557
8373,57.96657943725586,344.7626647949219,71.7462387084961,254.92654418945312
8374,42.88356399536133,340.48797607421875,61.42411804199219,237.483642578125
8375,51.57508850097656,342.7431335449219,53.779762268066406,231.9972076416016
8376,67.15177154541016,358.93316650390625,65.21263885498047,239.3087158203125
8377,59.08855056762695,347.885498046875,63.23796844482422,218.4064178466797
8378,42.053306579589844,341.606201171875,58.49203491210938,199.10479736328125
8379,63.40065383911133,354.7594299316406,63.30154800415039,208.6303253173828
8380,77.62349700927734,362.1008605957031,71.08802032470703,222.5838928222656
8381,77.58983612060547,353.10638427734375,71.48445129394531,218.4662628173828
8382,60.38255310058594,336.6844787597656,58.58179473876953,205.63465881347656
8383,59.76547241210938,341.5052185058594,49.22830200195313,218.327880859375
8384,78.92871856689453,352.0367736816406,65.47816467285156,250.32272338867188
8385,62.44697952270508,347.7583312988281,59.24001693725586,241.5189971923828
8386,38.97162628173828,335.5550537109375,47.564048767089844,230.16839599609372
8387,43.66146087646485,342.6234436035156,48.49528121948242,243.5796813964844
8388,60.39003372192383,359.9653625488281,63.55960083007813,262.073486328125
8389,53.14958953857422,348.1398010253906,66.82453155517578,252.60406494140625
8390,36.03206634521485,337.35394287109375,57.48226165771485,238.81878662109372
8391,50.49052047729492,345.95196533203125,59.22505569458008,245.5580902099609
8392,69.27977752685547,358.9855041503906,71.4059066772461,261.86404418945307
8393,65.10978698730469,349.2991638183594,70.53825378417969,248.1610565185547
8394,48.27649688720703,336.25067138671875,55.75069046020508,228.1600799560547
8395,64.45904541015625,342.2382507324219,56.42387008666992,229.19602966308597
8396,72.69430541992188,354.4228515625,62.172096252441406,237.494873046875
8397,59.46627807617188,348.1659851074219,68.26813507080078,231.62322998046875
8398,43.52308654785156,336.6658020019531,63.54838180541992,216.20361328125
8399,55.64410018920898,346.7298583984375,69.36766815185547,230.4713287353516
8400,66.97599792480469,355.4625244140625,73.8929443359375,239.1927795410156
8401,66.38509368896484,346.82708740234375,82.39373779296875,231.99346923828125
8402,54.47351455688477,333.9543762207031,70.62052917480469,218.152099609375
8403,67.67162322998047,345.9706726074219,64.95458221435547,231.00613403320312
8404,71.16094970703125,355.3877258300781,69.07221221923828,241.69851684570312
8405,60.35637664794922,345.6752014160156,59.58408737182617,237.8277130126953
8406,45.67352676391602,331.02227783203125,53.4693489074707,229.3044891357422
8407,53.415122985839844,337.7952575683594,57.43364334106445,247.2934112548828
8408,68.42707824707031,351.4496154785156,69.51725769042969,272.25723266601557
8409,64.37303161621094,342.3653869628906,72.66999816894531,262.78781127929693
8410,52.98877334594727,329.915283203125,65.60906219482422,243.79660034179688
8411,57.57014846801758,335.4802551269531,63.52220153808594,251.3212738037109
8412,74.32115936279297,348.0163879394531,79.5514144897461,260.79071044921875
8413,67.66787719726561,336.336669921875,77.63658142089844,243.65447998046875
8414,55.95077514648438,322.85809326171875,60.09645080566406,224.8652191162109
8415,65.80166625976561,333.09417724609375,59.25871658325195,230.30303955078125
8416,83.1996841430664,349.8040771484375,68.07740020751953,240.9954071044922
8417,63.40439224243164,342.9151611328125,69.10213470458984,236.309326171875
8418,53.40016174316406,331.7926940917969,59.269935607910156,226.6416778564453
8419,61.60176086425781,335.5924377441406,58.45089721679688,230.1085662841797
8420,79.70661926269531,353.659912109375,69.37888336181639,248.86790466308597
8421,65.34165954589844,349.17950439453125,66.8095703125,237.3153533935547
8422,51.48907089233398,332.5519104003906,65.21263885498047,224.4762725830078
8423,58.987571716308594,346.9654846191406,62.84527969360352,237.8800811767578
8424,71.35916137695312,357.8037109375,75.02613067626953,257.69406127929693
8425,63.43805313110352,345.2339172363281,69.26294708251953,246.10037231445312
8426,43.99805450439453,332.4995422363281,55.10368728637695,235.14620971679688
8427,60.8051643371582,344.7477111816406,59.67010498046875,246.88201904296875
8428,73.58065795898438,352.3920593261719,68.67578125,254.99386596679688
8429,67.20787048339844,343.648193359375,71.7051010131836,245.43841552734372
8430,51.7733039855957,333.2325744628906,54.19488906860352,231.0023956298828
8431,62.19640731811523,343.4200439453125,58.30503845214844,238.14187622070312
8432,73.19171142578125,353.03533935546875,61.93274307250977,251.0108642578125
8433,65.66703033447266,346.12774658203125,64.80124664306639,239.19651794433597
8434,55.06441879272461,330.8128356933594,56.14337921142578,227.78982543945312
8435,62.70503234863281,337.380126953125,53.33845138549805,230.22450256347656
8436,70.3942642211914,355.0062561035156,67.14990234375,239.3984832763672
8437,59.7318115234375,347.2833557128906,67.09754180908203,234.1065216064453
8438,47.00867080688477,339.235107421875,59.00440216064453,225.70669555664062
8439,60.72288513183594,347.80322265625,64.62547302246094,236.5673675537109
8440,67.24153137207031,360.8405151367188,67.93527984619139,255.55484008789062
8441,60.4947509765625,349.8938293457031,66.05037689208984,245.73013305664062
8442,43.7400016784668,339.5006408691406,56.86517715454102,240.10157775878903
8443,50.74109268188477,339.03314208984375,53.75358200073242,244.51840209960938
8444,65.12848663330078,360.35430908203125,63.01731491088867,262.85137939453125
8445,62.31608200073242,356.2441711425781,64.84986877441406,257.0433349609375
8446,43.11917495727539,335.5325927734375,55.915245056152344,234.86572265625
8447,55.93207550048828,344.6093444824219,56.55850601196289,246.2724151611328
8448,74.1453857421875,355.5111389160156,71.28997039794922,260.21102905273443
8449,69.08155822753906,349.6507263183594,70.9047622680664,250.547119140625
8450,47.68933486938477,335.326904296875,54.19488906860352,226.15548706054688
8451,54.3687973022461,343.9286804199219,56.25183486938477,236.638427734375
8452,75.05418395996094,358.9705505371094,65.57540893554689,250.73411560058597
8453,64.83677673339844,348.6708679199219,62.72186279296875,237.22933959960938
8454,61.2053337097168,342.6197204589844,62.39274978637695,233.32113647460938
8455,64.75450134277344,343.59210205078125,54.9540901184082,235.2247467041016
8456,79.56824493408203,356.0646667480469,68.52618408203125,251.6354217529297
8457,66.639404296875,350.31268310546875,68.10357666015625,245.82362365722656
8458,44.41318130493164,331.28033447265625,51.02719497680664,227.2662353515625
8459,57.312095642089844,343.3041076660156,53.95553588867188,237.06851196289062
8460,70.70841979980469,354.6995849609375,64.41603851318361,257.87359619140625
8461,65.32295989990234,348.95135498046875,64.07944488525389,247.89926147460938
8462,47.2442855834961,337.0360412597656,56.64826583862305,232.9546356201172
8463,68.76741027832031,347.2833557128906,55.72076797485352,250.1357269287109
8464,80.33492279052734,358.03558349609375,66.40192413330078,262.3016357421875
8465,65.39402008056639,349.3590087890625,62.90511703491211,252.94439697265625
8466,52.1136360168457,337.357666015625,51.30768585205078,234.7273406982422
8467,64.10001373291016,340.3346252441406,48.8692741394043,239.1441650390625
8468,78.23310089111328,357.64288330078125,62.27681350708008,247.59634399414062
8469,67.83617401123047,346.7298583984375,59.34473419189453,238.65423583984372
8470,50.40076065063477,338.225341796875,49.28814315795898,229.1324462890625
8471,51.167442321777344,339.13787841796875,48.33446884155274,230.030029296875
8472,63.67366790771485,354.3368225097656,68.20829772949219,245.94329833984372
8473,48.41487503051758,351.5281677246094,65.82598114013672,236.5972900390625
8474,34.640823364257805,341.46783447265625,58.3461799621582,228.4480438232422
8475,40.43766784667969,348.89154052734375,59.40082931518555,230.62841796875
8476,52.22957229614258,361.46881103515625,62.852760314941406,248.1273956298828
8477,53.33284378051758,348.35296630859375,64.39360046386719,238.13064575195312
8478,46.64590072631836,329.4590148925781,50.94865798950195,222.6699066162109
8479,61.18289184570313,340.0167541503906,57.13819122314453,232.63673400878903
8480,74.65775299072266,352.34344482421875,64.76758575439453,243.03366088867188
8481,68.29991912841797,348.0313415527344,65.65394592285156,236.1821594238281
8482,50.3072624206543,328.4267883300781,49.07496643066406,229.2857818603516
8483,56.18264770507813,335.30072021484375,48.94781112670898,235.2434539794922
8484,72.9822769165039,348.45770263671875,64.64791107177734,252.64520263671875
8485,63.30715560913086,334.2834777832031,60.30962753295898,237.7379608154297
8486,45.980201721191406,329.51885986328125,45.61555862426758,222.63250732421875
8487,55.83109664916992,335.4989318847656,46.46825790405274,228.5415496826172
8488,68.13536834716797,346.0940856933594,59.97677612304688,238.4934234619141
8489,61.74013900756836,343.3826599121094,61.28948211669922,237.4425048828125
8490,44.58147811889648,334.1750183105469,53.15145874023438,220.8223876953125
8491,45.74832534790039,336.359130859375,44.92367935180664,233.0294189453125
8492,60.57703018188477,357.94207763671875,63.43244171142578,239.46578979492188
8493,51.96403884887695,348.3417663574219,65.30612945556639,231.35769653320312
8494,41.63817596435547,335.43536376953125,65.79605865478516,216.2784118652344
8495,51.71346664428711,345.27130126953125,61.60363388061523,225.56832885742188
8496,63.38195419311523,357.6690673828125,70.16426086425781,233.48944091796875
8497,69.93799591064453,354.2769775390625,73.41423797607422,230.0786437988281
8498,53.56097793579102,338.29638671875,62.98739624023438,212.5011138916016
8499,62.83218765258789,341.1798400878906,64.12432098388672,220.22401428222656
8500,84.7255630493164,358.38714599609375,72.07160949707031,245.1541748046875
8501,70.70468139648438,349.482421875,68.68700408935547,236.62347412109372
8502,54.96343994140625,335.5662536621094,55.073768615722656,224.3678131103516
8503,61.59054183959961,341.89044189453125,55.365478515625,240.55784606933597
8504,75.49922943115234,360.59368896484375,65.63898468017578,261.91265869140625
8505,65.27060699462889,345.7163391113281,65.46694946289061,253.1426086425781
8506,53.6993522644043,339.57916259765625,54.31456756591797,245.9732208251953
8507,48.45227432250977,346.2997741699219,49.284400939941406,251.54193115234372
8508,56.14151000976562,361.6483154296875,58.02828598022461,263.15805053710943
8509,53.17202758789063,354.987548828125,63.80269241333008,254.5039367675781
8510,35.47856140136719,345.77618408203125,48.01283645629883,232.34127807617188
8511,39.30073928833008,353.0428161621094,53.16641616821289,238.91603088378903
8512,53.57967758178711,367.31427001953125,61.91030502319336,243.7180633544922
8513,51.0103645324707,361.1247253417969,65.35475158691406,234.66375732421875
8514,39.68968963623047,348.02386474609375,51.78639602661133,221.6489105224609
8515,51.92663955688477,352.4294738769531,51.47972106933594,221.66012573242188
8516,73.07577514648438,366.7046813964844,63.44366455078125,236.0550079345703
8517,69.16757965087889,359.99530029296875,64.50953674316406,221.74989318847656
8518,56.72493362426758,340.5216369628906,56.259315490722656,204.99139404296875
8519,75.43939208984375,349.43756103515625,59.116600036621094,212.1533050537109
8520,92.38114166259766,363.0545349121094,71.14411926269531,230.90516662597656
8521,82.21983337402344,353.3121032714844,66.31964874267578,220.9046630859375
8522,70.17735290527344,343.5733947753906,60.44800186157226,213.8736572265625
8523,81.34469604492188,351.7862243652344,62.46380996704102,228.75845336914062
8524,89.59117126464844,362.5309448242188,72.02299499511719,238.8000946044922
8525,74.77742767333984,354.9613952636719,75.19442749023438,235.5089874267578
8526,56.41452026367188,340.00177001953125,64.25521850585939,232.07574462890625
8527,57.94039916992188,352.1190490722656,62.39274978637695,247.6636505126953
8528,64.04017639160156,363.9595947265625,69.098388671875,263.68539428710943
8529,43.88959503173828,356.59197998046875,64.30384063720703,249.20823669433597
8530,23.55201911926269,344.57568359375,54.43798446655274,241.4180145263672
8531,40.755558013916016,354.3106384277344,55.97508239746094,253.10894775390625
8532,53.05609130859375,366.6111755371094,61.85794448852539,258.13912963867193
8533,51.45167541503906,362.55712890625,61.65972900390625,246.06671142578125
8534,38.5041389465332,348.0126647949219,53.54788589477539,229.58497619628903
8535,47.56217956542969,349.8564147949219,52.2725830078125,233.33984375
8536,66.48233032226561,361.77923583984375,68.79920196533203,245.56930541992188
8537,65.73061370849611,357.1006164550781,68.86277770996094,233.9868469238281
8538,54.76522445678711,340.60015869140625,57.56079864501953,213.0172271728516
8539,66.49355316162111,344.81878662109375,62.83406066894531,218.72056579589844
8540,81.81217956542969,356.5957336425781,72.8083724975586,231.0323181152344
8541,74.5866928100586,349.4525146484375,71.9033203125,221.18142700195312
8542,62.82471084594727,336.3516540527344,59.76734161376953,199.5086975097656
8543,68.38594055175781,344.1194152832031,60.73597717285156,211.5324859619141
8544,79.57572174072266,356.2740783691406,66.76095581054689,226.5220031738281
8545,69.06660461425781,349.39642333984375,69.11334991455078,228.2086944580078
8546,42.45721435546875,337.6493835449219,60.283447265625,218.2717742919922
8547,43.65398406982422,346.1539306640625,53.96301651000977,235.69223022460938
8548,52.00518035888672,360.15985107421875,64.54693603515625,255.59971618652344
8549,38.54901885986328,354.9501647949219,58.75382995605469,247.2485198974609
8550,20.668556213378906,338.4385070800781,53.43194961547852,235.4005279541016
8551,35.66555404663086,344.85992431640625,49.83042526245117,240.78224182128903
8552,52.9476318359375,361.4800415039063,63.76903533935547,250.39378356933597
8553,54.46977233886719,357.2389831542969,64.18416595458984,239.9931182861328
8554,46.07743835449219,343.6182556152344,49.19464492797852,222.8269805908203
8555,50.9280891418457,347.6236877441406,47.29477310180664,226.9221649169922
8556,58.87537384033203,359.94293212890625,56.19573593139648,240.58029174804688
8557,54.61188888549805,353.19989013671875,61.8205451965332,233.2351226806641
8558,40.06741714477539,338.02337646484375,51.11695098876953,216.5589141845703
8559,55.10555648803711,347.72467041015625,55.6945915222168,223.1224365234375
8560,68.22512817382811,362.7441101074219,67.73706817626953,234.88067626953125
8561,55.86475372314453,352.8819885253906,68.17837524414061,214.6814727783203
8562,41.716712951660156,335.831787109375,54.883033752441406,202.6389923095703
8563,54.0284652709961,345.2862548828125,57.32892608642578,213.13316345214844
8564,65.88021087646484,355.71685791015625,62.69194412231445,223.7432556152344
8565,57.37941360473633,356.7901916503906,69.779052734375,234.45433044433597
8566,35.58701705932617,344.60186767578125,46.47947692871094,221.1926422119141
8567,38.28722763061523,349.2655029296875,43.13600540161133,230.5723114013672
8568,57.37941360473633,367.5910339355469,59.73742294311523,252.6564178466797
8569,43.89707565307617,358.050537109375,60.223609924316406,252.2412872314453
8570,34.95871353149414,344.4335632324219,51.84623336791992,237.1059112548828
8571,46.03629684448242,349.41510009765625,49.69953155517578,242.37918090820312
8572,64.18603515625,362.2803649902344,61.66720962524414,249.90011596679688
8573,55.68149948120117,354.5948791503906,64.42351531982422,239.1927795410156
8574,43.60536193847656,340.51788330078125,53.1290168762207,224.07237243652344
8575,51.68354797363281,351.15789794921875,52.99438095092773,227.3859100341797
8576,69.29099273681639,363.6155090332031,70.13060760498047,251.78501892089844
8577,64.98637390136719,355.3989562988281,71.5816879272461,237.2218475341797
8578,55.44588851928711,342.23077392578125,66.23362731933594,216.802001953125
8579,64.67970275878906,350.3837585449219,64.31505584716797,215.80718994140625
8580,81.9318618774414,365.53033447265625,75.28044891357422,232.25526428222656
8581,70.69719696044922,359.0378723144531,75.91996765136719,223.7095947265625
8582,49.8023796081543,345.68267822265625,60.9753303527832,204.3331756591797
8583,51.7321662902832,352.2424621582031,56.06110000610352,213.17056274414062
8584,66.38883209228516,373.9488525390625,65.60532379150389,232.20291137695312
8585,52.63348388671875,366.125,66.24111175537111,225.1083221435547
8586,28.45502853393555,351.2962951660156,49.77806854248047,217.0712738037109
8587,34.364070892333984,364.47943115234375,56.00874328613281,238.13438415527344
8588,53.68439483642578,378.4928283691406,62.02997970581055,261.49005126953125
8589,42.54323196411133,366.887939453125,62.4712905883789,253.69985961914062
8590,35.7515754699707,351.45709228515625,54.42302322387695,239.10302734375
8591,43.75870132446289,355.8028564453125,52.56055450439453,244.3126983642578
8592,68.16902923583984,372.7184448242188,61.91778182983398,259.13394165039057
8593,58.49764633178711,360.4515686035156,64.62921142578125,248.78189086914062
8594,46.021339416503906,341.1761169433594,48.50276184082031,229.25961303710938
8595,61.2689094543457,348.8316955566406,50.006202697753906,228.8818817138672
8596,76.4117660522461,363.5743713378906,64.31131744384766,231.23802185058597
8597,65.83158874511719,360.27203369140625,65.21263885498047,222.2285919189453
8598,50.23246765136719,348.1360778808594,51.96590805053711,209.09780883789062
8599,59.45880126953125,361.3229675292969,59.9318962097168,222.3856658935547
8600,66.79648590087889,370.53057861328125,70.5008544921875,245.23272705078125
8601,49.4844856262207,364.4607238769531,66.36078643798828,240.80093383789062
8602,34.50992584228516,346.98419189453125,58.89220428466797,236.3542022705078
8603,44.17008972167969,359.587646484375,61.45403671264648,242.8952789306641
8604,57.4317741394043,371.9667053222656,71.6041259765625,256.9760131835937
8605,53.9798469543457,363.836181640625,74.76808166503906,252.77609252929688
8606,41.57085800170898,352.7099609375,61.30443954467773,240.6251678466797
8607,49.04691696166992,352.34344482421875,56.78290176391602,241.36192321777344
8608,64.53010559082031,367.2394714355469,60.3133659362793,253.06781005859372
8609,57.79828262329102,356.1618957519531,61.09126663208008,241.4965667724609
8610,40.7705192565918,344.6093444824219,45.34628677368164,229.2259521484375
8611,57.4429931640625,347.2459716796875,44.08967971801758,236.8553466796875
8612,72.54844665527344,361.6146545410156,58.417236328125,253.18374633789062
8613,61.49330520629883,355.8888854980469,58.23398208618164,238.9309844970703
8614,55.748817443847656,345.82855224609375,57.93852996826172,221.2449951171875
8615,55.01953887939453,355.29425048828125,54.10139465332031,223.9302520751953
8616,74.11172485351562,372.1163024902344,66.68241882324219,234.9405212402344
8617,62.039329528808594,364.4532470703125,73.14496612548828,232.71153259277344
8618,50.93182754516602,350.1032409667969,62.45632934570313,225.93109130859372
8619,46.021339416503906,354.7481994628906,59.37465286254883,232.03460693359372
8620,59.058631896972656,373.5411987304688,79.01286315917969,249.93003845214844
8621,49.5031852722168,360.3169250488281,72.57649993896484,243.8227844238281
8622,42.42355346679688,346.2735900878906,64.74514770507811,235.1985626220703
8623,47.9473876953125,348.5025634765625,61.91778182983398,237.0348663330078
8624,62.43576049804688,360.58245849609375,72.5129165649414,248.98757934570312
8625,53.63577651977539,353.49908447265625,71.9631576538086,239.30123901367188
8626,37.65144348144531,339.2052001953125,51.10573196411133,218.81033325195312
8627,48.27275848388672,351.5767822265625,51.94721221923828,228.41064453125
8628,62.3385238647461,368.9523620605469,59.55790710449219,243.32537841796875
8629,54.25659942626953,360.3730163574219,63.38756561279297,235.9727325439453
8630,46.48508834838867,344.7738952636719,48.70097732543945,225.1943359375
8631,52.734458923339844,351.2551574707031,44.557167053222656,226.6192321777344
8632,70.11377716064453,370.0406494140625,59.42700958251953,246.6314392089844
8633,61.575584411621094,359.99530029296875,59.25497436523438,237.97357177734372
8634,41.32028579711914,350.03594970703125,52.69892883300781,225.4000244140625
8635,46.0587387084961,348.10614013671875,51.58818054199219,223.37673950195312
8636,58.677162170410156,367.6994934082031,60.47418212890625,240.0379943847656
8637,42.479652404785156,366.7532958984375,63.41748428344727,234.4281463623047
8638,27.33305931091309,349.8863525390625,51.24784851074219,227.67388916015625
8639,33.32063674926758,356.90240478515625,55.7880859375,234.5104217529297
8640,51.50403213500977,372.2471923828125,70.37743377685547,250.56207275390625
8641,47.88380813598633,366.26708984375,69.65189361572266,248.62106323242188
8642,34.517406463623054,347.4292297363281,52.2950210571289,231.74664306640625
8643,46.69826126098633,354.9651184082031,49.29561996459961,240.86077880859372
8644,61.13801574707031,366.45782470703125,59.83465957641602,255.49127197265625
8645,59.64205551147461,358.1926574707031,61.940223693847656,239.15538024902344
8646,47.86885070800781,340.9591979980469,44.30659484863281,222.3033905029297
8647,52.76063919067383,344.7103271484375,42.74331665039063,223.8330078125
8648,73.96961212158203,359.7933349609375,54.98027038574219,235.43792724609372
8649,62.3310432434082,350.8063659667969,56.69314193725586,224.15464782714844
8650,48.3886947631836,343.90997314453125,51.58443832397461,218.29421997070312
8651,50.09408950805664,353.2073669433594,45.701576232910156,228.2909698486328
8652,68.91326904296875,367.7368774414063,53.00186157226562,236.27566528320312
8653,56.42573928833008,361.607177734375,53.0878791809082,239.79864501953125
8654,34.681961059570305,351.6366271972656,47.21623611450195,233.99058532714844
8655,36.85110473632813,357.7513427734375,44.321556091308594,239.5069274902344
8656,49.794898986816406,374.4836730957031,56.8203010559082,260.05767822265625
8657,42.621768951416016,373.6010437011719,59.80474090576172,252.30487060546875
8658,25.3883113861084,353.6150207519531,57.6729965209961,229.11749267578125
8659,45.94280242919922,357.5793151855469,60.39938354492188,234.51416015625
8660,64.97141265869139,378.3544616699219,74.10985565185547,247.0353546142578
8661,64.07757568359375,372.4790649414063,72.9317855834961,236.1260681152344
8662,58.46772766113281,351.72637939453125,64.45343780517578,220.1305084228516
8663,65.81662750244139,355.0511474609375,61.599891662597656,222.6474609375
8664,77.66837310791016,370.6689758300781,69.88002777099611,236.87777709960938
8665,68.81228637695311,360.7133483886719,67.748291015625,230.17962646484372
8666,55.09059524536133,344.5420227050781,60.33206558227539,218.1147003173828
8667,60.54336929321289,352.0592346191406,53.06917953491211,225.4449157714844
8668,68.02317047119139,368.1781921386719,61.41289901733398,236.7768096923828
8669,58.2059326171875,370.3174133300781,65.82971954345703,232.565673828125
8670,44.256107330322266,350.65301513671875,48.50650405883789,220.2763671875
8671,48.44479370117188,353.95159912109375,47.51543045043945,227.1989288330078
8672,63.1351203918457,371.9554748535156,61.98884201049805,255.20703125
8673,50.9467887878418,365.28350830078125,58.05820846557617,244.6492919921875
8674,33.204700469970696,356.2853088378906,59.352210998535156,237.2667388916016
8675,34.221954345703125,362.14947509765625,57.07835388183594,246.9381103515625
8676,43.75495910644531,378.5900573730469,67.79316711425781,254.6647491455078
8677,30.167903900146484,372.6810302734375,66.60013580322266,241.42176818847656
8678,31.45442771911621,351.46832275390625,62.42266845703125,223.14112854003903
8679,43.03315734863281,359.3894348144531,57.89739227294922,232.9583740234375
8680,70.35312652587889,375.48968505859375,72.79341125488281,238.85992431640625
8681,72.6008071899414,359.8008117675781,68.86651611328125,227.7000732421875
8682,55.71141815185547,349.6806335449219,62.8714599609375,218.90008544921875
8683,73.49464416503906,352.6688232421875,60.77711486816406,225.31027221679688
8684,91.8912124633789,370.8671875,73.94904327392578,238.94595336914062
8685,70.2484130859375,360.54132080078125,66.39444732666016,231.44371032714844
8686,57.03534317016602,347.4853210449219,54.90172958374024,216.73468017578125
8687,55.73759841918945,353.5476989746094,52.37730026245117,233.21641540527344
8688,68.37846374511719,369.34503173828125,60.26848602294922,253.7185516357422
8689,53.224388122558594,362.1008605957031,57.92731094360352,251.53819274902344
8690,26.96280860900879,346.030517578125,48.87301254272461,237.4986114501953
8691,28.23063468933105,358.33477783203125,42.22346878051758,246.7361602783203
8692,39.03520584106445,370.6839294433594,53.06169891357422,259.30596923828125
8693,39.39049530029297,364.3111267089844,58.0058479309082,253.48667907714844
8694,13.62258529663086,349.98358154296875,44.792781829833984,227.62527465820312
8695,33.6160888671875,356.5022277832031,50.41385269165039,229.87669372558597
8696,55.21775436401367,368.5372314453125,64.98075866699219,242.5624237060547
8697,59.21570587158203,361.22198486328125,67.83430480957031,237.28543090820312
8698,44.233665466308594,347.7732849121094,55.93394470214844,212.95738220214844
8699,49.66400146484375,350.4136657714844,56.63704681396485,221.51052856445312
8700,74.61661529541016,365.4779968261719,73.86676025390625,229.88043212890625
8701,65.24068450927734,358.0093994140625,72.28852844238281,229.03895568847656
8702,49.23391342163086,340.77593994140625,55.51133346557617,209.8906707763672
8703,51.91542053222656,351.2177429199219,50.43255233764648,217.67340087890625
8704,67.21909332275389,369.99951171875,64.24026489257811,239.2713165283203
8705,58.69960021972656,354.2769775390625,63.01731491088867,235.30328369140625
8706,41.70549392700195,341.42669677734375,49.00391006469727,221.3235321044922
8707,52.66714096069336,346.37457275390625,51.001014709472656,234.267333984375
8708,61.68404006958008,362.9273681640625,57.85251235961914,248.71456909179688
8709,56.6501350402832,358.6414489746094,62.63958358764648,242.22210693359372
8710,41.79151153564453,340.5515441894531,52.41843795776367,228.2049560546875
8711,44.099029541015625,343.48736572265625,53.55162811279297,235.98768615722656
8712,55.12799453735352,354.4490051269531,63.06967163085938,247.18495178222656
8713,46.88151550292969,350.2117004394531,58.72390747070313,236.133544921875
8714,31.98175430297852,332.3349914550781,47.7473030090332,224.90261840820312
8715,49.26009368896485,342.4963073730469,54.1911506652832,229.1623687744141
8716,71.65087127685547,360.6198425292969,65.41085052490234,243.2430877685547
8717,65.27060699462889,351.55059814453125,67.01152801513672,228.1451110839844
8718,54.02472305297852,341.34814453125,55.70954895019531,209.31472778320312
8719,53.57593536376953,340.0765686035156,54.95782852172852,214.1728515625
8720,62.78731155395508,355.14837646484375,62.2094955444336,224.01626586914062
8721,60.57703018188477,355.8851318359375,61.28200149536133,222.91673278808597
8722,45.78198623657226,341.18359375,53.858299255371094,214.1167449951172
8723,56.35468292236328,347.4105224609375,52.863487243652344,227.1316070556641
8724,73.15431213378906,362.4673767089844,64.23651885986328,250.57704162597656
8725,64.45904541015625,353.8992614746094,64.12806701660156,246.0742034912109
8726,47.30412292480469,334.75469970703125,48.9814682006836,234.5366058349609
8727,50.677513122558594,342.802978515625,51.11321258544922,243.3440704345703
8728,58.81179809570313,355.8776550292969,58.07690811157226,255.14344787597656
8729,58.295692443847656,356.2703552246094,69.02733612060547,249.5298614501953
8730,41.39134216308594,346.61767578125,54.97652816772461,228.4854431152344
8731,46.66834259033203,352.6314392089844,52.19778442382813,233.8073272705078
8732,63.03414535522461,368.6120300292969,66.03915405273439,250.2030487060547
8733,57.764625549316406,360.3692932128906,65.23507690429689,240.40077209472656
8734,40.50498580932617,345.2900085449219,54.13505172729492,223.68341064453125
8735,52.05753707885742,352.77728271484375,55.26824188232422,227.8683624267578
8736,64.62734222412111,364.65521240234375,67.56503295898439,240.4905242919922
8737,59.73929214477539,361.4725646972656,68.76180267333984,231.40631103515625
8738,43.75495910644531,343.4387512207031,50.91125869750977,210.76205444335938
8739,56.07793045043945,343.4911193847656,47.526649475097656,215.8670196533203
8740,75.86573791503906,361.42767333984375,60.38816452026367,233.927001953125
8741,67.34250640869139,358.1253356933594,67.572509765625,230.90516662597656
8742,54.52587127685547,344.2315979003906,59.68880462646485,222.49038696289062
8743,65.94378662109375,347.0328063964844,54.662376403808594,229.88790893554688
8744,75.39451599121094,362.3551635742188,64.89100646972656,252.81349182128903
8745,68.03439331054689,352.69500732421875,62.5610466003418,247.4168243408203
8746,52.49884414672852,334.60137939453125,56.13216018676758,240.7149200439453
8747,59.010009765625,345.27691650390625,52.85039520263672,244.8213348388672
8748,71.44517517089844,355.5018005371094,64.03643798828125,257.64169311523443
8749,56.29110336303711,347.40118408203125,62.24876403808594,249.1409149169922
8750,47.99600601196289,342.93572998046875,61.79997634887695,232.80503845214844
8751,47.24802780151367,345.7070007324219,57.25599670410156,235.0265350341797
8752,64.19725036621094,359.66058349609375,64.24961090087889,245.0045928955078
8753,58.75195693969727,353.1007995605469,65.67825317382811,235.4491424560547
8754,41.32402420043945,344.42047119140625,61.53444290161133,226.9820098876953
8755,49.29001235961914,349.1514587402344,53.48991775512695,226.9072113037109
8756,69.21994018554689,366.12310791015625,71.82664489746094,248.6285552978516
8757,64.97141265869139,357.9925842285156,79.29148864746094,241.19363403320312
8758,53.16828918457031,346.2305908203125,63.65122604370117,223.421630859375
8759,71.5760726928711,351.75067138671875,70.4541015625,240.4119873046875
8760,82.36194610595703,361.354736328125,75.88818359375,249.4812469482422
8761,70.70093536376953,355.849609375,78.16204071044922,240.00433349609372
8762,53.6806526184082,333.3503723144531,64.17481231689453,221.8396453857422
8763,59.54107666015625,334.04974365234375,55.08685684204102,226.2789001464844
8764,72.66812896728516,347.33758544921875,63.83822250366211,242.1173858642578
8765,68.31488037109375,345.53497314453125,64.74327850341797,244.7353057861328
8766,46.87029647827149,330.38836669921875,55.76377868652344,227.5018615722656
8767,59.22318649291992,334.98095703125,55.77125930786133,239.0057830810547
8768,70.86175537109375,344.34942626953125,69.13765716552734,255.4089813232422
8769,65.19954681396484,344.8243713378906,70.67849731445312,248.49017333984372
8770,44.39822387695313,334.2068176269531,54.86994171142578,228.36203002929688
8771,55.898414611816406,342.4271240234375,56.508018493652344,226.473388671875
8772,67.07323455810547,356.4255676269531,63.1239013671875,244.7353057861328
8773,59.61213684082031,349.839599609375,63.18000030517578,233.21641540527344
8774,37.40460968017578,337.9205322265625,51.892982482910156,221.7611083984375
8775,44.495460510253906,341.5706787109375,53.16080856323242,226.5107879638672
8776,56.657615661621094,363.6061706542969,62.25250625610352,241.6125030517578
8777,56.13776779174805,364.5598449707031,72.99723815917969,245.86849975585938
8778,38.17502975463867,343.032958984375,60.393775939941406,223.5899200439453
8779,49.64904022216797,351.694580078125,57.22607803344727,232.5058441162109
8780,65.43141937255861,366.5756530761719,68.52805328369139,246.7361602783203
8781,66.58330535888672,353.1680908203125,74.63157653808594,246.04054260253903
8782,56.321022033691406,331.91424560546875,62.94064712524414,230.3628845214844
8783,66.34769439697266,341.93719482421875,64.99758911132811,241.0328063964844
8784,83.66717529296875,353.59820556640625,74.75498962402344,258.8983154296875
8785,79.39994812011719,343.4181823730469,82.80699157714844,248.6397705078125
8786,58.2470703125,325.578857421875,63.96163940429688,235.2434539794922
8787,63.81952285766602,333.2718200683594,63.13138198852539,245.453369140625
8788,73.11317443847656,346.8401794433594,66.58705139160156,248.78189086914062
8789,70.18109130859375,343.3134765625,71.53119659423828,240.94679260253903
8790,50.32222366333008,328.4735412597656,58.01519775390625,226.94834899902344
8791,53.2281265258789,334.8575439453125,60.34141540527344,234.78343200683597
8792,72.36519622802734,352.868896484375,69.9080810546875,247.04283142089844
8793,57.47665405273438,344.9328308105469,72.62698364257812,231.8737945556641
8794,45.44539260864258,326.45025634765625,53.24308395385742,211.7232208251953
8795,56.08166885375977,340.1869201660156,58.84171676635742,224.1097717285156
8796,64.86669158935547,352.199462890625,62.873329162597656,232.1842041015625
8797,54.451072692871094,355.2213134765625,57.802024841308594,222.75965881347656
8798,35.61693572998047,343.1713562011719,53.76667022705078,209.58399963378903
8799,44.75351333618164,356.2909240722656,59.56725692749024,220.8560485839844
8800,61.579322814941406,362.8170471191406,71.43769836425781,241.06646728515625
8801,60.70792770385742,358.4750061035156,70.7532958984375,237.9960174560547
8802,47.94364929199219,338.2197265625,55.30751037597656,226.1779327392578
8803,55.857276916503906,339.5473937988281,53.05609130859375,242.72325134277344
8804,79.6841812133789,350.0939025878906,68.341064453125,259.021728515625
8805,68.94318389892578,341.1854553222656,66.74786376953125,252.95187377929688
8806,49.00577926635742,324.0828857421875,52.1622543334961,240.5316619873047
8807,56.07044982910156,326.91400146484375,49.0618782043457,242.37168884277344
8808,69.17131805419922,347.52459716796875,65.92134857177734,251.1754150390625
8809,69.64254760742189,338.22344970703125,68.8048095703125,242.50259399414062
8810,52.81299591064453,332.6398010253906,65.02751159667969,226.8922576904297
8811,65.88394927978516,339.03875732421875,62.53673553466797,231.555908203125
8812,78.75668334960938,357.9925842285156,72.03234100341797,240.98419189453125
8813,70.61492156982422,357.25579833984375,81.20257568359375,231.4287567138672
8814,56.99794387817383,346.3128662109375,67.42104339599611,215.12278747558597
8815,56.38833999633789,342.73004150390625,64.15611267089844,217.78933715820312
8816,66.01110076904297,359.3164978027344,70.77947998046875,230.710693359375
8817,56.26492309570313,357.03143310546875,76.24720764160156,223.98634338378903
8818,38.64999771118164,343.20501708984375,69.63132476806639,210.4815673828125
8819,54.31643676757813,352.8277587890625,69.16757965087889,221.12158203125
8820,69.89685821533203,365.2030944824219,76.07891845703125,233.99432373046875
8821,68.07926940917969,359.9522705078125,84.77043914794922,234.947998046875
8822,57.56267166137695,340.7366638183594,61.35118865966797,222.7671356201172
8823,62.02811050415039,348.2538757324219,62.110389709472656,235.00408935546875
8824,86.62169647216797,363.0900573730469,76.58380126953125,258.22512817382807
8825,72.69056701660156,350.15374755859375,76.78949737548828,253.62879943847656
8826,58.16105270385742,339.3753662109375,67.35746765136719,245.09060668945312
8827,60.69296646118164,342.28125,59.12220764160156,249.8739318847656
8828,75.35711669921875,352.78289794921875,69.34709167480469,260.8580322265625
8829,76.82689666748047,353.231689453125,73.6218032836914,259.97915649414057
8830,58.17227554321289,341.09197998046875,64.10375213623047,239.15164184570312
8831,67.51454162597656,341.95587158203125,66.28411865234375,244.40994262695312
8832,81.0342788696289,361.706298828125,81.7523422241211,255.48751831054688
8833,64.08131408691406,350.57635498046875,73.61431884765625,242.917724609375
8834,45.43043518066406,337.3296203613281,62.76861190795898,223.0850372314453
8835,52.00891876220703,345.837890625,66.474853515625,227.23257446289062
8836,65.31548309326172,365.5434265136719,72.918701171875,242.13607788085938
8837,58.04137802124024,361.8371887207031,75.88818359375,236.1784210205078
8838,42.18046188354492,345.7630920410156,66.1756591796875,219.5022125244141
8839,52.71575927734375,351.2084045410156,71.91266632080078,224.3790435791016
8840,80.31248474121094,366.4447326660156,85.806396484375,235.81939697265625
8841,72.20811462402344,355.2736511230469,84.87516021728516,226.26394653320312
8842,61.9383544921875,334.3750915527344,74.66149139404297,211.81671142578125
8843,71.99494171142578,339.21826171875,69.59392547607422,225.9647521972656
8844,83.74571228027344,350.96905517578125,78.52481079101562,240.30352783203125
8845,73.4647216796875,346.21563720703125,75.2262191772461,238.164306640625
8846,52.71202087402344,328.79144287109375,62.570396423339844,224.6557922363281
8847,66.00736236572266,342.0755615234375,65.59223175048828,233.6240692138672
8848,79.37376403808594,348.7550354003906,74.37725830078125,253.5951385498047
8849,72.64942932128906,342.1129455566406,80.36858367919922,248.1685485839844
8850,60.64060592651367,331.0653076171875,71.48257446289062,233.13787841796875
8851,66.98722076416016,343.28729248046875,72.02860260009766,247.18869018554688
8852,80.15166473388672,355.33349609375,78.7454605102539,256.95730590820307
8853,64.85547637939453,351.4701843261719,79.75523376464844,247.0690155029297
8854,50.99166488647461,332.68841552734375,62.45071792602539,222.6250305175781
8855,49.40968704223633,337.36328125,64.23838806152344,218.63455200195312
8856,69.23863983154297,358.3441162109375,71.77055358886719,237.44998168945312
8857,50.41197967529297,348.5942077636719,69.12644195556639,227.4308013916016
8858,41.544677734375,336.4731750488281,60.83882141113281,213.44357299804688
8859,46.66086196899414,344.3868103027344,55.90963363647461,214.9956359863281
8860,57.8843002319336,357.5063781738281,65.09108734130861,230.11978149414062
8861,55.65158081054688,349.98919677734375,67.96707153320311,217.62852478027344
8862,49.58172225952149,338.2571105957031,56.79973220825195,200.6755523681641
8863,58.72203826904297,341.7314758300781,53.6881332397461,212.92372131347656
8864,75.4880142211914,356.859375,66.46736907958984,233.31365966796875
8865,67.34250640869139,353.5121765136719,67.78755950927734,233.5455322265625
8866,40.7518196105957,333.0624084472656,47.30412292480469,217.54623413085938
8867,51.85558319091797,341.9072570800781,47.55095672607422,227.9917755126953
8868,65.80541229248047,362.4318237304688,66.20558166503906,260.24468994140625
8869,57.001686096191406,356.26849365234375,65.52865600585939,248.36302185058597
8870,47.33030319213867,338.3319091796875,62.11412811279297,233.14537048339844
8871,56.90444946289063,345.3367614746094,59.15960693359375,235.38555908203125
8872,61.87851333618164,353.61688232421875,66.16443634033203,248.5836639404297
8873,60.363853454589844,354.2638854980469,64.32067108154297,240.8046722412109
8874,39.03520584106445,333.3765563964844,51.92290115356445,219.4610748291016
8875,46.09613800048828,339.476318359375,51.88550186157226,221.0991516113281
8876,61.89721298217773,360.50579833984375,67.02462005615234,237.7978057861328
8877,57.42803192138672,353.46356201171875,70.51020050048828,231.3539581298828
8878,36.286380767822266,342.5205993652344,51.45541381835938,217.482666015625
8879,44.540340423583984,347.27777099609375,49.97815322875977,220.95703125
8880,55.8460578918457,363.8006286621094,63.15008163452149,238.03341674804688
8881,59.51115798950195,358.1085205078125,57.72348403930664,228.07406616210938
8882,45.45661544799805,339.2893371582031,50.5952377319336,212.96859741210938
8883,57.18867874145508,340.1195983886719,50.73361206054688,219.23667907714844
8884,75.42443084716797,355.8009948730469,57.49909210205078,234.64132690429688
8885,71.4339599609375,350.6100158691406,61.10435485839844,234.7610015869141
8886,56.56037521362305,333.79541015625,51.51525115966797,221.51052856445312
8887,61.84485626220703,340.64691162109375,52.775596618652344,229.59994506835938
8888,77.02510833740234,356.4031066894531,69.54157257080078,243.52359008789062
8889,72.06600189208984,353.572021484375,73.02715301513672,245.00083923339844
8890,54.71660614013672,340.61700439453125,62.30860137939453,229.96270751953125
8891,61.48956680297852,343.45184326171875,63.12016296386719,241.5975341796875
8892,79.23912811279297,360.8311462402344,77.19340515136719,259.0067749023437
8893,69.85198211669922,352.40142822265625,76.35940551757812,247.6486968994141
8894,52.1435546875,333.0511779785156,64.03269958496094,233.9195251464844
8895,56.14524841308594,335.0968933105469,59.20822525024414,238.65049743652344
8896,75.2486572265625,352.56597900390625,71.80046844482422,255.3341827392578
8897,64.14863586425781,348.654052734375,67.84365844726561,245.55435180664062
8898,49.114234924316406,338.0140380859375,58.96139144897461,228.2012176513672
8899,51.00288391113281,339.4688415527344,52.91397476196289,221.73866271972656
8900,65.76801300048828,356.7958068847656,64.11871337890625,241.3207855224609
8901,58.27325057983398,349.86578369140625,59.85149002075195,238.31016540527344
8902,44.936767578125,339.88397216796875,55.18035507202149,219.1095123291016
8903,57.80950546264648,348.0556640625,56.17890548706055,229.99636840820312
8904,77.1373062133789,356.6611633300781,63.9167594909668,242.7606506347656
8905,75.53289031982422,349.3833312988281,71.04126739501953,237.4238128662109
8906,66.29159545898439,336.7985534667969,65.4949951171875,222.93544006347656
8907,70.58126068115234,341.2079162597656,65.30800628662111,232.47592163085938
8908,85.80265808105469,357.3381042480469,75.67500305175781,253.83074951171875
8909,85.0621566772461,350.5539245605469,83.7419662475586,250.8724822998047
8910,66.86380004882811,338.4366455078125,76.12005615234375,239.41343688964844
8911,69.02920532226561,339.3603820800781,66.81892395019531,237.4911193847656
8912,75.7535400390625,353.6617736816406,74.30620574951172,258.176513671875
8913,64.12993621826172,346.61578369140625,70.71963500976562,247.76837158203125
8914,48.87488174438477,332.89410400390625,63.78586196899414,233.89334106445312
8915,58.72203826904297,336.6639099121094,58.033897399902344,235.2509307861328
8916,78.75294494628906,354.2452087402344,69.11895751953125,251.8523406982422
8917,72.79528045654297,349.92559814453125,70.28581237792969,242.3343048095703
8918,56.88200759887695,331.6412353515625,59.61961364746094,221.9705352783203
8919,59.96368408203125,340.6431884765625,52.61104202270508,227.83470153808597
8920,83.81302642822266,357.6260681152344,72.36893463134766,249.3204345703125
8921,73.49838256835938,345.48260498046875,67.22657012939453,236.1821594238281
8922,58.02267837524414,334.9697570800781,58.43032836914063,221.51052856445312
8923,70.72711944580078,338.2159729003906,62.31982421875,230.06369018554688
8924,80.37979888916016,349.7273864746094,65.71565246582031,244.6006774902344
8925,67.98203277587889,346.72052001953125,69.56401062011719,234.28602600097656
8926,55.02701950073242,331.5365295410156,60.96971893310547,220.2726287841797
8927,59.60839462280274,337.14263916015625,58.35552978515625,235.0340118408203
8928,70.27085113525389,348.3660583496094,67.40982818603516,251.12680053710938
8929,60.25165939331055,349.147705078125,69.89685821533203,245.76377868652344
8930,43.769920349121094,335.085693359375,67.660400390625,235.25466918945312
8931,59.45880126953125,335.6204833984375,66.06719970703125,241.3843688964844
8932,66.36265563964844,348.3211975097656,67.87731170654297,249.0997772216797
8933,71.32176208496094,354.406005859375,77.66837310791016,252.42454528808597
8934,52.83169555664063,339.0125732421875,63.46797180175781,231.0809326171875
8935,55.2252311706543,333.6532897949219,49.60042190551758,225.957275390625
8936,75.03922271728516,352.0685729980469,61.6503791809082,237.1582794189453
8937,67.59682464599611,347.6106262207031,62.48437881469727,230.3067779541016
8938,47.06476974487305,332.8454895019531,51.33573532104492,214.58050537109372
8939,50.67003631591797,340.2131042480469,47.36770248413086,218.7691802978516
8940,74.05937194824219,353.1082763671875,65.37158203125,235.13499450683597
8941,68.08674621582031,348.72137451171875,64.36180877685547,228.7061004638672
8942,52.92893600463867,332.80059814453125,55.8460578918457,211.6970367431641
8943,58.5574836730957,331.9217224121094,50.90564727783203,216.83566284179688
8944,69.24611663818361,346.0884704589844,63.565208435058594,230.0113220214844
8945,66.50851440429689,345.239501953125,69.99784088134766,231.3876037597656
8946,49.60042190551758,328.2267150878906,58.08251571655274,212.19818115234372
8947,58.05633544921875,340.7965087890625,61.78501892089844,221.9892425537109
8948,68.65521240234375,353.3214416503906,78.6594467163086,240.963623046875
8949,59.3391227722168,346.3988952636719,80.2676010131836,235.30889892578125
8950,43.4408073425293,330.73992919921875,70.55134582519531,220.6297912597656
8951,50.14645004272461,337.34832763671875,65.54361724853516,225.0653076171875
8952,73.48716735839844,356.7023010253906,77.02136993408203,242.2277069091797
8953,71.89396667480469,346.6419677734375,78.04236602783203,234.2392883300781
8954,55.59922409057617,334.82763671875,68.15406799316406,216.69915771484372
8955,55.95077514648438,335.14178466796875,58.96513366699219,227.066162109375
8956,77.37666320800781,354.48455810546875,67.69032287597656,245.39166259765625
8957,63.64748764038086,342.75994873046875,57.24103927612305,233.8353729248047
8958,45.681007385253906,328.87371826171875,44.52911758422852,221.0710906982422
8959,55.2252311706543,337.281005859375,47.68559265136719,233.4314727783203
8960,74.79612731933594,351.77313232421875,59.86644744873047,243.7685546875
8961,72.38015747070312,349.29730224609375,71.27313995361328,241.6929016113281
8962,57.042823791503906,333.1970520019531,59.630836486816406,222.6568145751953
8963,58.87537384033203,335.91595458984375,54.12944030761719,224.8633575439453
8964,72.918701171875,354.49951171875,64.27578735351561,238.61122131347656
8965,68.93944549560547,348.994384765625,67.40608978271484,227.98243713378903
8966,52.39038848876953,341.63800048828125,66.11208343505861,215.3116455078125
8967,62.51055908203125,349.0130615234375,65.69695281982422,222.36509704589844
8968,74.24262237548828,360.4197692871094,76.4155044555664,243.58155822753903
8969,58.09747695922852,352.7903747558594,75.36085510253906,237.48178100585938
8970,37.804779052734375,341.08447265625,63.31837463378906,224.4220428466797
8971,45.17238235473633,344.8243713378906,61.49704360961914,229.32879638671875
8972,61.2689094543457,355.9019775390625,68.68887329101561,240.7915954589844
8973,65.59597778320311,355.0081481933594,75.90313720703125,238.9590301513672
8974,51.87428283691406,337.9915771484375,58.5574836730957,222.9410400390625
8975,59.53359603881836,344.3718566894531,57.88056182861328,231.2548370361328
8976,84.2618179321289,359.6044616699219,79.26156616210938,249.6027984619141
8977,82.7322006225586,358.8938903808594,82.70227813720703,238.65611267089844
8978,60.83882141113281,344.58502197265625,70.4541015625,223.2776336669922
8979,64.78815460205078,345.4040832519531,64.98637390136719,226.2471160888672
8980,85.466064453125,360.5319519042969,81.6925048828125,238.65985107421875
8981,77.9376449584961,351.7170104980469,78.81278228759766,232.60494995117188
8982,59.47749710083008,334.82763671875,61.94209289550781,213.5352020263672
8983,62.72747039794922,333.4364013671875,55.88345336914063,210.2590484619141
8984,75.44686889648438,350.0751953125,66.20932006835939,229.8710784912109
8985,68.165283203125,347.1468505859375,69.38823699951172,223.8760223388672
8986,56.81843185424805,331.5252990722656,62.89576721191406,213.56137084960938
8987,54.7614860534668,337.0117492675781,59.72433090209961,222.5745391845703
8988,66.57582855224611,357.63726806640625,71.392822265625,243.4693603515625
8989,49.29375076293945,349.77227783203125,73.88359069824219,239.30685424804688
8990,32.76713180541992,334.6331481933594,58.43406677246094,230.7462158203125
8991,41.0996322631836,340.2953796386719,55.26637268066406,235.25653076171875
8992,55.25889205932617,351.6459655761719,61.92339324951172,246.4911956787109
8993,52.1734733581543,349.9405822753906,63.72602462768555,237.0516815185547
8994,38.96788787841797,334.0048522949219,56.14151000976562,219.4704132080078
8995,49.682701110839844,336.2787170410156,56.38086318969727,222.8101501464844
8996,66.8563232421875,352.0423889160156,64.98637390136719,234.38888549804688
8997,70.4129638671875,349.16265869140625,68.75244903564453,231.6063995361328
8998,57.383155822753906,335.8561096191406,61.07069778442383,221.26182556152344
8999,65.22946166992189,337.4268493652344,64.00277709960939,225.9927978515625
9000,81.73738098144531,354.4957580566406,72.54844665527344,241.0458984375
9001,72.95610046386719,347.2441101074219,73.34878540039062,230.963134765625
9002,57.70478820800781,327.4637756347656,60.65930557250977,215.4014129638672
9003,61.80371856689453,335.0819396972656,60.78646469116211,220.39044189453125
9004,69.2274169921875,350.4866027832031,68.68513488769531,243.61895751953125
9005,58.97635269165039,343.6238708496094,72.54096984863281,234.9835205078125
9006,42.83868408203125,332.1274108886719,65.73809051513672,225.59637451171875
9007,39.809364318847656,335.3549499511719,58.69211959838867,232.17111206054688
9008,57.62250900268555,351.0737609863281,73.21414947509766,250.459228515625
9009,53.01869201660156,347.8275146484375,71.26192474365234,239.90896606445312
9010,36.798744201660156,331.8357238769531,60.60321044921875,222.5184326171875
9011,47.2442855834961,339.54364013671875,59.290504455566406,229.24652099609372
9012,64.25334930419922,351.53375244140625,70.9926528930664,244.49783325195312
9013,59.64205551147461,347.0384216308594,74.52685546875,234.43002319335938
9014,45.11628341674805,328.9634704589844,59.559776306152344,214.93017578125
9015,50.5952377319336,331.3083801269531,51.84436416625977,213.22103881835938
9016,67.00592041015625,349.1551818847656,63.43057250976562,230.2899475097656
9017,65.76426696777344,344.29705810546875,58.9913101196289,231.05288696289062
9018,52.75315856933594,333.9524841308594,52.41656875610352,214.6646423339844
9019,56.92688751220703,340.7778015136719,49.873435974121094,213.6997528076172
9020,74.73255157470703,360.4870910644531,60.1245002746582,231.83827209472656
9021,63.07902145385742,353.64306640625,57.59632873535156,222.4660797119141
9022,45.69970703125,339.5623474121094,48.58691024780274,214.3205718994141
9023,47.38266372680664,341.3238525390625,50.26238632202149,223.14300537109372
9024,65.60719299316406,360.5431823730469,59.74677276611328,245.61231994628903
9025,53.6881332397461,349.9630126953125,65.74557495117189,239.2320556640625
9026,36.88102340698242,339.0200500488281,55.26263046264648,229.1978912353516
9027,39.45033645629883,342.5766906738281,52.22209167480469,239.0263519287109
9028,50.404502868652344,355.5205078125,61.87477493286133,249.97677612304688
9029,51.11508178710938,351.0550537109375,61.384849548339844,246.8651885986328
9030,41.047271728515625,335.3661804199219,53.06731033325195,226.06759643554688
9031,48.50837326049805,337.2398681640625,55.49076461791992,229.50082397460938
9032,72.54096984863281,358.1571350097656,68.57667541503906,242.17535400390625
9033,66.73664855957031,352.9250183105469,68.62529754638672,227.0923309326172
9034,52.42030715942383,338.41046142578125,56.46313858032226,208.4414520263672
9035,56.79225158691406,341.4248046875,54.23789978027344,211.90460205078125
9036,78.52107238769531,359.5296630859375,68.92074584960939,229.17919921875
9037,67.88479614257811,348.8485107421875,63.636268615722656,217.32745361328125
9038,57.08770370483398,331.6898498535156,58.2358512878418,208.3965759277344
9039,67.96707153320311,339.09112548828125,60.031005859375,213.8194274902344
9040,80.32369995117188,357.38671875,72.71674346923828,232.4740447998047
9041,74.10798645019531,356.6574401855469,75.63760375976562,231.5727386474609
9042,49.88091659545898,338.2384338378906,62.764869689941406,217.1404571533203
9043,51.82940292358398,343.1601257324219,57.37567520141602,231.7559967041016
9044,71.11980438232422,357.9215087890625,66.30281829833984,251.1810302734375
9045,54.90734100341797,353.7290954589844,65.81662750244139,247.3962554931641
9046,42.2365608215332,335.97576904296875,56.7099723815918,234.54595947265625
9047,46.51126480102539,341.33880615234375,53.35154342651367,238.9365997314453
9048,70.6523208618164,352.3714904785156,69.16010284423828,260.3475341796875
9049,66.81143951416016,348.4446105957031,73.39366912841797,259.0797119140625
9050,46.8740348815918,328.5408630371094,56.702491760253906,234.179443359375
9051,63.12016296386719,337.1912536621094,63.58390808105469,239.71075439453125
9052,70.13247680664061,352.4986572265625,74.5081558227539,250.1787414550781
9053,61.37362670898438,346.436279296875,74.28750610351562,234.29537963867188
9054,46.4102897644043,336.2824401855469,67.21535491943361,218.48683166503903
9055,46.00263977050781,342.84222412109375,55.898414611816406,224.6053009033203
9056,69.30595397949219,358.8116149902344,65.26686096191406,240.0623016357422
9057,65.09108734130861,348.6727294921875,76.1125717163086,232.0290069580078
9058,52.1622543334961,331.166259765625,64.54132080078125,213.1200714111328
9059,71.392822265625,338.71337890625,62.742431640625,218.2886047363281
9060,89.19100189208984,353.1718444824219,81.5915298461914,237.93431091308597
9061,79.45978546142578,348.642822265625,81.64014434814453,235.1181640625
9062,59.61213684082031,334.5396728515625,67.98950958251953,224.0966796875
9063,51.65736770629883,336.0992126464844,56.96428680419922,230.23385620117188
9064,66.38883209228516,347.22540283203125,62.14030838012695,252.6470642089844
9065,62.54421615600586,348.04443359375,65.33792114257811,249.6962890625
9066,45.92784118652344,333.7879333496094,60.37507629394531,244.3482360839844
9067,54.78766250610352,340.6394348144531,59.46627807617188,251.04640197753903
9068,75.96297454833984,354.52569580078125,70.91411590576172,265.14208984375
9069,67.23030853271484,348.912109375,66.474853515625,257.53884887695307
9070,52.41282653808594,334.3750915527344,54.39871597290039,232.11502075195312
9071,46.19711303710938,326.33807373046875,57.52527236938477,220.3118896484375
9072,31.32727241516113,315.073486328125,52.62226104736328,197.49850463867188
9073,36.63045120239258,315.2716979980469,47.5359992980957,200.0827789306641
9074,57.18494033813477,337.2847595214844,65.29678344726561,215.60336303710938
9075,49.69392013549805,329.4571228027344,62.0318489074707,212.301025390625
9076,34.82407760620117,312.89312744140625,51.24224090576172,200.75596618652344
9077,40.20953369140625,318.8956604003906,46.4925651550293,208.12730407714844
9078,51.87802124023438,329.38983154296875,56.03305053710938,222.7764892578125
9079,56.2686653137207,332.9015808105469,61.429725646972656,224.54920959472656
9080,33.66471099853516,308.95501708984375,50.73735427856445,205.54676818847656
9081,30.99816131591797,313.2933044433594,40.36661148071289,213.62869262695312
9082,48.46349334716797,328.81011962890625,48.07080459594727,233.10983276367188
9083,39.2147216796875,322.5719909667969,44.80587005615234,230.6190643310547
9084,25.003101348876953,314.9425964355469,37.78607940673828,226.5425720214844
9085,30.09310531616211,317.85223388671875,33.40665817260742,229.82994079589844
9086,42.59185028076172,328.20428466796875,44.1326904296875,246.83526611328125
9087,45.79320526123047,325.8855285644531,56.96802520751953,242.22023010253903
9088,26.715974807739254,312.76971435546875,40.41522979736328,221.291748046875
9089,28.79909896850586,309.9498291015625,41.35768508911133,215.4088897705078
9090,51.50403213500977,333.6383361816406,58.81927490234375,230.76116943359372
9091,43.859676361083984,326.8653869628906,63.96163940429688,215.43881225585938
9092,30.88596343994141,318.618896484375,58.96513366699219,196.68321228027344
9093,34.420169830322266,323.4246826171875,55.41596603393555,196.14840698242188
9094,47.95486831665039,335.1081237792969,59.95620727539063,206.82955932617188
9095,36.81744384765625,330.7474060058594,55.8871955871582,213.322021484375
9096,24.34113883972168,313.85052490234375,49.92953491210938,203.7104797363281
9097,30.51571273803711,320.31683349609375,47.12086868286133,215.8651580810547
9098,49.70513916015625,325.2086181640625,51.97151947021485,230.98556518554688
9099,50.258644104003906,324.5503845214844,50.38954162597656,228.8388671875
9100,35.28408432006836,303.25164794921875,36.039546966552734,209.6419677734375
9101,46.0400390625,311.57666015625,35.190589904785156,223.5581359863281
9102,57.20363998413086,327.1982421875,47.77161026000977,238.1549530029297
9103,48.2877197265625,326.0052185058594,51.7733039855957,241.2254180908203
9104,28.07729911804199,311.0792541503906,39.55131149291992,226.7632293701172
9105,31.34597206115723,323.3124694824219,39.02024459838867,237.33218383789062
9106,47.25176620483398,337.3333740234375,46.22329330444336,251.9140472412109
9107,36.12556457519531,329.54315185546875,43.19397354125977,237.2461700439453
9108,23.79885292053223,317.1453857421875,35.37384414672852,218.3933258056641
9109,30.57929229736328,322.29522705078125,34.397727966308594,224.93441772460938
9110,45.39677429199219,336.424560546875,51.70598602294922,231.3820037841797
9111,34.367809295654304,336.9818115234375,55.50946426391602,218.93186950683597
9112,17.77761459350586,326.0613098144531,46.290611267089844,201.24588012695312
9113,21.94012260437012,329.68902587890625,45.74458694458008,200.80084228515625
9114,44.495460510253906,352.27801513671875,64.81807708740234,220.9663848876953
9115,46.65338134765625,344.7944641113281,67.12933349609375,218.7074737548828
9116,36.70898818969727,326.9102783203125,54.110740661621094,206.9155731201172
9117,39.2857780456543,333.3241882324219,51.66484832763672,213.9952087402344
9118,57.22233963012695,345.2320251464844,57.19990158081055,228.10958862304688
9119,53.38520050048828,338.80316162109375,59.15586853027344,223.97325134277344
9120,38.283485412597656,322.5495300292969,46.61972427368164,208.3928375244141
9121,41.02109146118164,324.8495788574219,44.68245315551758,218.72991943359372
9122,59.178306579589844,340.5422058105469,50.2960433959961,235.43605041503903
9123,55.77873611450195,338.3431396484375,58.2358512878418,235.16677856445312
9124,33.881622314453125,320.4477233886719,37.471927642822266,220.2894592285156
9125,38.511619567871094,317.3024597167969,38.41438293457031,227.7430725097656
9126,54.07334518432617,345.0226135253906,49.4433479309082,245.705810546875
9127,48.99456024169922,338.6199035644531,50.39328384399414,239.0375823974609
9128,27.740707397460934,325.57513427734375,45.15742111206055,225.80206298828125
9129,30.130504608154297,331.9179992675781,42.90600204467773,225.48043823242188
9130,42.143062591552734,345.3031005859375,54.72408676147461,237.2274627685547
9131,33.537551879882805,342.9132995605469,57.98901748657226,224.20513916015625
9132,23.18924903869629,330.61651611328125,47.93242645263672,210.07952880859372
9133,32.72599411010742,335.0108947753906,48.36625671386719,211.30621337890625
9134,45.83434295654297,351.9002685546875,60.69670486450195,225.7085723876953
9135,45.759544372558594,340.3402404785156,56.09288787841797,224.5454559326172
9136,32.415584564208984,322.4410705566406,45.026527404785156,209.9224548339844
9137,37.097938537597656,332.6958923339844,46.24573135375977,211.39971923828125
9138,49.89213562011719,343.7884216308594,54.46603393554688,229.2801818847656
9139,45.82686233520508,338.548828125,52.26323318481445,221.58346557617188
9140,29.90237045288086,320.1148681640625,45.59125137329102,204.87733459472656
9141,40.70320129394531,329.4159851074219,42.015907287597656,206.4181671142578
9142,57.274696350097656,341.8997802734375,53.949928283691406,223.5020294189453
9143,52.738197326660156,331.6599426269531,59.24562454223633,222.78770446777344
9144,37.83469772338867,317.58294677734375,43.52308654785156,217.9445343017578
9145,34.872695922851555,311.9880676269531,43.68016052246094,221.72183227539062
9146,60.96223831176758,335.47088623046875,54.91482162475586,241.2328948974609
9147,64.80311584472656,351.2682189941406,68.94131469726561,241.91917419433597
9148,44.9966049194336,340.25048828125,62.662025451660156,224.5099334716797
9149,53.21316528320313,344.6112060546875,63.68301773071289,230.72564697265625
9150,58.38544845581055,361.28741455078125,74.14351654052734,235.2658843994141
9151,61.003379821777344,358.29925537109375,75.1383285522461,226.9259033203125
9152,45.871742248535156,343.1601257324219,63.06219482421875,212.92745971679688
9153,50.9467887878418,346.6868591308594,62.018760681152344,217.4377899169922
9154,70.83931732177734,362.540283203125,73.51521301269531,239.854736328125
9155,67.91097259521484,355.943115234375,83.44464874267578,236.5935516357422
9156,48.07454299926758,344.9178771972656,61.59241104125977,216.4654083251953
9157,46.74687957763672,348.5680236816406,57.07461166381836,225.5758056640625
9158,64.24587249755861,358.05615234375,63.81017303466797,238.6878967285156
9159,65.58475494384766,356.54522705078125,69.59954071044922,238.17552185058597
9160,46.79549789428711,341.6529541015625,55.10742568969727,223.6796722412109
9161,48.02218627929688,339.135986328125,49.46765518188477,228.3769836425781
9162,67.94463348388672,358.7143859863281,61.558753967285156,250.90988159179688
9163,66.8974609375,350.8680725097656,61.7794075012207,238.62057495117188
9164,57.0802230834961,339.3566589355469,58.23772048950195,229.87669372558597
9165,58.25081253051758,337.60638427734375,52.863487243652344,230.6919860839844
9166,74.55677795410156,356.96783447265625,67.23592376708984,243.66944885253903
9167,62.80601119995117,354.910888671875,75.68809509277344,238.08203125
9168,42.78258514404297,342.8272705078125,67.71089172363281,218.27926635742188
9169,48.65796661376953,345.9613037109375,69.16944885253906,224.23318481445312
9170,60.87996292114258,362.9255065917969,79.33075714111328,232.6891021728516
9171,62.60031509399414,360.27764892578125,78.5752944946289,233.7998504638672
9172,43.63528442382813,341.11065673828125,56.16207885742188,214.677734375
9173,48.05210494995117,347.4161376953125,54.86807250976562,225.35888671875
9174,64.62734222412111,360.79376220703125,63.36886596679688,242.8204803466797
9175,58.4864273071289,360.1318054199219,68.81415557861328,242.59608459472656
9176,33.57869338989258,340.332763671875,53.89196014404297,225.98345947265625
9177,40.98369216918945,350.6922912597656,54.09391403198242,233.81480407714844
9178,55.8460578918457,366.7289733886719,60.89305114746094,244.5969390869141
9179,53.05609130859375,364.8141479492188,61.85794448852539,246.11160278320312
9180,37.53176498413086,345.837890625,53.51422882080078,227.1016845703125
9181,44.671234130859375,351.0064392089844,53.55536651611328,232.34127807617188
9182,59.518638610839844,361.3883972167969,54.03781509399414,245.4720764160156
9183,61.36614990234375,353.1755676269531,59.32977294921875,240.0230407714844
9184,52.45022583007813,340.6095275878906,51.37500381469727,225.3551483154297
9185,58.28446960449219,344.3643798828125,53.858299255371094,235.5388946533203
9186,75.80963897705078,359.3164978027344,72.27356719970703,246.56411743164062
9187,65.87646484375,361.7736206054688,82.73780822753906,240.01182556152344
9188,53.86016845703125,351.85540771484375,71.7051010131836,221.10289001464844
9189,48.43357467651367,354.417236328125,70.8224868774414,230.42271423339844
9190,63.101463317871094,369.6161804199219,75.44499969482422,245.35240173339844
9191,57.39437484741211,362.9853515625,71.6228256225586,242.42779541015625
9192,48.7701644897461,347.9659118652344,62.13469696044922,237.5734100341797
9193,53.587158203125,347.962158203125,53.0953598022461,241.50030517578125
9194,71.71070861816406,363.0975341796875,63.63813781738281,259.4031982421875
9195,69.46303558349611,358.02996826171875,65.54922485351561,258.1466064453125
9196,48.3699951171875,347.67791748046875,61.52135467529297,234.45433044433597
9197,49.4433479309082,353.7777099609375,56.85770034790039,240.76353454589844
9198,68.87586975097656,368.8906555175781,65.90077972412111,257.60055541992193
9199,58.86041641235352,360.6217346191406,70.5232925415039,247.16624450683597
9200,46.15597534179688,351.3018798828125,58.85854721069336,234.7610015869141
9201,49.29001235961914,343.39947509765625,51.1880111694336,235.02279663085938
9202,66.72168731689453,361.3734436035156,55.95638275146485,248.680908203125
9203,63.79708480834961,362.0054931640625,61.596153259277344,245.1541748046875
9204,46.89647674560547,342.09051513671875,53.52544784545898,223.60487365722656
9205,49.97815322875977,349.6114501953125,54.04529571533203,225.8376007080078
9206,63.60260772705078,361.7661437988281,63.163169860839844,238.43731689453125
9207,64.51140594482422,369.2234802246094,81.09224700927734,241.86306762695312
9208,55.28881072998047,358.8527526855469,76.67916870117188,230.1833648681641
9209,61.425987243652344,349.3309631347656,65.40337371826172,229.24090576171875
9210,75.78720092773438,364.4551086425781,76.75396728515625,248.0787811279297
9211,75.82460021972656,359.18560791015625,77.5655288696289,248.0862579345703
9212,57.35697555541992,340.75164794921875,58.64163208007813,232.7451934814453
9213,59.58595657348633,343.4555969238281,58.06942749023438,233.77366638183597
9214,67.17047119140625,357.7494812011719,68.98993682861328,248.70709228515625
9215,63.35951614379883,356.01043701171875,61.7981071472168,246.9081878662109
9216,51.3918342590332,345.41156005859375,54.46416473388672,231.23802185058597
9217,51.61996841430664,350.2509765625,55.70954895019531,232.03086853027344
9218,65.39402008056639,367.0431213378906,61.72330856323242,242.18844604492188
9219,63.01170349121094,364.84405517578125,61.09874725341797,232.43478393554688
9220,40.62840270996094,351.20465087890625,48.53642272949219,217.647216796875
9221,50.5466194152832,351.2383117675781,44.64318466186523,228.51536560058597
9222,61.429725646972656,365.0235900878906,57.37754440307617,241.99771118164062
9223,63.03414535522461,365.5172424316406,60.57141876220703,240.43817138671875
9224,46.19337463378906,346.6457214355469,55.20840454101562,228.9678955078125
9225,52.81299591064453,353.9646911621094,52.03696823120117,237.3789367675781
9226,66.49355316162111,371.9124755859375,72.35584259033203,253.28846740722656
9227,59.97490692138672,364.3279724121094,71.87713623046875,246.9867401123047
9228,38.54528045654297,346.91497802734375,56.8502197265625,232.401123046875
9229,45.08636474609375,348.2950134277344,55.44401550292969,233.7213134765625
9230,62.05429077148438,363.2920227050781,63.7166748046875,246.9680328369141
9231,59.07733154296875,359.39129638671875,64.25896453857422,241.79574584960938
9232,44.45431900024414,344.9029235839844,51.79013442993164,226.3574523925781
9233,55.46084594726562,349.6226806640625,54.434242248535156,237.1844482421875
9234,68.32610321044922,365.6369323730469,61.468994140625,253.50912475585938
9235,58.12739562988281,359.5184631347656,65.19767761230469,245.5842742919922
9236,42.913482666015625,345.44146728515625,55.54873275756836,226.48460388183597
9237,45.29205703735352,346.00994873046875,52.50819396972656,229.689697265625
9238,63.5240707397461,365.1245727539063,63.19308853149414,248.0862579345703
9239,53.2879638671875,361.6315002441406,65.86338043212889,242.92893981933597
9240,46.30931091308594,350.9952087402344,58.38357925415039,224.53237915039062
9241,46.52996444702149,345.1235656738281,49.2731819152832,222.9017791748047
9242,59.05488967895508,363.84552001953125,54.13505172729492,233.7998504638672
9243,61.50826644897461,360.4683837890625,59.5092887878418,232.2440490722656
9244,41.5558967590332,345.56488037109375,46.97314453125,214.0120391845703
9245,43.3585319519043,349.7947082519531,43.9924430847168,222.1537933349609
9246,56.10784912109375,367.0393981933594,52.59795379638672,246.44818115234372
9247,48.48219299316406,362.5888977050781,55.12238693237305,246.3958282470703
9248,36.469635009765625,346.19317626953125,51.20296859741211,228.94171142578125
9249,38.70235443115234,354.7239074707031,50.38019180297852,235.5875244140625
9250,58.53130340576172,366.2914123535156,69.09091186523439,257.578125
9251,55.958251953125,363.0638732910156,64.4796142578125,247.86561584472656
9252,37.12411880493164,349.8620300292969,49.11236572265625,225.0260467529297
9253,51.739646911621094,351.9077453613281,53.78350067138672,231.039794921875
9254,58.27325057983398,367.3236389160156,59.5205078125,243.73301696777344
9255,62.21136474609375,358.0374450683594,66.06533050537111,232.4422607421875
9256,51.8219223022461,346.6307678222656,57.65803909301758,221.85086059570312
9257,56.64639282226562,352.80908203125,61.70460891723633,232.1842041015625
9258,72.15576171875,364.9637451171875,74.20709228515625,247.72723388671875
9259,64.99385070800781,354.1292419433594,73.83684539794922,238.7178192138672
9260,49.59668350219727,339.8690185546875,62.572265625,219.3787841796875
9261,53.14210891723633,348.7026672363281,60.16003036499024,225.6094665527344
9262,73.39366912841797,363.9203186035156,67.69219207763672,235.58377075195312
9263,63.77838516235352,356.59759521484375,67.77820587158203,226.0956573486328
9264,46.14849472045898,343.01800537109375,60.36198425292969,211.65216064453125
9265,55.00831985473633,351.7170104980469,55.12612533569336,219.5508270263672
9266,64.78815460205078,369.0851135253906,69.79401397705078,243.6432647705078
9267,57.91796112060547,362.15509033203125,67.58373260498047,241.10760498046875
9268,41.22304916381836,350.6361999511719,58.89968490600586,230.50498962402344
9269,46.32427215576172,352.9698791503906,55.74320983886719,243.5497589111328
9270,69.34709167480469,373.53558349609375,68.72066497802734,259.88565063476557
9271,64.62360382080078,365.8239135742188,73.77700805664062,254.47775268554688
9272,53.11967086791992,351.7282409667969,67.34063720703125,236.0176086425781
9273,60.1020622253418,349.652587890625,64.93962097167969,232.5282745361328
9274,79.85621643066406,368.5241394042969,79.98149871826172,242.46519470214844
9275,70.28206634521484,356.64996337890625,77.91333770751953,240.5541076660156
9276,57.23729705810547,344.734619140625,67.572509765625,226.0806884765625
9277,61.78127670288086,351.5075988769531,67.16112518310547,236.6907958984375
9278,75.53289031982422,365.0048828125,77.58048248291016,254.97889709472656
9279,68.35601806640625,360.6628723144531,78.8931884765625,247.08770751953125
9280,46.83663558959961,348.642822265625,64.92465972900389,229.513916015625
9281,47.73421478271485,349.5777893066406,59.27741241455078,233.3061828613281
9282,63.46049118041992,363.8717041015625,70.45597839355469,249.55604553222656
9283,65.7119140625,360.4459533691406,71.97437286376953,242.0986785888672
9284,53.6469955444336,345.8416442871094,65.45572662353516,227.68136596679688
9285,50.557838439941406,348.3062438964844,55.65719223022461,226.2041015625
9286,76.50526428222656,365.8463745117188,69.10587310791016,247.18495178222656
9287,60.04596328735352,356.79205322265625,62.26933288574219,244.1107482910156
9288,50.15766906738281,339.39031982421875,51.00849533081055,235.17987060546875
9289,60.64060592651367,346.42132568359375,52.63909149169922,241.11883544921875
9290,72.31283569335938,363.490234375,65.48564910888672,260.4765625
9291,69.62758636474611,359.8064270019531,65.53426361083984,251.91966247558597
9292,54.49595260620117,340.2467346191406,57.15315246582031,233.21267700195312
9293,57.94414138793945,342.0718078613281,55.574913024902344,232.8536529541016
9294,71.17216491699219,357.45404052734375,63.10333251953125,241.1898956298828
9295,73.70781707763672,358.27679443359375,68.76554107666016,235.14247131347656
9296,50.85702896118164,344.2185363769531,55.960121154785156,217.5275421142578
9297,48.09324264526367,346.8701171875,56.60712432861328,216.91793823242188
9298,74.32490539550781,366.1006774902344,69.40132141113281,237.72674560546875
9299,61.18289184570313,359.3164978027344,66.88436889648439,226.802490234375
9300,45.486534118652344,342.17279052734375,51.872413635253906,211.09490966796875
9301,47.32656478881836,352.25555419921875,50.22685623168945,219.18431091308597
9302,64.34684753417969,365.943603515625,59.86457824707031,234.63385009765625
9303,59.83279037475586,363.8492431640625,62.594703674316406,232.7825927734375
9304,41.013614654541016,346.7840881347656,54.5913200378418,217.3667297363281
9305,52.13981628417969,348.42218017578125,53.499267578125,227.6888427734375
9306,67.32380676269531,362.18499755859375,62.5610466003418,248.60610961914062
9307,62.49933624267578,360.3150634765625,68.95253753662111,250.80517578125
9308,44.80213165283203,339.80169677734375,54.78953552246094,238.2839813232422
9309,47.04233169555664,339.91015625,53.4057731628418,244.91856384277344
9310,60.40125274658203,353.5682678222656,60.09271240234375,264.00326538085943
9311,53.3178825378418,354.9034118652344,61.11744689941406,257.23779296875
9312,37.73746109008789,340.74041748046875,57.96844863891602,239.1329498291016
9313,37.2774543762207,341.5594482421875,47.04794311523438,236.298095703125
9314,60.37881469726562,357.3567810058594,62.1309585571289,246.0517578125
9315,53.72553253173828,356.8518981933594,66.39818572998047,234.88815307617188
9316,42.56193161010742,347.9322509765625,61.21468353271485,213.97837829589844
9317,47.71925354003906,346.9710998535156,60.78833389282226,220.05197143554688
9318,72.03982543945312,367.66021728515625,72.20624542236328,236.44021606445312
9319,65.15840911865234,361.1266174316406,71.80233764648438,226.61175537109372
9320,51.48159408569336,341.6753845214844,61.88786315917969,210.16741943359372
9321,50.2549057006836,342.31866455078125,54.2809066772461,208.3311309814453
9322,69.76596069335939,360.11309814453125,72.70365142822266,233.3361053466797
9323,63.24357986450195,357.3979187011719,72.01925659179688,235.7146759033203
9324,44.5253791809082,342.23638916015625,53.90691757202149,215.2723846435547
9325,43.77739715576172,341.9895324707031,48.04649353027344,217.0563201904297
9326,55.85353469848633,355.251220703125,52.145423889160156,238.0932464599609
9327,51.93786239624024,357.2707824707031,55.81426620483398,240.1165313720703
9328,32.58013916015625,343.6089172363281,42.24216842651367,229.28952026367188
9329,35.88621139526367,347.7377624511719,38.59576797485352,241.9827423095703
9330,52.65966033935547,359.88494873046875,50.73922348022461,256.4449462890625
9331,50.92434692382813,357.3119201660156,53.517967224121094,252.8471527099609
9332,38.84073257446289,339.3529052734375,45.42108535766602,234.5291290283203
9333,42.55445098876953,347.2291564941406,46.77492904663086,236.7955017089844
9334,60.16564178466797,361.99053955078125,64.55815124511719,243.90505981445312
9335,51.53021240234375,360.9209289550781,63.71293640136719,233.9756164550781
9336,45.94654083251953,350.5314636230469,68.67951965332031,213.50714111328125
9337,53.72553253173828,351.7581481933594,64.20660400390625,213.7091064453125
9338,72.88877868652344,367.0880126953125,76.56697082519531,228.8295135498047
9339,75.3084945678711,356.025390625,81.77291107177734,222.0977020263672
9340,61.9495735168457,340.7478942871094,70.00718688964844,209.40447998046875
9341,62.31234359741211,341.705322265625,63.52220153808594,210.30953979492188
9342,77.60479736328125,361.1041564941406,72.64007568359375,232.225341796875
9343,75.46556854248047,356.5265197753906,75.20191192626953,222.77462768554688
9344,62.47689819335938,345.05999755859375,70.3998794555664,219.70416259765625
9345,55.35239028930664,341.4696960449219,58.65285110473633,218.2306365966797
9346,63.8644027709961,356.5527038574219,68.08487701416016,246.7922515869141
9347,60.775245666503906,354.08062744140625,62.72934341430664,247.1999053955078
9348,38.928619384765625,339.4445495605469,51.91916275024414,239.9501037597656
9349,39.10813522338867,343.74542236328125,46.33549118041992,241.644287109375
9350,51.532081604003906,362.77777099609375,56.893226623535156,254.5768585205078
9351,46.210205078125,362.9348449707031,59.7430305480957,249.1053924560547
9352,26.18303871154785,347.9079284667969,53.81528854370117,222.1444549560547
9353,37.077369689941406,353.55145263671875,57.3906364440918,233.6296844482422
9354,51.89111328125,367.8902282714844,66.86006164550781,249.63645935058597
9355,55.7768669128418,366.5513305664063,80.23768615722656,244.96905517578125
9356,45.032135009765625,348.92144775390625,71.3329849243164,226.99136352539062
9357,56.17703628540039,348.40533447265625,65.54735565185547,228.3190155029297
9358,81.12590789794922,362.57208251953125,76.815673828125,239.46392822265625
9359,85.6960678100586,360.7544860839844,86.21404266357422,232.97520446777344
9360,67.88666534423828,340.51416015625,71.40029907226562,212.0093231201172
9361,68.97123718261719,345.7088623046875,66.16443634033203,215.46124267578125
9362,92.44658660888672,357.710205078125,79.22042846679688,235.26776123046875
9363,81.85519409179688,353.2185974121094,80.83232879638672,233.1621856689453
9364,62.54608535766602,334.3358459472656,68.18772888183594,216.76646423339844
9365,57.01477432250977,335.4727783203125,67.87357330322266,223.01583862304688
9366,38.56210708618164,321.77349853515625,55.44214630126953,210.04586791992188
9367,36.24711227416992,322.7458801269531,49.98189163208008,217.9407958984375
9368,47.11899948120117,337.5858154296875,60.1431999206543,230.951904296875
9369,48.33446884155274,339.48193359375,62.27494430541992,226.9352569580078
9370,32.522171020507805,324.2306213378906,50.5466194152832,205.5243377685547
9371,38.78650283813477,328.17620849609375,52.68210220336914,205.66270446777344
9372,59.20635604858398,343.55096435546875,62.761131286621094,219.9379119873047
9373,63.82139205932617,333.5055847167969,65.07987213134766,216.74029541015625
9374,53.63764572143555,313.4671936035156,59.33538436889648,194.4916229248047
9375,50.14457702636719,318.7554016113281,51.47411346435547,194.2148742675781
9376,70.39613342285156,331.04473876953125,65.84654998779297,213.56137084960938
9377,72.90934753417969,334.2685241699219,71.62095642089844,210.4011688232422
9378,43.45389938354492,315.0491638183594,52.41282653808594,193.2985992431641
9379,44.28041458129883,317.6109924316406,48.42235565185547,201.4478454589844
9380,52.12298583984375,337.00238037109375,55.07937622070313,223.662841796875
9381,45.67913818359375,331.57952880859375,61.960792541503906,228.30780029296875
9382,34.24252319335937,322.5102844238281,52.85039520263672,224.96807861328125
9383,30.86539459228516,319.07330322265625,50.86450958251953,230.69386291503903
9384,36.3443489074707,337.6194763183594,62.50307846069336,248.8099365234375
9385,31.79662895202637,334.5527648925781,60.67800521850586,233.57357788085938
9386,16.545316696166992,321.78472900390625,56.130287170410156,219.35821533203125
9387,15.475706100463867,320.5917053222656,48.28397750854492,216.10450744628903
9388,49.77806854248047,339.388427734375,63.337074279785156,225.04661560058597
9389,50.28669357299805,329.5450134277344,60.68922805786133,214.5449676513672
9390,33.61048126220703,315.7298278808594,44.47301864624024,195.15359497070312
9391,39.29887008666992,314.41339111328125,35.93856811523437,192.5767974853516
9392,69.41254425048828,332.099365234375,51.661109924316406,216.01849365234372
9393,65.12661743164061,330.1957702636719,58.39666748046875,210.2590484619141
9394,47.4368896484375,312.4162902832031,52.37542724609375,197.67428588867188
9395,49.54619598388672,312.943603515625,44.64131546020508,204.63796997070312
9396,64.85360717773439,334.0516052246094,54.01724624633789,220.2258758544922
9397,56.57720565795898,330.2780456542969,55.34117126464844,224.31732177734372
9398,41.59890747070313,318.93865966796875,48.72528839111328,213.8418731689453
9399,40.33108139038086,321.2760925292969,48.61682891845703,223.13552856445312
9400,51.28898620605469,342.4925537109375,57.91421890258789,246.65948486328125
9401,34.620254516601555,335.22967529296875,55.83483505249024,236.92453002929688
9402,16.268564224243164,324.4849548339844,45.00034713745117,223.7226867675781
9403,16.80337142944336,331.3439025878906,44.2037467956543,229.90847778320312
9404,32.286556243896484,341.781982421875,57.42803192138672,242.0706329345703
9405,30.66343879699707,343.4686584472656,64.16359710693361,238.3643951416016
9406,24.02885627746582,322.0876770019531,55.52068328857422,220.1660461425781
9407,36.88289260864258,323.86785888671875,55.04945755004883,219.3096008300781
9408,53.58528518676758,335.6260986328125,59.67571258544922,233.52870178222656
9409,59.07545852661133,340.09527587890625,67.76885986328125,222.17062377929688
9410,43.88398742675781,322.0614929199219,56.57533645629883,200.8943328857422
9411,54.71473693847656,318.29541015625,50.367103576660156,204.31634521484372
9412,63.3239860534668,335.1810607910156,63.43805313110352,219.05528259277344
9413,60.13759231567383,338.14306640625,63.22113800048828,212.4207000732422
9414,51.46850204467773,325.677978515625,61.59054183959961,204.671630859375
9415,52.09680557250977,326.6466064453125,65.51369476318361,208.97625732421875
9416,70.7813491821289,345.3872375488281,76.25843048095703,226.6285858154297
9417,61.64477157592773,334.81829833984375,75.80963897705078,224.0929412841797
9418,42.63486099243164,317.95880126953125,57.57014846801758,205.79360961914062
9419,52.91958618164063,324.50738525390625,62.94812774658203,221.1720733642578
9420,63.3165054321289,343.27044677734375,67.61177825927734,238.34194946289062
9421,53.03926086425781,341.23968505859375,71.43022155761719,240.4063720703125
9422,31.460039138793945,326.0145568847656,57.652427673339844,219.67237854003903
9423,28.75609016418457,327.4057922363281,55.94329452514648,223.05697631835938
9424,40.08424758911133,341.9166259765625,66.71046447753906,233.10235595703125
9425,38.99967575073242,346.15765380859375,70.67849731445312,224.8409118652344
9426,27.93705177307129,329.3243713378906,58.677162170410156,214.2196044921875
9427,42.24591064453125,332.8511047363281,54.35009765625,217.7238922119141
9428,66.76469421386719,340.2635803222656,69.75848388671875,232.71714782714844
9429,64.0570068359375,340.1850280761719,70.76451873779297,230.75369262695312
9430,57.18680953979492,320.4720153808594,58.5761833190918,214.1597595214844
9431,49.75936889648438,317.4689025878906,48.007225036621094,212.96673583984372
9432,69.58831787109375,334.6761779785156,55.77499771118164,234.91619873046875
9433,59.10537719726562,332.2340087890625,57.73844528198242,225.704833984375
9434,46.041908264160156,316.59375,43.96813201904297,211.9158172607422
9435,48.1998291015625,313.8374328613281,39.5849723815918,209.2978973388672
9436,69.77157592773439,331.770263671875,63.23235702514648,229.15301513671875
9437,69.85011291503906,328.15753173828125,64.28327178955078,224.5230255126953
9438,48.83561325073242,310.8679504394531,54.64928817749024,204.4434967041016
9439,49.26944351196289,318.55718994140625,49.88091659545898,210.5320587158203
9440,61.97014236450195,334.4330749511719,63.10894012451172,227.4326629638672
9441,50.59710693359375,332.41351318359375,67.95211029052734,223.1654357910156
9442,30.461484909057614,323.01141357421875,64.69465637207031,212.40200805664062
9443,36.856712341308594,323.647216796875,61.07817459106445,210.3562774658203
9444,49.04504776000977,347.77703857421875,78.7005844116211,233.73439025878903
9445,42.12249374389648,341.7782287597656,76.43046569824219,227.28306579589844
9446,26.56450843811035,318.882568359375,66.25419616699219,213.0190887451172
9447,34.717491149902344,315.8794250488281,60.04596328735352,213.22853088378903
9448,56.44256973266602,328.2061462402344,72.24925994873047,231.88314819335938
9449,59.8720588684082,325.1431579589844,70.7345962524414,229.79627990722656
9450,48.80569458007813,311.07366943359375,54.032203674316406,207.97396850585938
9451,53.71992111206055,313.0782470703125,48.82252502441406,213.7670745849609
9452,76.48095703125,326.8036804199219,60.0422248840332,232.91909790039062
9453,69.55840301513672,325.78643798828125,67.63796234130861,228.47984313964844
9454,52.30624008178711,315.13519287109375,59.78417205810547,219.11886596679688
9455,44.658145904541016,313.08197021484375,50.74483108520508,218.7822723388672
9456,65.38467407226561,333.1614990234375,64.05513763427734,244.21359252929688
9457,62.74804306030274,332.1068420410156,71.84909057617188,244.9952392578125
9458,43.1883659362793,313.8860778808594,58.5761833190918,226.9689178466797
9459,43.412757873535156,314.2974548339844,50.12775039672852,223.8311462402344
9460,56.96615600585938,330.84649658203125,62.001930236816406,235.1892242431641
9461,47.032981872558594,334.51910400390625,64.77320098876953,226.4116668701172
9462,18.482585906982425,319.8736572265625,53.83398818969727,205.8609161376953
9463,21.60540199279785,326.4259338378906,46.062477111816406,210.3525390625
9464,43.87276458740234,342.2793884277344,68.93944549560547,232.75454711914062
9465,38.603248596191406,339.12664794921875,72.5596694946289,224.24627685546875
9466,32.84754180908203,325.35260009765625,62.60031509399414,212.3907928466797
9467,33.924633026123054,321.7398681640625,54.15936279296875,211.7138671875
9468,59.5205078125,339.235107421875,60.91736221313477,223.6591033935547
9469,60.10019302368164,332.24896240234375,56.85956954956055,221.82281494140625
9470,45.1256332397461,317.12481689453125,48.24283981323242,208.0525054931641
9471,51.1805305480957,314.6153564453125,48.37373733520508,211.6390686035156
9472,67.90162658691406,332.0245666503906,58.17975234985352,228.04226684570312
9473,65.59036254882811,330.36407470703125,60.476051330566406,227.1521759033203
9474,48.9814682006836,307.9844970703125,50.51295852661133,214.6459503173828
9475,49.894004821777344,306.2005615234375,46.64590072631836,215.8053131103516
9476,67.87918090820311,327.81719970703125,55.30002975463867,238.10260009765625
9477,66.19248962402344,319.4622497558594,58.69211959838867,234.6805877685547
9478,49.79676818847656,309.7908630371094,52.77185821533203,224.41456604003903
9479,44.67310333251953,316.2048034667969,52.09867477416992,223.0308074951172
9480,63.55212020874024,337.29034423828125,67.60803985595703,240.1969451904297
9481,56.81282043457031,337.0210876464844,70.78695678710938,234.92742919921875
9482,27.86599540710449,323.789306640625,55.516944885253906,210.3824615478516
9483,26.684186935424805,322.2297668457031,52.59982299804688,211.2725524902344
9484,39.27642822265625,340.05413818359375,67.28640747070311,223.7039794921875
9485,36.108734130859375,333.142822265625,68.38967895507811,216.3775177001953
9486,15.931973457336426,320.4608154296875,60.01604461669922,196.0997772216797
9487,24.21211242675781,329.6647033691406,57.8656005859375,194.27096557617188
9488,47.50420761108398,340.38323974609375,64.98637390136719,213.6698303222656
9489,53.74984359741211,336.6658020019531,66.19809722900389,220.88784790039062
9490,42.459083557128906,322.2447509765625,59.24188613891602,209.084716796875
9491,47.68746566772461,320.7786865234375,49.89961624145508,209.49610900878903
9492,61.83550643920898,340.40570068359375,56.30606460571289,226.17605590820312
9493,61.596153259277344,334.04412841796875,62.26372528076172,227.99365234375
9494,45.48466491699219,319.2565612792969,47.12086868286133,213.56512451171875
9495,45.72027587890625,322.4878234863281,44.74603271484375,221.48995971679688
9496,66.65249633789061,333.2362976074219,48.75146484375,236.71136474609372
9497,71.03192138671875,329.16729736328125,61.79623794555664,235.1817321777344
9498,53.88821792602539,317.0462646484375,55.79743576049805,224.0218811035156
9499,53.12154006958008,314.9257507324219,50.15392684936523,221.7255859375
9500,72.62511444091797,334.4068908691406,64.06635284423828,235.6417388916016
9501,66.64501953125,331.3663635253906,67.06201934814453,227.1933135986328
9502,43.54739379882813,321.93060302734375,58.2470703125,209.03610229492188
9503,42.77323532104492,327.9779968261719,56.65387344360352,207.1474456787109
9504,55.37295913696289,337.33148193359375,69.22367858886719,221.0112609863281
9505,45.660438537597656,344.4522705078125,73.95091247558594,218.2549591064453
9506,33.206573486328125,328.7222595214844,63.9578971862793,201.44036865234372
9507,38.10583877563477,324.88885498046875,60.21426010131836,204.1031646728516
9508,53.49552917480469,339.3921813964844,63.72602462768555,216.4560546875
9509,52.98690414428711,339.20892333984375,65.10978698730469,222.96722412109372
9510,30.19595146179199,323.93890380859375,50.37458419799805,200.8531951904297
9511,37.07362747192383,322.2821350097656,48.63179016113281,212.32720947265625
9512,47.97917556762695,339.4894104003906,61.07817459106445,234.1383056640625
9513,49.68831253051758,337.7167053222656,61.29508972167969,234.5235137939453
9514,37.724369049072266,325.0272216796875,53.078529357910156,222.5894927978516
9515,41.71110534667969,326.7737731933594,49.69018173217773,223.2813720703125
9516,59.1390380859375,341.3780822753906,61.10435485839844,242.665283203125
9517,59.95059585571289,336.57977294921875,73.64797973632812,242.665283203125
9518,42.59746170043945,328.1425476074219,60.049705505371094,227.5747833251953
9519,49.284400939941406,324.645751953125,51.34321594238281,225.6599578857422
9520,57.06713485717773,334.9940490722656,59.03619003295898,237.8408050537109
9521,50.21937561035156,331.1419677734375,58.59114456176758,232.1561584472656
9522,35.487911224365234,319.78387451171875,48.62430953979492,211.36231994628903
9523,35.050342559814446,326.8934326171875,50.11652755737305,214.2457733154297
9524,53.15519714355469,345.832275390625,66.87502288818361,231.4642791748047
9525,51.79387283325195,345.0319519042969,67.22283172607422,228.89122009277344
9526,33.782516479492195,327.2412414550781,56.20134735107422,207.9066467285156
9527,40.65271377563477,326.5306701660156,52.97007369995117,210.29270935058597
9528,59.41579055786133,337.6867980957031,60.13572311401367,224.343505859375
9529,50.619544982910156,331.7178955078125,59.88888931274414,223.8274078369141
9530,42.29452896118164,316.664794921875,50.61019515991211,209.69058227539062
9531,39.28764724731445,315.9654541015625,42.36745834350586,219.3021240234375
9532,66.64127349853516,335.1585998535156,60.1245002746582,242.34364318847656
9533,59.29611206054688,331.0185546875,60.19556045532226,235.47344970703125
9534,39.257728576660156,315.8943786621094,49.4433479309082,221.1122283935547
9535,47.61266708374024,318.8601379394531,52.34925079345703,217.4433898925781
9536,68.39529418945311,335.6747131347656,70.03524017333984,241.5208740234375
9537,60.05531311035156,330.6669921875,71.733154296875,233.5399169921875
9538,41.123939514160156,315.6251220703125,57.0390853881836,219.3058624267578
9539,43.158447265625,307.5020446777344,52.92893600463867,213.3668975830078
9540,59.8309211730957,325.9322814941406,58.74821853637695,223.2140655517578
9541,50.4288101196289,324.2829895019531,62.31234359741211,224.2200927734375
9542,29.63870620727539,310.9988708496094,49.51066589355469,205.38595581054688
9543,40.98556518554688,333.72998046875,53.605857849121094,216.86932373046875
9544,60.59759902954102,349.4525146484375,66.02980041503906,237.74169921875
9545,61.88786315917969,349.2580261230469,69.91555786132811,235.13873291015625
9546,57.975929260253906,334.38446044921875,63.42683410644531,215.3209991455078
9547,54.99897003173828,337.16693115234375,56.60151672363281,219.6106719970703
9548,78.30602264404297,348.7269592285156,68.46821594238281,234.0878143310547
9549,72.82707214355469,346.2735900878906,75.0093002319336,232.7863311767578
9550,61.49517440795898,328.5090637207031,61.62420272827149,219.45733642578125
9551,66.62258148193361,332.55938720703125,59.69815444946289,227.2475433349609
9552,73.97148132324219,347.9453430175781,63.84944152832031,236.3766326904297
9553,67.99886322021484,346.7298583984375,68.40090179443361,242.77560424804688
