,T7,F8,Cz,P4
2000,49.73880004882813,355.2530822753906,69.96044158935547,256.5926513671875
2001,38.01795196533203,351.4084777832031,63.58016967773438,242.4446258544922
2002,54.61188888549805,359.3108825683594,73.85741424560547,254.9134521484375
2003,60.16938018798828,363.4135437011719,78.89879608154297,259.64068603515625
2004,48.84870147705078,355.5522766113281,73.58065795898438,250.13011169433597
2005,39.48025512695313,341.7109069824219,59.26432418823242,234.70677185058597
2006,57.17745971679688,356.2890625,65.73435211181639,248.27513122558597
2007,67.86983489990234,368.1744384765625,75.970458984375,261.21893310546875
2008,47.41632080078125,355.5560302734375,67.48088836669922,247.5346221923828
2009,44.60391616821289,345.32366943359375,63.26975631713867,247.35885620117188
2010,56.31541442871094,353.472900390625,63.40065383911133,251.2203063964844
2011,70.5008544921875,367.2880859375,70.33816528320311,269.29150390625
2012,53.671302795410156,350.0583801269531,66.78152465820311,258.44952392578125
2013,45.18921279907226,338.3076171875,53.759193420410156,245.5094757080078
2014,61.48021697998047,346.18011474609375,62.40584182739258,266.0115966796875
2015,74.00888061523438,358.82843017578125,70.14743041992189,273.17352294921875
2016,61.06134796142578,343.8426513671875,66.86380004882811,259.48922729492193
2017,48.59626007080078,338.85736083984375,61.20159149169922,249.690673828125
2018,58.06942749023438,345.09552001953125,57.87682342529297,256.310302734375
2019,73.05520629882812,359.90179443359375,66.36639404296875,269.549560546875
2020,54.94287109375,348.6446838378906,67.69406127929689,251.59054565429688
2021,44.58708572387695,338.5245361328125,55.8871955871582,239.2638397216797
2022,61.91030502319336,350.948486328125,62.4320182800293,254.4927062988281
2023,69.274169921875,363.6416931152344,73.8050537109375,263.92098999023443
2024,50.32783508300781,348.4090881347656,65.65581512451172,250.5545959472656
2025,42.51144409179688,342.4327087402344,62.65267562866211,241.4367218017578
2026,46.6440315246582,354.53131103515625,68.681396484375,259.0740966796875
2027,57.30648803710938,363.8922729492188,75.46556854248047,268.25927734375
2028,65.23507690429689,361.79791259765625,78.2181396484375,264.1678466796875
2029,52.20900344848633,340.4131774902344,65.01255035400389,245.0083312988281
2030,68.54862976074219,349.400146484375,72.74292755126953,261.17218017578125
2031,80.70703887939453,360.1935119628906,82.60504150390625,271.29608154296875
2032,63.23796844482422,344.77764892578125,72.27543640136719,254.1112365722656
2033,59.90571594238281,338.80126953125,66.8563232421875,247.06527709960938
2034,75.8638687133789,348.6409606933594,69.02172088623047,268.74920654296875
2035,79.45417785644531,358.5030822753906,75.35711669921875,274.17581176757807
2036,59.771080017089844,345.3984680175781,67.99324798583984,256.3514404296875
2037,52.14916610717773,337.099609375,61.54940414428711,251.06321716308597
2038,65.85589599609375,349.29168701171875,67.79877471923828,262.33154296875
2039,65.35848999023439,354.2283630371094,70.49524688720703,264.7138671875
2040,49.45269775390625,344.64300537109375,67.46592712402344,249.2418975830078
2041,40.04684829711914,338.3150939941406,51.0103645324707,242.22210693359372
2042,58.697731018066406,352.27239990234375,58.23211288452149,253.15382385253903
2043,69.26668548583984,356.80889892578125,67.68657684326172,263.434814453125
2044,49.95010375976562,351.0681457519531,59.23814392089844,246.556640625
2045,52.88592529296875,341.3967590332031,55.9881706237793,241.65737915039062
2046,67.22470092773439,352.90069580078125,60.91361999511719,254.8891448974609
2047,74.779296875,362.1756591796875,73.08699798583984,265.96298217773443
2048,63.47358322143555,352.0629577636719,74.22018432617188,253.33334350585938
2049,51.86493301391602,343.19940185546875,60.853782653808594,243.3365936279297
2050,62.30299377441406,353.29339599609375,67.10689544677734,257.4434814453125
2051,81.00623321533203,370.9307556152344,81.2885971069336,273.8990478515625
2052,63.7278938293457,345.73504638671875,74.8260498046875,258.40090942382807
2053,58.7164306640625,343.02362060546875,68.92822265625,252.3721923828125
2054,68.44390869140625,351.8198547363281,73.20293426513672,258.39715576171875
2055,74.68954467773438,364.44952392578125,75.87322235107422,265.52166748046875
2056,60.31710815429688,347.4292297363281,70.78695678710938,245.52442932128903
2057,52.05940628051758,336.007568359375,54.27155685424805,248.0488586425781
2058,56.12467956542969,346.0491943359375,57.843162536621094,256.07467651367193
2059,74.356689453125,358.29736328125,73.3226089477539,273.67465209960943
2060,50.959877014160156,338.3487548828125,66.45241546630861,257.86984252929693
2061,41.06784057617188,338.9396667480469,50.11652755737305,238.504638671875
2062,56.14337921142578,350.4136657714844,55.786216735839844,255.19955444335938
2063,65.78858184814453,358.4544372558594,67.68283843994139,262.43624877929693
2064,49.84912490844727,346.40447998046875,61.48956680297852,246.3472137451172
2065,48.218528747558594,340.8843994140625,62.3310432434082,239.03196716308597
2066,65.25377655029297,356.8276062011719,63.927978515625,248.26577758789062
2067,80.53126525878906,373.09991455078125,81.1689224243164,261.7294311523437
2068,69.03107452392578,354.9800720214844,86.58429718017578,254.05514526367188
2069,62.55730819702149,343.3452453613281,71.93136596679688,246.5192413330078
2070,70.42979431152344,354.7594299316406,69.72856140136719,250.01231384277344
2071,78.69497680664062,362.8114318847656,85.9896469116211,266.05648803710943
2072,68.92635345458984,345.8771667480469,79.72905731201172,250.13946533203125
2073,60.06279373168945,336.4937438964844,72.24551391601562,242.0014495849609
2074,70.94963836669922,346.87945556640625,69.58271026611328,248.40789794921875
2075,77.29251098632812,356.43115234375,79.37751007080078,260.57003784179693
2076,59.40082931518555,344.0221862792969,69.92678070068361,247.54771423339844
2077,52.45583724975586,334.8968200683594,63.9167594909668,241.1711883544922
2078,56.719322204589844,342.451416015625,63.72602462768555,251.62794494628903
2079,67.72959136962889,353.00543212890625,64.39920806884766,266.55389404296875
2080,46.44207763671875,346.41571044921875,62.19640731811523,251.5531463623047
2081,34.99050521850586,338.8723449707031,48.59439086914063,237.69308471679688
2082,52.79616928100586,353.0989074707031,57.91796112060547,252.9630889892578
2083,61.76070785522461,364.60284423828125,65.88768768310547,269.21295166015625
2084,51.28898620605469,350.0172424316406,63.59512710571289,249.2044982910156
2085,42.96771240234375,343.7528991699219,60.44613265991211,239.21896362304688
2086,64.42351531982422,351.958251953125,70.6074447631836,246.95681762695312
2087,78.12651062011719,367.8528137207031,85.85501098632812,256.41500854492193
2088,71.72380065917969,349.9573974609375,86.04200744628906,245.0606842041016
2089,64.69278717041016,333.5130615234375,76.7969741821289,231.96356201171875
2090,81.05110931396484,344.01470947265625,82.8967514038086,246.37338256835938
2091,89.64166259765625,352.2686462402344,90.77671813964844,249.21945190429688
2092,79.30084228515625,336.62091064453125,84.14588165283203,238.9571685791016
2093,61.87664413452149,324.7504577636719,72.70552825927734,232.2290802001953
2094,67.11624145507811,336.3778076171875,78.94367980957031,252.10665893554688
2095,72.81584930419922,344.3774719238281,79.86369323730469,258.30368041992193
2096,59.00065994262695,340.9554443359375,73.57691955566406,247.495361328125
2097,42.26086807250977,324.87762451171875,57.60007095336914,243.8414764404297
2098,52.18656539916992,340.3682861328125,56.85956954956055,254.17108154296875
2099,61.4166374206543,354.6098327636719,62.24876403808594,260.10629272460943
2100,44.90123748779297,338.19915771484375,54.67546844482422,243.32162475585938
2101,40.46197891235352,330.8801574707031,53.04487228393555,232.8536529541016
2102,54.2210693359375,344.92724609375,58.63228225708008,244.29400634765625
2103,73.676025390625,360.0588684082031,77.8142318725586,256.9498291015625
2104,53.671302795410156,344.69537353515625,71.50502014160156,241.99771118164062
2105,42.735836029052734,344.6803894042969,71.0113525390625,230.77052307128903
2106,58.12926483154297,358.8882751464844,76.0751724243164,241.6050109863281
2107,64.86856842041016,369.86114501953125,87.15650177001953,250.13946533203125
2108,61.42411804199219,356.5059509277344,83.78311157226562,242.3492584228516
2109,52.89340591430664,346.1239929199219,81.2698974609375,234.67498779296875
2110,63.63813781738281,357.3474426269531,83.99254608154297,246.134033203125
2111,74.70449829101562,364.7599182128906,92.74391174316406,265.22247314453125
2112,72.1277084350586,348.58111572265625,93.79108428955078,258.83474731445307
2113,56.30419540405274,333.0829772949219,69.2274169921875,252.0804748535156
2114,62.67324447631836,337.2118225097656,73.11691284179688,262.54098510742193
2115,63.09959030151367,350.4510803222656,74.74376678466797,272.40682983398443
2116,47.11151885986328,340.8731689453125,64.01025390625,256.5384521484375
2117,36.3443489074707,330.7978820800781,51.06646347045898,242.237060546875
2118,43.39405822753906,343.63323974609375,52.15851593017578,247.78707885742188
2119,59.311073303222656,351.3822937011719,57.0802230834961,250.3675994873047
2120,49.7032699584961,344.7701721191406,56.53419876098633,237.6631622314453
2121,31.89760589599609,337.18939208984375,50.13896942138672,222.2622528076172
2122,46.54679489135742,349.1495666503906,53.72179412841797,237.1021728515625
2123,57.46356201171875,358.5142822265625,67.29389190673828,244.4810028076172
2124,55.7880859375,357.04449462890625,68.77488708496094,241.2646789550781
2125,36.40044784545898,346.6662902832031,59.10350799560547,233.9718780517578
2126,54.40806579589844,350.88116455078125,61.26143264770508,245.69647216796875
2127,73.6161880493164,365.4929504394531,75.7535400390625,261.0225830078125
2128,59.21757507324219,353.2896423339844,68.33731842041016,249.13717651367188
2129,47.15266036987305,340.84326171875,59.20822525024414,237.7828369140625
2130,57.399986267089844,352.06671142578125,69.60514831542969,255.75680541992188
2131,79.80198669433594,355.7093505859375,82.05901336669922,275.7652587890625
2132,61.19598388671875,340.31219482421875,76.05647277832031,264.35482788085943
2133,44.75164413452149,327.6638488769531,63.25853729248047,254.8966217041016
2134,60.623779296875,341.6398620605469,68.0418701171875,270.8847045898437
2135,70.79630279541016,346.79718017578125,76.24346923828125,277.94937133789057
2136,66.20745086669922,342.0587158203125,77.07373046875,262.85137939453125
2137,41.07158279418945,331.6356201171875,63.40065383911133,238.06333923339844
2138,63.92985153198242,345.832275390625,72.1370620727539,253.1426086425781
2139,74.955078125,358.8022766113281,83.68961334228516,261.84909057617193
2140,63.17438888549805,351.13922119140625,80.57427215576172,245.9246063232422
2141,46.79362869262695,336.4339294433594,64.91905212402344,228.7509765625
2142,55.87036514282226,352.22003173828125,58.5163459777832,234.7123870849609
2143,73.74334716796875,370.3361206054688,80.21150207519531,255.9774475097656
2144,57.16062927246094,353.1213684082031,72.45494842529297,238.47097778320312
2145,42.98640823364258,345.7313232421875,57.4654312133789,229.83929443359372
2146,53.90317916870117,355.1446533203125,60.4723129272461,245.7824859619141
2147,65.81475830078125,365.2348937988281,68.40090179443361,262.82894897460943
2148,49.15724563598633,355.57098388671875,64.25334930419922,255.4613494873047
2149,36.89037322998047,345.96319580078125,60.00108337402344,248.10870361328125
2150,49.26570129394531,352.2686462402344,63.60634994506836,268.3378295898437
2151,63.3763427734375,366.6111755371094,77.75438690185547,282.3026123046875
2152,48.27462768554688,353.7758483886719,69.73230743408203,270.44711303710943
2153,47.0142822265625,337.8401184082031,66.61322784423828,261.744384765625
2154,60.9940299987793,352.05548095703125,67.07697296142578,268.79034423828125
2155,73.76204681396484,361.41644287109375,77.48511505126953,271.61770629882807
2156,69.78279113769531,359.142578125,87.91195678710938,262.9598388671875
2157,52.99438095092773,338.9546203613281,67.40608978271484,245.69273376464844
2158,71.61908721923828,350.48846435546875,78.47992706298828,255.19955444335938
2159,75.9237060546875,361.2705993652344,89.39669799804688,261.42276000976557
2160,61.13614273071289,348.9700622558594,82.30958557128906,246.86705017089844
2161,47.62388610839844,338.10565185546875,74.784912109375,231.1632232666016
2162,59.71498107910156,346.06414794921875,71.35542297363281,241.31704711914062
2163,77.37104797363281,364.30364990234375,82.31707000732422,249.91880798339844
2164,60.56393814086914,354.14984130859375,75.34215545654297,241.7807922363281
2165,43.58853530883789,335.9851379394531,62.85462951660156,224.72311401367188
2166,60.32832717895508,354.0899963378906,71.27688598632812,249.7953948974609
2167,67.31446075439453,356.16937255859375,74.63905334472656,262.44000244140625
2168,61.46525573730469,341.5014953613281,68.38594055175781,257.63796997070307
2169,56.57346725463867,337.3240051269531,58.44902801513672,257.81375122070307
2170,53.77228164672852,340.6749572753906,56.96428680419922,273.60360717773443
2171,68.71318054199219,352.26116943359375,74.10050964355469,290.571533203125
2172,56.22565460205078,344.7439880371094,75.28231811523438,282.5419616699219
2173,38.90617752075195,328.9466552734375,61.2876091003418,267.343017578125
2174,54.28838729858398,339.6278076171875,62.20388412475586,273.51010131835943
2175,60.46296310424805,355.0848083496094,75.47305297851562,285.900390625
2176,53.60024642944336,342.0699462890625,69.34709167480469,264.83352661132807
2177,38.43121337890625,329.98260498046875,59.89262771606445,247.72349548339844
2178,55.724510192871094,349.8825988769531,69.33587646484375,259.34335327148443
2179,66.09151458740234,357.1978454589844,78.76790618896484,257.0732421875
2180,52.60917282104492,347.6162109375,75.2299575805664,241.20111083984372
2181,37.93380355834961,340.0504150390625,64.45904541015625,222.389404296875
2182,53.92561721801758,353.484130859375,67.13681030273439,240.76353454589844
2183,63.82513427734375,369.0982055664063,76.63616180419922,248.1722869873047
2184,54.07895278930664,352.4967956542969,71.99868774414062,244.2566070556641
2185,38.46861267089844,343.6706237792969,55.30377197265625,235.41921997070312
2186,56.69314193725586,352.17889404296875,70.49150085449219,252.42828369140625
2187,66.95169067382811,358.12908935546875,72.3203125,271.26617431640625
2188,52.94202423095703,345.6490478515625,63.0528450012207,261.47509765625
2189,43.88772583007813,336.8752136230469,49.723838806152344,257.75765991210943
2190,57.863731384277344,346.9542541503906,56.64639282226562,275.41744995117193
2191,66.19622802734375,356.00482177734375,63.96912002563477,289.3410949707031
2192,47.526649475097656,346.7373352050781,57.54771041870117,280.32046508789057
2193,33.73763656616211,334.657470703125,49.58920288085938,266.66607666015625
2194,50.70556259155274,346.5877380371094,56.77355194091797,279.61737060546875
2195,58.19284439086914,354.0525817871094,65.37158203125,283.7013244628906
2196,48.69349670410156,352.6314392089844,73.8237533569336,279.09378051757807
2197,30.89157295227051,333.28118896484375,56.95306777954102,251.12680053710938
2198,45.81751251220703,343.6444396972656,62.12534713745117,265.41696166992193
2199,63.79895401000977,360.2234191894531,80.99687957763672,273.00894165039057
2200,56.46500778198242,350.2752990722656,77.59357452392578,255.2780914306641
2201,43.2182846069336,335.9851379394531,69.13018035888672,238.9721221923828
2202,66.90680694580078,347.34320068359375,73.86863708496094,250.0684051513672
2203,79.49531555175781,359.6250305175781,84.48246765136719,256.28787231445307
2204,57.28778839111328,349.3889465332031,77.80674743652344,246.9867401123047
2205,49.71823120117188,338.1954040527344,66.4337158203125,241.94908142089844
2206,60.02165603637695,355.5223693847656,67.15550994873047,255.7156524658203
2207,69.62197875976561,366.82061767578125,78.9997787475586,272.00665283203125
2208,58.03202819824219,352.5229797363281,81.20257568359375,265.3720703125
2209,51.37874603271485,342.2831115722656,69.87815856933594,258.90579223632807
2210,65.07425689697266,353.0989074707031,66.83762359619139,276.4608764648437
2211,76.1125717163086,369.3394165039063,80.51256561279297,291.087646484375
2212,61.35118865966797,348.1678466796875,75.68061828613281,268.08724975585943
2213,46.70199966430664,339.74932861328125,65.79232025146484,264.13043212890625
2214,54.35009765625,351.6609191894531,64.46091461181639,274.64328002929693
2215,60.52841186523438,365.0946350097656,75.56842041015625,289.8572082519531
2216,46.75809860229492,351.2270812988281,70.67288970947266,271.65512084960943
2217,34.08731842041016,337.33709716796875,63.3651237487793,261.052490234375
2218,50.32596206665039,351.85540771484375,64.89474487304689,273.2333374023437
2219,68.55049896240234,364.4962463378906,78.27236938476562,285.49273681640625
2220,50.43067932128906,352.73052978515625,65.84468078613281,262.4661865234375
2221,47.44623947143555,342.6552429199219,65.86338043212889,255.04995727539062
2222,56.14151000976562,354.1105651855469,63.85879135131836,261.93136596679693
2223,74.32115936279297,365.0534973144531,78.45935821533203,267.07373046875
2224,55.61792373657226,345.26568603515625,68.82911682128906,253.56895446777344
2225,44.40570068359375,337.6288146972656,54.9727897644043,243.37399291992188
2226,56.49305725097656,349.7947082519531,53.64512634277344,256.54217529296875
2227,72.88504028320312,362.79833984375,73.171142578125,277.60528564453125
2228,55.135475158691406,350.6436767578125,69.34522247314453,268.0423583984375
2229,43.0294189453125,338.6797180175781,52.44835662841797,255.25564575195312
2230,54.11822128295898,348.7699890136719,56.60338592529297,269.51589965820307
2231,67.34624481201172,358.6059265136719,67.41917419433594,278.40188598632807
2232,56.38833999633789,341.1368408203125,61.31940078735352,264.43338012695307
2233,46.53744506835938,333.9188232421875,56.54728698730469,249.0249786376953
2234,63.93172073364258,346.54473876953125,57.47104263305664,264.6727294921875
2235,75.84329986572266,353.209228515625,67.02275085449219,274.92752075195307
2236,65.09482574462889,343.2012634277344,60.57516098022461,260.34939575195307
2237,50.5877571105957,325.6312255859375,55.39913940429688,252.1216125488281
2238,56.05923080444336,343.0479431152344,61.76444625854492,266.991455078125
2239,67.92593383789061,359.3838195800781,75.57215881347656,275.61941528320307
2240,59.19326782226562,349.2187805175781,73.11878204345703,267.08868408203125
2241,42.53201293945313,339.8727722167969,65.85589599609375,251.2651824951172
2242,59.06610870361328,349.1925964355469,69.49855804443361,260.13247680664057
2243,78.93994140625,370.9139404296875,87.4837417602539,283.8060607910156
2244,53.47869873046875,342.9320068359375,71.56298828125,258.79360961914057
2245,43.410888671875,337.54278564453125,62.594703674316406,251.392333984375
2246,57.85064315795898,352.5323181152344,68.03626251220703,265.40573120117193
2247,67.96333312988281,359.70172119140625,71.49192810058594,279.75198364257807
2248,57.31957626342773,355.1726989746094,70.26149749755861,266.14248657226557
2249,32.976566314697266,337.5839538574219,51.21044921875,247.8431701660156
2250,42.73396682739258,350.0452880859375,54.28838729858398,262.589599609375
2251,59.49619674682617,363.8043823242188,67.06014251708984,282.69903564453125
2252,51.934120178222656,352.64825439453125,61.53257369995117,268.92498779296875
2253,41.372642517089844,339.9288635253906,52.04444885253906,256.11209106445307
2254,47.88006973266602,349.1103210449219,58.65285110473633,269.889892578125
2255,59.630836486816406,361.85589599609375,66.39444732666016,277.52676391601557
2256,51.7807846069336,350.20611572265625,68.82164001464844,267.94140625
2257,43.95691299438477,338.1187438964844,65.85589599609375,254.6871795654297
2258,53.10470962524414,353.4598083496094,61.68217086791992,261.28811645507807
2259,68.64773559570311,366.1006774902344,78.65009307861328,272.0590209960937
2260,53.78163146972656,349.4244689941406,65.08547973632811,257.2078857421875
2261,43.67642211914063,338.7844543457031,61.52509307861328,241.0440368652344
2262,58.68463897705078,349.80218505859375,70.19044494628906,255.9774475097656
2263,66.39257049560547,357.1697998046875,77.08307647705078,274.51614379882807
2264,45.32571792602539,348.42218017578125,65.0780029296875,258.37100219726557
2265,34.42390823364258,340.51226806640625,50.60458755493164,245.43093872070312
2266,42.76762771606445,351.7394714355469,49.03756713867188,259.010498046875
2267,62.48064041137695,359.9186096191406,62.5610466003418,276.40853881835943
2268,56.83338928222656,357.6784362792969,63.86252975463867,265.73858642578125
2269,50.22872543334961,345.2843933105469,60.81077194213867,256.37387084960943
2270,66.19809722900389,353.8936462402344,62.53860855102539,264.09304809570307
2271,80.25638580322266,359.2379455566406,74.02758026123047,272.16372680664057
2272,57.51031112670898,349.1551818847656,63.91862869262695,258.52432250976557
2273,47.66315460205078,337.04913330078125,57.28030776977539,248.25082397460938
2274,57.92544174194336,344.81317138671875,57.9647102355957,261.57608032226557
2275,65.88394927978516,357.10247802734375,74.10237884521484,275.76901245117193
2276,45.34441757202149,345.0674743652344,64.07944488525389,262.61203002929693
2277,39.16984176635742,343.0030517578125,61.58119201660156,248.3368377685547
2278,46.32052993774414,351.3131103515625,63.11455154418945,254.2271728515625
2279,57.15127944946289,367.38720703125,74.48011016845703,264.55303955078125
2280,44.1513900756836,360.4609069824219,74.00140380859375,254.39547729492188
2281,38.17502975463867,347.3301086425781,63.67927551269531,247.319580078125
2282,51.03280639648438,357.5026550292969,71.76119995117188,264.81857299804693
2283,76.2509536743164,371.3028869628906,85.70354461669922,279.31817626953125
2284,61.32126998901367,363.725830078125,80.10118103027344,263.45724487304693
2285,54.17432022094727,351.6160583496094,71.16655731201172,259.36581420898443
2286,53.67317581176758,359.7578125,69.75287628173828,263.24032592773443
2287,69.78840637207031,368.3072204589844,76.58940887451172,273.622314453125
2288,56.16020584106445,355.2213134765625,75.037353515625,259.64254760742193
2289,42.56941223144531,341.61181640625,63.2716293334961,246.9942169189453
2290,58.77813720703125,350.83441162109375,63.39878463745117,253.5540008544922
2291,73.14309692382812,368.0192565917969,75.45248413085938,275.653076171875
2292,64.81807708740234,359.6867370605469,79.62621307373047,263.4759521484375
2293,54.54083251953125,343.4742736816406,69.06098937988281,253.34829711914062
2294,54.58197021484375,351.107421875,63.2940673828125,261.0375366210937
2295,69.90434265136719,367.046875,76.42859649658203,268.16952514648443
2296,54.47351455688477,354.73138427734375,74.61100769042969,253.3557891845703
2297,45.41921615600586,345.0412902832031,67.90536499023439,240.4680938720703
2298,67.23030853271484,357.63726806640625,70.66541290283203,254.84800720214844
2299,72.35397338867188,361.71002197265625,78.429443359375,256.50479125976557
2300,59.66449356079102,356.623779296875,76.63429260253906,249.8253173828125
2301,46.84037780761719,343.219970703125,59.69628143310547,238.47845458984372
2302,57.71226501464844,351.283203125,64.03083038330078,258.34481811523443
2303,71.60599517822266,364.48876953125,76.35753631591797,279.11248779296875
2304,61.94583129882813,349.7049560546875,66.8095703125,261.96502685546875
2305,45.80816650390625,343.66876220703125,59.692543029785156,251.5643768310547
2306,56.298583984375,348.12298583984375,58.757568359375,261.03378295898443
2307,64.17481231689453,363.0788269042969,69.62197875976561,272.56765747070307
2308,54.56700897216797,350.8531188964844,65.55296325683594,258.99929809570307
2309,40.60222244262695,335.766357421875,46.15784454345703,239.9145812988281
2310,51.51899337768555,344.4765625,56.06483840942383,250.43492126464844
2311,64.00651550292969,364.1521911621094,69.42375946044922,267.50009155273443
2312,49.99311447143555,351.63848876953125,68.09983825683594,251.86355590820312
2313,41.46987915039063,344.9814758300781,55.836708068847656,234.67498779296875
2314,46.98249435424805,353.19427490234375,63.48106002807617,252.67138671875
2315,63.73350524902344,369.2347106933594,77.21397399902344,265.5889892578125
2316,52.48014450073242,361.6165466308594,66.31590270996094,246.7174530029297
2317,41.37638473510742,347.91729736328125,57.34014511108398,235.90914916992188
2318,51.94160079956055,355.4793701171875,63.70919418334961,243.9237518310547
2319,76.96527099609375,370.76806640625,82.36381530761719,263.0421142578125
2320,62.77609252929688,362.9367065429688,76.14436340332031,252.0542907714844
2321,52.8354377746582,349.3683776855469,65.80728149414061,247.05030822753903
2322,60.816383361816406,353.478515625,60.90053176879883,255.65582275390625
2323,69.26481628417969,368.06787109375,70.00718688964844,274.69192504882807
2324,56.44818115234375,356.4966125488281,67.58373260498047,263.7377319335937
2325,37.29989242553711,344.3194885253906,53.71244430541992,257.96707153320307
2326,43.37348937988281,350.52398681640625,50.918739318847656,269.05215454101557
2327,52.93267440795898,359.9447937011719,61.7794075012207,279.1685791015625
2328,40.59848403930664,347.8050842285156,60.795814514160156,270.2601318359375
2329,29.10951042175293,339.3865661621094,54.13879013061523,260.97769165039057
2330,46.80671691894531,353.15313720703125,58.207801818847656,263.24032592773443
2331,62.17022705078125,369.687255859375,69.56961822509766,270.08810424804693
2332,49.66400146484375,356.79205322265625,68.37659454345703,250.22547912597656
2333,44.39822387695313,345.6957702636719,61.86542510986328,236.1148376464844
2334,57.16250228881836,358.9237976074219,61.828025817871094,242.32681274414062
2335,74.19400787353516,368.7896728515625,76.38745880126953,247.98529052734372
2336,62.21510696411133,363.2620849609375,76.07330322265625,241.3282623291016
2337,46.58606338500977,350.59130859375,65.47068786621094,232.3786773681641
2338,59.982383728027344,361.6875915527344,74.43522644042969,250.6406097412109
2339,78.79782104492188,375.4803466796875,83.13797760009766,267.4926147460937
2340,58.52008438110352,363.55755615234375,75.81151580810547,256.12332153320307
2341,50.32596206665039,352.6744384765625,65.47068786621094,252.918212890625
2342,55.03449630737305,358.0972900390625,65.07425689697266,266.80819702148443
2343,67.09567260742189,366.9945068359375,73.22724151611328,275.73159790039057
2344,57.652427673339844,354.1068115234375,76.65299224853516,269.56076049804693
2345,44.96294784545898,341.0994567871094,67.42291259765625,259.99783325195307
2346,53.84894943237305,347.5806884765625,67.60990905761719,273.1473388671875
2347,63.47919082641602,357.61859130859375,77.07933807373047,281.06845092773443
2348,48.841224670410156,348.19403076171875,73.13374328613281,270.85476684570307
2349,33.54129409790039,343.1339416503906,62.632102966308594,253.7222900390625
2350,47.74169158935547,356.9566345214844,65.17149353027344,263.51333618164057
2351,57.17372131347656,367.3423156738281,68.79171752929689,268.86141967773443
2352,47.5247802734375,356.3133544921875,72.01925659179688,254.12994384765625
2353,39.2446403503418,346.4848937988281,57.45608139038086,234.51416015625
2354,42.3188362121582,358.17584228515625,57.83007431030274,240.73362731933597
2355,66.60948944091797,375.5065307617188,74.61848449707031,248.2620391845703
2356,64.10001373291016,364.6832580566406,76.68290710449219,236.0101318359375
2357,53.35154342651367,351.8628845214844,67.88666534423828,226.78379821777344
2358,60.894920349121094,359.51470947265625,71.05809783935547,240.9318389892578
2359,69.22367858886719,370.5025329589844,75.74419403076172,253.0304107666016
2360,60.41995239257813,357.9439697265625,69.96604919433594,251.5755920410156
2361,34.184555053710945,337.18377685546875,56.36777114868164,238.37001037597656
2362,55.35987091064453,358.1720886230469,69.54718017578125,261.75186157226557
2363,70.09507751464844,369.4927673339844,80.68833923339844,280.630859375
2364,46.79549789428711,357.4203796386719,72.5129165649414,269.25408935546875
2365,32.157527923583984,343.18255615234375,61.7794075012207,259.30221557617193
2366,46.59728240966797,360.75634765625,65.63898468017578,271.99169921875
2367,53.86016845703125,370.180908203125,74.36042785644531,284.7223205566406
2368,45.37059783935547,357.8691711425781,78.47431945800781,267.75439453125
2369,31.98549461364746,341.7688903808594,56.24435424804688,249.4064483642578
2370,51.7097282409668,364.1559143066406,66.50663757324219,266.25469970703125
2371,62.95934677124024,373.08306884765625,83.60546112060547,276.06072998046875
2372,51.74712753295898,359.4586181640625,73.96400451660156,257.06201171875
2373,40.77425765991211,343.4855041503906,66.03541564941406,240.48678588867188
2374,53.01495361328125,361.4033508300781,65.90825653076172,244.6006774902344
2375,67.30885314941406,373.8048706054688,75.26548767089844,250.1955718994141
2376,59.11098861694336,363.3219299316406,75.32158660888672,234.7348175048828
2377,49.00577926635742,353.9609680175781,70.12312316894531,226.0769500732422
2378,59.66823196411133,368.8831481933594,69.56587982177734,238.8038330078125
2379,64.948974609375,379.25390625,76.36875915527344,250.44613647460938
2380,54.69416809082031,367.6676940917969,73.59001159667969,246.1826477050781
2381,46.87777709960938,361.5379943847656,67.84552764892578,240.2511749267578
2382,56.39956283569336,363.69964599609375,68.94131469726561,248.37049865722656
2383,64.42164611816406,373.5692443847656,79.31205749511719,266.65859985351557
2384,54.27529907226562,360.5581359863281,73.80692291259766,253.9429473876953
2385,39.9776611328125,350.75213623046875,60.97906875610352,248.5200958251953
2386,58.73325729370117,357.3231201171875,64.44221496582031,259.56027221679693
2387,70.28581237792969,370.3753967285156,77.95447540283203,275.40997314453125
2388,54.70164489746094,357.457763671875,75.8638687133789,263.0570678710937
2389,39.656028747558594,345.5499267578125,61.04638671875,248.47146606445312
2390,61.42224502563477,364.3765869140625,66.62631988525389,266.31826782226557
2391,70.81687927246094,376.8267211914063,73.73960876464844,274.83029174804693
2392,59.440101623535156,362.5290832519531,73.84806823730469,262.82147216796875
2393,50.05295181274414,347.0271911621094,66.63379669189453,244.103271484375
2394,55.516944885253906,355.7972412109375,62.10103988647461,246.84461975097656
2395,64.71710205078125,370.86529541015625,73.76578521728516,253.9766082763672
2396,53.86391067504883,361.2388000488281,75.56468200683594,241.7807922363281
2397,38.27226638793945,351.3467712402344,65.76988220214844,229.0651397705078
2398,45.03774642944336,356.93792724609375,58.67528915405274,240.5915069580078
2399,59.63457489013672,375.8655700683594,77.82731628417969,267.39910888671875
2400,42.43103408813477,367.469482421875,67.72584533691406,255.65582275390625
2401,37.09045791625977,355.15771484375,61.06134796142578,246.7361602783203
2402,52.76437759399414,362.0840148925781,62.62836456298828,265.44686889648443
2403,64.82555389404297,374.0068359375,75.24678802490234,283.2488098144531
2404,50.61019515991211,364.7879638671875,73.86302185058594,273.23709106445307
2405,39.90286254882813,353.8001403808594,60.17873001098633,266.322021484375
2406,57.083961486816406,359.7652893066406,64.64791107177734,282.15301513671875
2407,66.54965209960939,365.416259765625,78.11903381347656,293.1707458496094
2408,52.18095397949219,356.1974182128906,70.44475555419922,275.5296630859375
2409,33.25706100463867,343.4742736816406,59.01562118530274,258.35601806640625
2410,48.81878280639648,355.9094543457031,70.58686828613281,272.8892822265625
2411,54.48847198486328,366.0894470214844,78.92311096191406,278.08026123046875
2412,48.21479034423828,360.520751953125,72.99910736083984,261.24508666992193
2413,35.21489715576172,342.6627197265625,64.21781921386719,247.30274963378903
2414,52.39599990844727,348.6839599609375,64.80124664306639,253.8587951660156
2415,69.59205627441406,365.1806640625,76.2004623413086,257.86422729492193
2416,57.6729965209961,354.05072021484375,71.5031509399414,247.6617889404297
2417,47.414451599121094,340.8451232910156,62.12347793579102,229.1829376220703
2418,58.13674545288086,355.9618225097656,65.36222839355469,243.52919006347656
2419,63.00983428955078,367.8584289550781,74.59978485107422,258.60098266601557
2420,54.12757110595703,357.9252624511719,79.60002899169922,256.31216430664057
2421,37.38404083251953,347.4946594238281,60.152549743652344,246.7305450439453
2422,42.455345153808594,357.74200439453125,60.87435150146485,265.53103637695307
2423,58.07690811157226,366.72149658203125,70.67288970947266,281.54901123046875
2424,44.89001846313477,363.8118591308594,63.85131072998047,278.32147216796875
2425,31.10100746154785,345.0525207519531,49.04878616333008,266.914794921875
2426,41.93549728393555,346.7167663574219,48.15121078491211,269.4093017578125
2427,61.73452758789063,361.4968566894531,69.31904602050781,285.906005859375
2428,52.97194290161133,348.0930480957031,69.83141326904297,275.75592041015625
2429,40.56669616699219,333.3017578125,57.67673873901367,256.57022094726557
2430,51.19549179077149,338.83306884765625,58.23772048950195,259.53970336914057
2431,71.9668960571289,361.1415710449219,70.99826049804688,276.38046264648443
2432,53.17389678955078,344.90667724609375,68.92261505126953,259.8837890625
2433,44.38887405395508,337.2398681640625,66.03541564941406,246.07980346679688
2434,56.60712432861328,351.8179931640625,66.73477172851561,253.74659729003903
2435,71.43209075927734,362.6861572265625,80.01142120361328,257.86422729492193
2436,68.60846710205078,351.9862976074219,81.986083984375,246.7006378173828
2437,61.72330856323242,344.26715087890625,74.27815246582031,235.5819091796875
2438,65.51556396484375,354.0432434082031,72.24364471435547,246.3490753173828
2439,70.14182281494139,356.9192199707031,74.57734680175781,261.44705200195307
2440,52.15290451049805,343.7472839355469,65.76614379882811,253.5035095214844
2441,40.48441696166992,339.41650390625,57.100791931152344,245.97134399414062
2442,46.9619255065918,339.981201171875,52.56055450439453,255.1715087890625
2443,54.60627746582031,356.4442443847656,62.1384391784668,266.32015991210943
2444,40.37596130371094,345.4788818359375,59.269935607910156,263.04400634765625
2445,31.351581573486328,339.4538879394531,56.79412078857422,254.6890563964844
2446,50.7467041015625,348.2800598144531,62.01128005981445,266.5220947265625
2447,64.40855407714844,358.49371337890625,79.697265625,279.16668701171875
2448,54.29212951660156,348.08184814453125,76.51461029052734,268.63888549804693
2449,36.64727783203125,329.9171447753906,66.39444732666016,248.6865234375
2450,44.93115997314453,341.96710205078125,65.5006103515625,249.7935333251953
2451,58.12178421020508,349.3459167480469,69.28912353515625,262.31845092773443
2452,44.96481704711914,345.4078063964844,65.23507690429689,246.4911956787109
2453,29.582609176635746,334.3190002441406,61.89534378051758,231.78216552734372
2454,56.43135070800781,350.0340576171875,74.43897247314453,247.1232452392578
2455,66.89933013916016,363.7819519042969,85.68859100341797,262.2548828125
2456,53.26365661621094,351.1597900390625,79.20359802246094,246.9811248779297
2457,47.754783630371094,337.2361145019531,63.847572326660156,236.0905303955078
2458,50.96361541748047,348.1828308105469,61.65972900390625,252.51991271972656
2459,63.76903533935547,363.5687561035156,74.56612396240234,271.14834594726557
2460,49.84538650512695,354.9557800292969,71.1628189086914,265.5010986328125
2461,29.616268157958984,339.0163269042969,57.69917678833008,255.0443420410156
2462,34.78854751586914,346.0660400390625,54.36318588256836,266.13690185546875
2463,50.728004455566406,357.0164489746094,66.51786041259766,278.19805908203125
2464,37.67575073242188,345.2582092285156,62.31047439575195,265.95736694335943
2465,17.267118453979492,332.1947326660156,49.131065368652344,253.7353820800781
2466,39.14179229736328,344.9403076171875,50.41011047363281,263.20480346679693
2467,44.06724166870117,359.08837890625,63.22674942016602,274.94436645507807
2468,40.00196838378906,349.4581298828125,63.04723358154297,261.3460693359375
2469,38.13949966430664,337.4118957519531,58.29008102416992,241.6068878173828
2470,47.39201354980469,344.24468994140625,57.18680953979492,257.10128784179693
2471,71.73127746582031,358.8677062988281,73.04024505615234,267.48324584960943
2472,56.62956619262695,350.5165100097656,70.71776580810547,255.0256500244141
2473,50.37271118164063,338.5787658691406,66.17005157470703,242.5830078125
2474,57.19802856445313,349.0317687988281,64.26270294189453,247.76275634765625
2475,70.08946228027344,357.31939697265625,70.81126403808594,258.9188842773437
2476,62.35535049438477,350.5576477050781,68.17463684082031,255.552978515625
2477,35.72352600097656,337.3819885253906,51.62931823730469,241.83128356933597
2478,46.77492904663086,347.22540283203125,54.1612319946289,263.15994262695307
2479,52.01078796386719,359.312744140625,59.5616455078125,274.05050659179693
2480,47.95673751831055,352.5996398925781,60.6125602722168,268.37335205078125
2481,27.69021987915039,334.5508728027344,41.20621871948242,250.99029541015625
2482,36.93151092529297,342.5318298339844,45.07327270507813,259.73043823242193
2483,60.24604797363281,361.6988220214844,59.67758178710938,272.47976684570307
2484,37.82908630371094,343.642578125,56.31167221069336,256.0877685546875
2485,28.83836936950684,333.713134765625,46.38597869873047,243.3721160888672
2486,47.11151885986328,342.5729675292969,50.49238967895508,250.02166748046875
2487,68.90017700195311,363.6473083496094,67.4490966796875,265.62451171875
2488,61.43159484863281,351.8890686035156,71.49940490722656,252.38902282714844
2489,50.31287384033203,335.89349365234375,58.29756164550781,241.50216674804688
2490,63.11081314086914,344.3194885253906,67.73332977294922,253.8139190673828
2491,77.77870178222656,357.17352294921875,82.21796417236328,265.02987670898443
2492,69.91742706298828,356.8780822753906,84.5142593383789,260.69906616210943
2493,60.53028106689453,343.5266418457031,77.40097045898438,249.1166076660156
2494,61.65599060058594,347.2066955566406,69.77531433105469,251.9813690185547
2495,67.45657348632811,358.3515930175781,75.63573455810547,264.28189086914057
2496,51.191749572753906,347.3263854980469,74.6558837890625,257.44537353515625
2497,39.8074951171875,338.7769775390625,59.311073303222656,244.5165252685547
2498,39.938392639160156,349.1103210449219,57.1905517578125,254.98077392578125
2499,53.37585067749024,358.7255859375,70.03336334228516,270.9351806640625
2500,44.998477935791016,350.57635498046875,62.99861526489258,263.56756591796875
2501,29.784563064575195,336.0879821777344,52.59421157836914,254.8012542724609
2502,37.04370880126953,342.1503601074219,53.77228164672852,263.3319702148437
2503,56.81282043457031,360.0382995605469,70.34004211425781,280.3372802734375
2504,48.40178680419922,354.593017578125,68.57480621337889,274.48809814453125
2505,37.41769790649414,341.6080627441406,65.93443298339844,259.90621948242193
2506,58.30503845214844,353.6206359863281,76.74274444580078,269.80572509765625
2507,75.16825103759766,362.4580078125,83.0257797241211,280.10916137695307
2508,73.38431549072266,352.6931457519531,88.9871826171875,264.18466186523443
2509,60.86687088012695,343.4368896484375,74.30432891845703,245.98257446289062
2510,76.14810180664062,351.1148986816406,79.82816314697266,248.27886962890625
2511,89.9146728515625,360.8536071777344,91.00298309326172,261.24884033203125
2512,77.65154266357422,351.77313232421875,97.06910705566406,254.7750701904297
2513,63.7765121459961,338.5937194824219,83.06317901611328,243.52171325683597
2514,64.29636383056639,347.21044921875,78.97920989990234,254.3262939453125
2515,70.75890350341797,363.1611022949219,89.85857391357422,275.7821044921875
2516,57.2915267944336,354.56683349609375,79.58132934570312,266.09576416015625
2517,38.820159912109375,337.2510986328125,61.77566909790039,254.1841735839844
2518,43.80170822143555,345.3928527832031,63.86627197265625,261.83975219726557
2519,63.02853393554688,359.88494873046875,77.0269775390625,280.7823486328125
2520,45.166770935058594,352.0685729980469,69.33774566650389,269.13253784179693
2521,32.36135482788086,340.2280578613281,60.20491027832031,256.82080078125
2522,46.2214241027832,341.9708557128906,60.47418212890625,261.63406372070307
2523,64.37115478515625,354.7164306640625,77.35234832763672,278.8226318359375
2524,53.94431686401367,346.765380859375,71.29371643066406,265.97982788085943
2525,43.90642547607422,333.6196594238281,60.80329513549805,253.37261962890625
2526,50.26051712036133,344.2521667480469,61.30818176269531,256.78338623046875
2527,66.86566925048828,365.4574279785156,75.80403137207031,266.63430786132807
2528,60.14507293701172,348.4259033203125,76.97087860107422,253.9298553466797
2529,42.975189208984375,346.1146545410156,73.86676025390625,242.0220184326172
2530,55.53003311157226,352.5622253417969,79.68605041503906,248.18911743164062
2531,75.74419403076172,360.19537353515625,90.1727294921875,258.97125244140625
2532,63.70919418334961,350.58758544921875,84.70499420166016,243.57032775878903
2533,52.50445556640625,338.78070068359375,72.4717788696289,227.98243713378903
2534,60.71353530883789,348.7325744628906,71.30119323730469,239.08245849609372
2535,64.64791107177734,361.5230407714844,70.459716796875,250.93045043945312
2536,51.6218376159668,347.8349914550781,63.806434631347656,242.81488037109372
2537,38.13576126098633,335.7252197265625,48.58877944946289,237.6986846923828
2538,38.820159912109375,343.07037353515625,51.31142807006836,253.3239898681641
2539,51.1992301940918,357.36053466796875,57.92731094360352,276.17477416992193
2540,39.8261947631836,344.4653625488281,57.403724670410156,264.73068237304693
2541,28.68877220153809,341.2303466796875,48.60374069213867,259.62197875976557
2542,33.281368255615234,350.004150390625,51.50216293334961,264.9251708984375
2543,49.280662536621094,363.50518798828125,58.99692153930664,273.46334838867193
2544,47.72860336303711,354.55560302734375,62.89763641357422,268.64260864257807
2545,33.034534454345696,341.5108337402344,56.109718322753906,253.3277282714844
2546,44.89376068115234,344.9814758300781,55.114906311035156,253.81765747070312
2547,71.75372314453125,364.5411376953125,69.37514495849611,266.4921875
2548,60.414344787597656,351.5636901855469,64.36741638183594,250.83322143554688
2549,49.81172561645508,337.8569641113281,60.66865539550781,234.4786376953125
2550,54.883033752441406,349.6451110839844,60.66117858886719,241.7303009033203
2551,69.84637451171875,355.8720397949219,69.48360443115234,248.3386993408203
2552,64.56937408447266,350.015380859375,73.75457000732422,236.87591552734372
2553,53.69748306274414,341.364990234375,63.97846984863281,227.9151153564453
2554,64.42351531982422,345.6097717285156,63.05097198486328,234.8189697265625
2555,75.3178482055664,361.17523193359375,72.0267333984375,248.6079864501953
2556,74.28937530517578,351.7170104980469,74.24449157714844,248.1292724609375
2557,55.38043975830078,341.97833251953125,65.72126007080078,236.3635406494141
2558,62.43014907836914,355.1876525878906,68.06617736816406,248.15171813964844
2559,66.32712554931639,362.6973571777344,77.41967010498047,264.64840698242193
2560,51.84623336791992,356.63873291015625,72.21372985839844,262.0491943359375
2561,34.04056930541992,342.6103515625,59.00814056396485,251.480224609375
2562,37.65331268310547,355.5279846191406,64.19164276123047,269.7384033203125
2563,52.3436393737793,364.19708251953125,74.09864044189453,285.741455078125
2564,45.70905685424805,357.5625,82.9846420288086,275.24728393554693
2565,36.871673583984375,348.467041015625,70.51207733154297,262.995361328125
2566,47.30599594116211,353.9871520996094,68.85530090332031,269.9291381835937
2567,65.706298828125,367.05810546875,77.67024230957031,276.5338134765625
2568,54.81945419311523,356.3171081542969,75.97606658935547,262.13894653320307
2569,49.54245376586914,341.09197998046875,63.61195755004883,242.0968170166016
2570,62.1608772277832,342.5168762207031,65.85964202880861,244.15750122070312
2571,73.82188415527344,359.2828369140625,79.50279235839844,251.91030883789062
2572,69.08717346191406,345.79302978515625,69.86507415771484,233.77554321289062
2573,53.0355224609375,334.3302307128906,57.50096130371094,219.8892822265625
2574,61.7681884765625,344.66357421875,64.08692932128906,231.6026611328125
2575,73.41797637939453,359.8999328613281,70.42605590820312,249.7823028564453
2576,55.877845764160156,360.1878967285156,65.29491424560547,252.748046875
2577,42.81063461303711,346.1969299316406,59.9131965637207,242.6465759277344
2578,50.346534729003906,360.42724609375,58.56683349609375,253.06219482421875
2579,57.69543838500977,371.3589782714844,74.36042785644531,268.70245361328125
2580,48.790733337402344,363.5313720703125,71.93323516845703,264.03134155273443
2581,34.197647094726555,349.3459167480469,62.6021842956543,255.3323211669922
2582,41.56898880004883,359.0584411621094,66.78713226318361,268.45562744140625
2583,62.66576385498047,377.9337158203125,84.58531951904297,289.473876953125
2584,52.141685485839844,366.6990661621094,86.69087982177734,283.4040222167969
2585,40.03189086914063,349.08038330078125,77.56926727294922,271.40267944335943
2586,48.35316467285156,353.6019287109375,76.34632110595703,271.43258666992193
2587,69.55465698242189,370.3978271484375,85.8194808959961,287.0204772949219
2588,63.58951950073242,357.9514465332031,84.64515686035156,268.75106811523443
2589,53.17389678955078,338.35809326171875,71.02818298339844,249.3185577392578
2590,67.30323791503906,342.27752685546875,71.4059066772461,251.15484619140625
2591,78.68749237060547,359.6269226074219,82.67797088623047,254.48336791992188
2592,72.56153869628906,342.99932861328125,71.34980773925781,236.81607055664062
2593,70.85614776611328,337.3109130859375,72.80089569091797,235.1144256591797
2594,73.77326965332031,344.76080322265625,66.62258148193361,235.33132934570312
2595,88.4112319946289,358.2917785644531,78.29480743408203,253.70545959472656
2596,87.80911254882812,354.5368957519531,82.86122131347656,257.10128784179693
2597,59.59530639648438,341.3088684082031,72.28852844238281,244.4005889892578
2598,65.02190399169922,351.75067138671875,74.22205352783203,265.4188232421875
2599,73.14496612548828,361.4669494628906,84.86206817626953,280.71875
2600,59.80847930908203,352.33782958984375,79.55889129638672,272.2965087890625
2601,38.685523986816406,343.7996520996094,63.64935684204102,260.800048828125
2602,43.603492736816406,346.3876647949219,63.79147338867188,269.7384033203125
2603,57.36632537841797,357.4877014160156,73.1300048828125,276.42910766601557
2604,44.976036071777344,355.1764221191406,77.01201629638672,268.6575927734375
2605,40.843448638916016,339.1060791015625,63.06219482421875,250.6611785888672
2606,54.89799118041992,345.0375671386719,66.18875122070311,261.99307250976557
2607,73.90415954589844,361.7287292480469,87.12471008300781,273.0482177734375
2608,63.11081314086914,352.8389892578125,81.98983001708984,260.72152709960943
2609,49.40781784057617,337.9953308105469,68.24195098876953,243.25991821289062
2610,64.22156524658203,343.52288818359375,72.36332702636719,249.8571014404297
2611,70.14556121826172,356.9192199707031,76.73526763916016,261.33486938476557
2612,58.59675216674805,346.3128662109375,69.71547698974611,251.70835876464844
2613,47.64632415771485,336.5816345214844,53.8508186340332,236.58419799804688
2614,54.13879013061523,342.6328125,55.09994506835938,249.6214904785156
2615,66.06533050537111,355.40081787109375,66.71233367919922,261.82479858398443
2616,52.37730026245117,348.39971923828125,62.05242156982422,252.73683166503903
2617,34.534236907958984,337.6288146972656,51.63679885864258,249.07546997070312
2618,39.4970817565918,344.6000061035156,49.93140411376953,253.10708618164062
2619,57.31770706176758,360.9358825683594,63.353904724121094,275.1874389648437
2620,50.21563720703125,349.6114501953125,66.95916748046875,257.83056640625
2621,30.16977310180664,333.9375305175781,53.57406616210938,242.6578063964844
2622,44.97229766845703,346.0735168457031,58.13674545288086,257.419189453125
2623,68.6346435546875,356.2796936035156,74.61100769042969,269.31954956054693
2624,59.13155746459961,347.7078552246094,75.21312713623047,259.37139892578125
2625,52.17908477783203,329.8647766113281,63.78399276733398,244.2360382080078
2626,60.36946487426758,335.5681457519531,67.01526641845703,254.38986206054688
2627,69.70051574707031,344.3157653808594,76.6230697631836,269.79452514648443
2628,57.31396865844727,331.5627136230469,70.42605590820312,254.63296508789062
2629,38.22925567626953,324.2923278808594,61.26704025268555,240.7504425048828
2630,47.799659729003906,332.4902038574219,57.87121200561523,246.79412841796875
2631,62.63584518432617,350.2696838378906,67.46405792236328,263.43667602539057
2632,53.33097457885742,342.9020690917969,65.06304168701172,248.78375244140625
2633,40.91450500488281,331.5103454589844,56.03866195678711,231.0641021728516
2634,61.35305786132813,340.2729187011719,53.56658554077149,246.67071533203125
2635,71.49566650390625,354.40228271484375,64.60677337646484,258.16717529296875
2636,54.29960632324219,347.4198913574219,58.63041305541992,248.3013153076172
2637,41.25109481811523,334.2703857421875,52.6951904296875,243.42074584960938
2638,47.85202026367188,341.26025390625,53.1477165222168,257.79690551757807
2639,55.08124542236328,355.8084716796875,66.36078643798828,273.61294555664057
2640,51.68541717529297,345.8902587890625,67.42291259765625,261.50689697265625
2641,40.8995475769043,333.6719970703125,57.52714157104492,253.75782775878903
2642,54.30708694458008,344.14373779296875,64.29636383056639,261.63406372070307
2643,64.46091461181639,351.9750671386719,69.95856475830078,266.9559326171875
2644,58.51821517944336,346.013671875,69.86881256103516,257.49771118164057
2645,45.27523040771485,329.37860107421875,58.42471694946289,247.94601440429688
2646,52.45209503173828,339.1285095214844,59.47562789916992,256.58517456054693
2647,70.89728546142578,344.84307861328125,69.26294708251953,270.35174560546875
2648,60.37694549560547,342.4757385253906,72.64381408691406,262.232421875
2649,51.146873474121094,326.8803405761719,61.7981071472168,248.62294006347656
2650,65.18271636962889,341.2415466308594,62.8714599609375,261.77243041992193
2651,75.08222961425781,352.551025390625,71.4059066772461,273.94955444335943
2652,65.64646148681639,348.0145263671875,72.90560913085938,264.47637939453125
2653,48.1063346862793,332.5874328613281,66.03541564941406,244.4679107666016
2654,51.83127212524414,335.27642822265625,64.11684417724611,246.24810791015625
2655,59.307334899902344,348.7587585449219,69.28538513183594,258.70944213867193
2656,44.88628005981445,340.4748840332031,65.50434875488281,252.4787750244141
2657,34.26870346069336,334.41998291015625,52.3735580444336,239.3180694580078
2658,43.80170822143555,342.30743408203125,53.779762268066406,250.48915100097656
2659,59.80847930908203,355.9655456542969,64.25896453857422,269.4205322265625
2660,58.7874870300293,349.9704895019531,69.04977416992189,262.25112915039057
2661,43.1883659362793,334.9173889160156,59.67384338378906,248.10308837890625
2662,61.85420608520508,337.3034362792969,60.92671203613281,255.56419372558597
2663,72.4493408203125,352.6856689453125,76.88860321044922,270.13485717773443
2664,61.596153259277344,341.7277526855469,68.65334320068361,260.7476806640625
2665,47.20501708984375,332.703369140625,58.33121871948242,243.4880523681641
2666,57.90487289428711,338.9789123535156,61.52509307861328,259.52099609375
2667,66.33460235595703,356.1039123535156,76.64176940917969,273.03701782226557
2668,57.31770706176758,349.0280456542969,68.45886993408203,263.3432006835937
2669,37.294281005859375,331.9179992675781,58.63788986206055,253.02853393554688
2670,42.28330993652344,335.5494384765625,55.93768310546875,252.7630157470703
2671,59.72246170043945,354.2489318847656,71.37599182128906,264.7606201171875
2672,58.02828598022461,341.7801208496094,72.32218170166016,255.05931091308597
2673,41.95419692993164,331.682373046875,61.94396209716797,239.06748962402344
2674,62.76674270629883,339.8914489746094,69.3975830078125,246.02745056152344
2675,66.8095703125,350.1051330566406,77.3673095703125,255.0293884277344
2676,60.65743637084961,351.2682189941406,76.21542358398438,253.3950500488281
2677,40.25254440307617,330.1377868652344,64.55441284179689,238.82066345214844
2678,48.40552520751953,338.7619934082031,62.81909942626953,248.56683349609372
2679,74.27067565917969,355.602783203125,75.3178482055664,264.1884155273437
2680,64.99945831298828,340.9760437011719,71.0057373046875,256.31591796875
2681,48.45040512084961,328.454833984375,57.059654235839844,241.87615966796875
2682,53.34967422485352,334.0983581542969,53.73862075805664,246.0349273681641
2683,76.25656127929688,348.53436279296875,67.91658020019531,259.02734375
2684,75.48988342285156,348.95697021484375,75.0186538696289,260.29891967773443
2685,51.90607070922852,330.2013854980469,60.72101593017578,239.7593688964844
2686,61.12118530273438,336.40960693359375,62.41893005371094,250.7285003662109
2687,72.75227355957031,355.34844970703125,77.78244018554688,261.4545288085937
2688,57.53087997436523,353.6056823730469,74.87653350830078,258.440185546875
2689,35.820762634277344,340.18316650390625,63.06219482421875,243.86578369140625
2690,37.46631622314453,343.4705505371094,59.93563842773438,246.057373046875
2691,61.92526245117188,360.95831298828125,70.47093200683594,266.11444091796875
2692,54.62871932983398,347.2441101074219,70.05954742431639,256.44308471679693
2693,42.05143356323242,336.611572265625,57.45608139038086,246.6894073486328
2694,53.97423553466797,338.54510498046875,52.88966369628906,251.95144653320312
2695,71.53680419921875,350.15374755859375,63.653099060058594,270.2432861328125
2696,58.93334197998047,344.4915466308594,65.33605194091797,263.0888671875
2697,49.91644287109375,328.1481628417969,54.733436584472656,249.03433227539062
2698,57.11575317382813,335.3661804199219,56.76794052124024,256.24859619140625
2699,74.49132537841797,350.6436767578125,70.97956085205078,270.01141357421875
2700,75.27670288085938,340.42999267578125,76.9447021484375,263.36187744140625
2701,58.91464233398438,332.1685791015625,68.34293365478516,241.62933349609372
2702,69.76035308837889,334.65185546875,69.68181610107422,252.04869079589844
2703,75.91996765136719,350.2509765625,79.25969696044922,266.92227172851557
2704,69.67807769775389,342.7375183105469,81.06980895996094,262.41195678710943
2705,49.202125549316406,325.86309814453125,61.84672546386719,242.8186187744141
2706,51.89859008789063,332.1087341308594,56.65948486328125,250.18621826171875
2707,67.14990234375,344.60748291015625,66.91055297851561,268.19384765625
2708,51.43110275268555,338.9490051269531,61.72704696655274,256.12142944335943
2709,44.093421936035156,327.52734375,59.29985427856445,246.59591674804688
2710,41.98785781860352,334.2629089355469,59.61774444580078,256.95169067382807
2711,50.64946365356445,353.96844482421875,72.32218170166016,266.86618041992193
2712,43.04998779296875,347.19549560546875,72.25486755371094,262.23617553710943
2713,40.33856201171875,335.69903564453125,63.35764694213867,244.43051147460938
2714,44.97977828979492,339.84283447265625,61.596153259277344,246.9100646972656
2715,64.93588256835939,354.922119140625,71.18525695800781,264.9139404296875
2716,56.08353805541992,348.6502990722656,67.65479278564453,254.4123077392578
2717,41.774681091308594,332.75946044921875,52.68770980834961,236.5467987060547
2718,47.92307662963867,338.0476989746094,49.08244705200195,244.1687164306641
2719,65.35475158691406,353.3251647949219,60.09645080566406,257.841796875
2720,63.7278938293457,348.6091613769531,69.99971008300781,254.3300323486328
2721,48.57382202148438,333.2269592285156,59.70002365112305,241.39370727539062
2722,66.43932342529297,343.7585144042969,62.572265625,255.9755859375
2723,84.11408996582031,356.3769226074219,77.87967681884766,275.26971435546875
2724,69.67807769775389,348.66900634765625,81.72429656982422,263.5638427734375
2725,58.55561447143555,331.24481201171875,70.01092529296875,251.39794921875
2726,59.82344055175781,336.1590270996094,68.48130798339844,255.5155792236328
2727,68.46260833740234,349.3010559082031,74.6371841430664,264.60726928710943
2728,57.73657608032226,339.5623474121094,71.60038757324219,252.2394256591797
2729,38.84634017944336,327.9537048339844,58.17414474487305,237.20501708984372
2730,45.24156951904297,336.6302795410156,60.04409408569336,252.2095031738281
2731,63.35016632080078,356.04034423828125,69.31156921386719,264.25570678710943
2732,60.78833389282226,347.375,78.39952087402344,263.01406860351557
2733,40.794830322265625,334.6855163574219,59.23627471923828,243.90318298339844
2734,51.1693115234375,340.61700439453125,62.68820190429688,254.3150634765625
2735,69.89498901367189,358.51617431640625,74.77555847167969,271.24560546875
2736,66.58892059326172,352.0050048828125,76.6230697631836,259.71548461914057
2737,60.6836166381836,332.62481689453125,74.45392608642578,244.2360382080078
2738,64.39360046386719,337.13140869140625,70.51207733154297,249.40457153320312
2739,84.46189880371094,352.45751953125,86.79185485839844,263.24221801757807
2740,76.46973419189453,345.2956237792969,86.23834991455078,251.2259063720703
2741,58.3461799621582,328.72412109375,72.39324188232422,235.69036865234372
2742,63.58203887939453,336.67889404296875,70.61679077148438,245.1223907470703
2743,85.57264709472656,347.8349914550781,77.49073028564453,259.85012817382807
2744,71.12915802001953,343.5154113769531,78.1302490234375,250.3432922363281
2745,53.81341934204102,329.6291809082031,61.35305786132813,243.1327667236328
2746,58.65285110473633,340.7740783691406,70.51581573486328,256.70486450195307
2747,69.54718017578125,356.4405212402344,82.79390716552734,268.52667236328125
2748,55.79556655883789,346.51483154296875,74.47262573242188,258.19332885742193
2749,43.95504379272461,335.601806640625,64.99198150634766,248.9894561767578
2750,45.03587341308594,334.80145263671875,53.83586120605469,245.06629943847656
2751,72.06787109375,357.10247802734375,80.38540649414062,273.63165283203125
2752,65.62028503417969,353.1867980957031,76.5445327758789,258.4027709960937
2753,53.8695182800293,337.5091552734375,70.10442352294922,246.82778930664062
2754,59.26619338989258,341.26025390625,60.54523849487305,243.48431396484372
2755,72.78219604492188,351.765625,68.88521575927734,255.66143798828125
2756,66.10646820068361,348.65777587890625,75.85265350341797,253.06593322753903
2757,52.69145202636719,337.961669921875,60.03661346435547,242.1080322265625
2758,61.20346450805664,338.48150634765625,61.72704696655274,245.56744384765625
2759,74.50628662109375,351.6871032714844,68.80294036865234,257.38552856445307
2760,66.05037689208984,348.05938720703125,70.14556121826172,253.9074249267578
2761,52.90462493896485,331.3831787109375,63.90740966796875,239.1460266113281
2762,60.42930221557617,341.66790771484375,62.57974624633789,244.83067321777344
2763,74.74938201904297,355.8271789550781,73.01780700683594,262.01553344726557
2764,61.27452087402344,345.591064453125,70.48963165283203,255.8895721435547
2765,46.13540649414063,335.83740234375,59.78229904174805,247.9684600830078
2766,42.49274444580078,338.42169189453125,55.09620666503906,250.43679809570312
2767,54.18741226196289,353.1007995605469,69.87255096435547,271.86642456054693
2768,48.05771255493164,348.87469482421875,66.60013580322266,262.89813232421875
2769,38.59202575683594,342.7898864746094,57.785194396972656,245.5973663330078
2770,46.11670684814453,341.4173278808594,51.90607070922852,252.1160125732422
2771,66.10646820068361,360.4122924804688,66.21866607666016,267.41592407226557
2772,66.97039031982422,348.2538757324219,65.94191741943361,258.077392578125
2773,50.12961959838867,330.48187255859375,59.10537719726562,237.21250915527344
2774,67.59495544433594,340.17193603515625,62.66576385498047,242.1379547119141
2775,81.08477020263672,356.9117431640625,72.03421020507812,256.9554443359375
2776,74.2145767211914,347.61810302734375,72.26982879638672,248.27513122558597
2777,53.68626403808594,331.0316467285156,60.75841522216797,231.65875244140625
2778,61.487693786621094,339.5249328613281,62.9537353515625,241.4161529541016
2779,72.2847900390625,359.29779052734375,71.77616119384766,262.4306640625
2780,55.54499435424805,351.97882080078125,68.33171081542969,253.5670928955078
2781,38.41999053955078,334.0235595703125,53.16641616821289,235.2453155517578
2782,44.04106140136719,342.6402893066406,57.87869262695313,248.5107421875
2783,68.36911010742189,363.53509521484375,68.91139984130861,270.03012084960943
2784,54.08643341064453,351.70953369140625,69.89125061035156,259.39010620117193
2785,35.521568298339844,338.92657470703125,55.3467788696289,242.74755859375
2786,49.052528381347656,345.1908874511719,59.389610290527344,252.59844970703125
2787,68.73561859130861,365.8239135742188,77.17283630371094,271.481201171875
2788,58.28634262084961,358.93878173828125,79.28214263916016,264.22579956054693
2789,45.24156951904297,343.373291015625,69.83889007568361,247.65431213378903
2790,55.73946762084961,345.3853759765625,64.34871673583984,253.60073852539062
2791,70.77012634277344,354.2489318847656,76.34632110595703,273.79620361328125
2792,60.52280044555664,341.8249816894531,69.59205627441406,258.91140747070307
2793,55.8067855834961,326.8990478515625,61.07256698608398,243.1626892089844
2794,61.0239486694336,331.6337585449219,61.15484237670898,251.28948974609372
2795,81.66819763183594,350.96905517578125,73.78448486328125,268.100341796875
2796,80.43402862548828,340.0447998046875,79.49905395507812,259.69677734375
2797,59.49432754516602,323.4134521484375,74.3379898071289,251.0202178955078
2798,68.92635345458984,336.19268798828125,73.20480346679688,261.39468383789057
2799,81.74299621582031,354.6977233886719,91.9604034423828,273.91961669921875
2800,68.94879913330078,342.40093994140625,86.563720703125,264.543701171875
2801,46.78988647460938,321.54351806640625,64.35993957519531,249.2100982666016
2802,52.44835662841797,331.25604248046875,66.34208679199219,253.8475799560547
2803,62.38527297973633,345.9089660644531,77.55804443359375,270.38168334960943
2804,55.17474365234375,344.7907409667969,73.71342468261719,257.64730834960943
2805,36.58370208740234,333.0137939453125,61.99632263183594,239.6097869873047
2806,53.94805526733398,342.1765441894531,65.73622131347656,247.0708770751953
2807,64.72270965576172,358.83404541015625,72.81584930419922,259.48733520507807
2808,64.22156524658203,356.0777587890625,77.61414337158203,249.6588897705078
2809,43.5511360168457,340.8974914550781,66.57395935058594,241.53208923339844
2810,59.76734161376953,349.3982849121094,66.10272979736328,256.12518310546875
2811,72.99536895751953,362.035400390625,76.15558624267578,274.1739501953125
2812,67.11250305175781,348.6764831542969,70.77760314941406,271.1371459960937
2813,46.382240295410156,326.3866882324219,56.45378875732422,252.0337219238281
2814,56.19947814941406,338.4067077636719,59.02497100830078,263.27774047851557
2815,71.37973022460938,350.9391174316406,67.41356658935547,269.48223876953125
2816,63.51098251342773,340.9685363769531,66.16818237304689,260.15866088867193
2817,60.23856735229492,333.2718200683594,61.919654846191406,250.19183349609372
2818,62.91259765625,337.5839538574219,61.36240768432617,250.56581115722656
2819,83.33992767333984,354.7762451171875,79.00725555419922,271.16891479492193
2820,66.13265228271484,348.6839599609375,78.80530548095703,254.6684875488281
2821,49.19464492797852,336.2301025390625,70.4728012084961,236.6982727050781
2822,56.8726577758789,342.4084167480469,69.99784088134766,248.56871032714844
2823,63.51845932006836,354.5892639160156,76.42672729492188,258.77490234375
2824,53.46561050415039,348.12298583984375,72.42503356933594,250.27410888671875
2825,39.56814193725586,335.35870361328125,64.53384399414061,226.76882934570312
2826,44.17943954467773,344.48779296875,65.76426696777344,233.32113647460938
2827,61.32687759399414,362.9554138183594,76.78201293945312,251.5307159423828
2828,56.8277816772461,352.9923400878906,78.67814636230469,247.1325836181641
2829,45.32758712768555,335.5494384765625,68.49813842773439,242.04258728027344
2830,58.15170288085938,344.84307861328125,72.54470825195312,258.8422241210937
2831,72.73731231689453,347.1655578613281,78.16577911376953,279.6771850585937
2832,62.14591598510742,339.147216796875,71.98372650146484,274.42263793945307
2833,52.13420486450195,319.74462890625,63.0640640258789,263.67791748046875
2834,57.97966766357422,326.2894287109375,58.81553649902344,265.970458984375
2835,68.27187347412111,343.6238708496094,65.36784362792969,275.00979614257807
2836,65.16775512695311,339.55487060546875,71.71819305419922,274.8489990234375
2837,50.14457702636719,325.81072998046875,60.29279708862305,259.9193115234375
2838,49.20960235595703,334.5994873046875,60.0833625793457,259.72109985351557
2839,68.59724426269531,353.35882568359375,76.84933471679688,271.9617919921875
2840,59.21757507324219,349.76104736328125,78.67066192626953,257.64169311523443
2841,38.15071868896485,336.8771057128906,63.00048446655274,240.0230407714844
2842,49.95384216308594,349.7984619140625,70.32695007324219,244.20425415039062
2843,59.22131729125977,361.97930908203125,79.362548828125,253.7185516357422
2844,57.05217361450195,363.2658386230469,87.88951873779297,245.68150329589844
2845,44.06724166870117,346.5821533203125,78.62952423095703,225.88247680664062
2846,53.4057731628418,348.1080322265625,75.93679809570312,235.71841430664062
2847,73.9939193725586,363.1199645996094,89.72955322265625,261.48257446289057
2848,67.17608642578125,348.2800598144531,81.08290100097656,264.29498291015625
2849,56.31541442871094,331.79083251953125,61.11931610107422,258.68515014648443
2850,58.52569580078125,333.1484069824219,59.61213684082031,270.06564331054693
2851,71.98933410644531,344.9403076171875,66.99469757080078,283.7424621582031
2852,61.68590927124024,338.5151672363281,66.65062713623047,284.10150146484375
2853,45.33132553100586,322.51214599609375,55.0943374633789,260.48028564453125
2854,56.218177795410156,327.71807861328125,49.0506591796875,268.49862670898443
2855,74.43897247314453,348.560546875,62.47315979003906,272.17123413085943
2856,67.81934356689453,344.48406982421875,66.89372253417969,270.46957397460943
2857,56.551025390625,333.208251953125,62.30486297607422,252.5367431640625
2858,54.94660949707031,340.38885498046875,63.374473571777344,251.81494140625
2859,76.49591064453125,355.83837890625,75.1476821899414,267.1410522460937
2860,59.09415817260742,349.7909851074219,73.83871459960938,253.0491180419922
2861,45.74645614624024,337.6849060058594,56.80347061157226,235.0414886474609
2862,47.23119735717773,345.250732421875,62.4320182800293,229.8916473388672
2863,65.47068786621094,366.7476806640625,78.08724212646484,242.1585235595703
2864,63.48106002807617,357.2969665527344,79.45978546142578,231.7615966796875
2865,53.0542221069336,347.26654052734375,72.61203002929688,216.15126037597656
2866,66.19622802734375,352.4762268066406,66.97599792480469,226.57061767578125
2867,77.99187469482422,366.6990661621094,76.61372375488281,253.70733642578125
2868,64.71148681640625,353.84503173828125,70.5887451171875,249.5784912109375
2869,47.19753646850586,332.09002685546875,56.80347061157226,243.9200134277344
2870,58.90716552734375,338.2683410644531,53.86764907836914,258.23260498046875
2871,70.84492492675781,352.74176025390625,68.31861877441406,280.11477661132807
2872,65.36971282958984,342.2214050292969,66.75908660888672,277.13034057617193
2873,44.684326171875,328.4174499511719,54.600669860839844,257.29763793945307
2874,45.29766845703125,333.64208984375,50.87947082519531,263.63677978515625
2875,57.9647102355957,352.0536193847656,68.82724761962889,277.6688842773437
2876,49.16846466064453,350.7259521484375,70.96273040771484,267.1373291015625
2877,34.4669189453125,338.0140380859375,65.42394256591797,241.5713653564453
2878,49.02634811401367,345.931396484375,70.96646881103516,248.45651245117188
2879,67.19852447509766,359.9261169433594,83.6634292602539,255.8839569091797
2880,58.97448348999024,356.0066833496094,86.13176727294922,246.1265563964844
2881,54.66985702514648,340.4337463378906,79.03343200683594,229.96270751953125
2882,63.64935684204102,347.70037841796875,81.47933197021484,232.54324340820312
2883,83.86725616455078,364.3130187988281,92.27642059326172,248.7257843017578
2884,67.86048126220703,344.7682800292969,84.84898376464844,243.32911682128903
2885,39.39236450195313,334.2816162109375,70.91785430908203,233.1266632080078
2886,60.36198425292969,337.3670349121094,66.30281829833984,249.866455078125
2887,66.89933013916016,350.2958679199219,76.30704498291016,258.49813842773443
2888,59.116600036621094,347.0384216308594,71.44517517089844,256.49728393554693
2889,47.82583999633789,336.4395446777344,61.9495735168457,252.6676483154297
2890,46.9619255065918,338.373046875,56.06296920776367,255.73809814453125
2891,61.92526245117188,350.96905517578125,61.73639678955078,271.97674560546875
2892,53.398292541503906,351.8367004394531,60.34141540527344,263.13937377929693
2893,43.70447158813477,332.6697082519531,55.37108993530274,243.77789306640625
2894,49.77058792114258,338.7283630371094,55.77125930786133,250.81265258789062
2895,64.06822967529297,354.4695739746094,67.84365844726561,264.45953369140625
2896,52.64657211303711,346.35400390625,71.74436950683594,252.08795166015625
2897,40.263763427734375,332.1498718261719,66.86006164550781,229.11001586914062
2898,52.35111999511719,344.4129943847656,69.79588317871094,233.4295959472656
2899,64.79750823974611,367.8958435058594,79.02595520019531,251.5456695556641
2900,56.43508911132813,359.47357177734375,84.83028411865234,243.05609130859372
2901,40.779869079589844,347.03466796875,76.32200622558594,232.01217651367188
2902,52.54559326171875,352.4350891113281,71.96876525878906,237.9473876953125
2903,74.356689453125,370.1360168457031,82.76959228515625,253.49041748046875
2904,66.24858856201172,360.7152099609375,84.93499755859375,248.9352264404297
2905,49.02634811401367,347.116943359375,73.47220611572266,233.49317932128903
2906,53.21129608154297,347.1206970214844,63.23235702514648,234.71612548828125
2907,64.95084381103516,364.9749755859375,80.5069580078125,253.66619873046875
2908,58.87724685668945,362.3570251464844,80.81362915039062,253.8681488037109
2909,51.02719497680664,343.4855041503906,66.15322113037111,234.772216796875
2910,55.66466903686523,347.63677978515625,63.11642074584961,239.5181579589844
2911,77.09803771972656,359.2379455566406,75.97793579101562,256.9610595703125
2912,63.38382339477539,347.4123840332031,71.3703842163086,252.5180511474609
2913,47.818359375,330.661376953125,59.17456817626953,239.24888610839844
2914,53.02056121826172,339.46136474609375,56.9904670715332,252.70504760742188
2915,66.67867279052734,358.8116149902344,63.41187286376953,270.31622314453125
2916,55.88158416748047,350.015380859375,63.47919082641602,258.9095458984375
2917,39.86359405517578,337.797119140625,56.49679946899414,242.01266479492188
2918,47.50420761108398,342.8572082519531,51.26094055175781,244.009765625
2919,66.08029174804689,366.9159851074219,70.82061767578125,261.71444702148443
2920,53.31227493286133,356.60882568359375,74.43335723876953,249.6944274902344
2921,43.56609344482422,342.80859375,65.96248626708984,237.8688507080078
2922,44.942378997802734,351.51507568359375,65.04621124267578,239.76124572753903
2923,65.91199493408203,365.86505126953125,79.41116333007812,259.37701416015625
2924,61.13614273071289,361.3135986328125,80.59297180175781,248.4677276611328
2925,45.25653076171875,349.488037109375,68.33731842041016,239.03944396972656
2926,53.69000244140625,350.8082275390625,69.48172760009766,245.77500915527344
2927,73.9565200805664,363.85675048828125,77.78804779052734,263.25155639648443
2928,70.32134246826172,350.52398681640625,77.09990692138672,254.72457885742188
2929,50.30539321899414,336.9705810546875,64.3094482421875,235.60247802734372
2930,59.120338439941406,335.6541442871094,62.44324111938477,238.19049072265625
2931,78.00308990478516,350.08642578125,76.052734375,261.84161376953125
2932,68.57106781005861,346.0884704589844,70.91785430908203,253.4380645751953
2933,56.27801513671875,332.0152282714844,62.73495101928711,250.9809417724609
2934,56.09476089477539,336.2001647949219,63.565208435058594,254.5226287841797
2935,70.11190795898439,350.7072448730469,68.63277435302734,266.6212158203125
2936,58.36861801147461,342.7898864746094,67.39112854003906,260.1773681640625
2937,39.52700424194336,334.3975524902344,59.54107666015625,247.6786193847656
2938,43.46511840820313,339.5997314453125,48.94968032836914,253.3819580078125
2939,58.43967819213867,357.8467102050781,64.45530700683594,268.6632080078125
2940,49.6135139465332,355.8197021484375,74.45205688476562,260.6710205078125
2941,41.41939163208008,341.1854553222656,68.09796905517578,246.24996948242188
2942,50.5073471069336,346.93743896484375,67.67536163330078,247.01290893554688
2943,70.38491821289062,363.0077819824219,84.46002960205078,266.55389404296875
2944,62.72934341430664,351.2944030761719,86.14298248291016,251.3960723876953
2945,57.022254943847656,335.0408020019531,76.87925720214844,246.9343719482422
2946,71.99681091308594,337.5876770019531,76.95404815673828,252.7349548339844
2947,82.83130645751953,350.7857971191406,81.14647674560547,274.91632080078125
2948,68.35414886474611,340.4337463378906,78.11341857910156,262.88504028320307
2949,55.769386291503906,325.48162841796875,69.76596069335939,257.7015380859375
2950,67.232177734375,329.2925720214844,71.08615112304688,269.41116333007807
2951,73.5526123046875,347.2066955566406,75.9106216430664,280.15216064453125
2952,65.41085052490234,343.9230651855469,74.51189422607422,274.71435546875
2953,45.9110107421875,324.5204772949219,62.08794784545898,253.99156188964844
2954,54.08269500732422,336.1403503417969,61.40728759765625,257.4659423828125
2955,64.68904876708984,349.97796630859375,73.76765441894531,274.96493530273443
2956,54.71473693847656,346.3839111328125,74.33238220214844,266.7857666015625
2957,44.89376068115234,333.4438781738281,65.50247955322266,239.83230590820312
2958,47.73982238769531,337.37823486328125,61.01459884643555,253.2660217285156
2959,70.78508758544922,358.4450988769531,75.62265014648438,271.42324829101557
2960,60.22734832763672,343.2685852050781,70.79069519042969,258.28497314453125
2961,51.84623336791992,336.2076416015625,68.56919860839844,247.80950927734372
2962,61.47273635864258,336.50311279296875,62.39462280273438,246.50054931640625
2963,72.59519958496094,354.9408264160156,75.95549774169922,265.95925903320307
2964,65.19393920898439,352.18450927734375,75.51792907714844,264.01824951171875
2965,46.14662551879883,329.2813720703125,64.91157531738281,247.46917724609372
2966,45.15181350708008,334.49853515625,56.10036849975586,257.73895263671875
2967,67.35559844970703,351.9040222167969,71.20582580566406,279.03768920898443
2968,58.95952224731445,342.9918212890625,68.95440673828125,272.42926025390625
2969,47.16013717651367,334.24420166015625,57.11388397216797,261.7182006835937
2970,56.66322326660156,341.6230163574219,52.75689697265625,267.93765258789057
2971,69.60701751708984,349.4543762207031,58.48268508911133,283.7349853515625
2972,60.3432846069336,341.31634521484375,68.77488708496094,272.11138916015625
2973,39.938392639160156,327.9312438964844,55.83857727050781,254.9115753173828
2974,46.90208435058594,327.0224609375,56.661354064941406,253.0902557373047
2975,64.80124664306639,349.7236633300781,74.01448822021484,271.8271484375
2976,55.30189895629883,342.7262878417969,68.763671875,258.7337646484375
2977,37.57477569580078,328.817626953125,59.26432418823242,238.23910522460938
2978,52.09306716918945,333.6757507324219,59.6607551574707,244.5445709228516
2979,62.22445678710938,354.86602783203125,72.76910400390625,260.7084350585937
2980,55.62727355957031,350.9540710449219,76.18737030029297,253.83822631835938
2981,48.91415023803711,337.74102783203125,62.88454818725586,240.4082489013672
2982,49.51627731323242,341.6753845214844,58.05633544921875,246.36964416503903
2983,71.5854263305664,351.85540771484375,64.9078369140625,269.28775024414057
2984,69.57709503173828,345.30682373046875,71.20582580566406,266.12753295898443
2985,57.18680953979492,332.714599609375,60.37881469726562,247.4766540527344
2986,66.28972625732422,330.4107971191406,60.96971893310547,256.28787231445307
2987,77.4682846069336,345.05999755859375,73.00471496582031,274.9088134765625
2988,70.57565307617188,339.6969909667969,69.33213806152344,275.00979614257807
2989,53.398292541503906,326.270751953125,60.08710098266602,258.51309204101557
2990,53.67878341674805,329.1130676269531,54.522132873535156,258.0830078125
2991,72.69243621826172,346.6195373535156,69.88564300537111,267.3729248046875
2992,66.69363403320311,345.4676513671875,75.89192199707031,262.33529663085943
2993,47.58274841308594,327.2580871582031,65.09857177734375,241.9752655029297
2994,48.8917121887207,336.54425048828125,60.8238639831543,244.7427978515625
2995,71.39842987060547,355.427001953125,75.45435333251953,261.404052734375
2996,63.12951278686523,351.200927734375,77.32804107666016,253.45301818847656
2997,41.71858215332031,334.2217712402344,64.65351867675781,240.2511749267578
2998,45.43230438232422,337.4044189453125,60.0721435546875,243.3777313232422
2999,61.54753494262695,350.7035217285156,69.31343841552734,259.5902099609375
3000,53.51422882080078,349.9555358886719,65.37158203125,247.04283142089844
3001,44.91619873046875,333.5149230957031,56.30232238769531,232.1019287109375
3002,50.346534729003906,338.2795715332031,56.99794387817383,244.84376525878903
3003,70.20539855957031,357.64849853515625,72.76162719726562,269.2503662109375
3004,70.40361785888672,345.47137451171875,77.30560302734375,269.84500122070307
3005,50.27921676635742,332.0750732421875,61.37736892700195,255.36410522460938
3006,67.20226287841797,334.4573974609375,59.7430305480957,265.0728759765625
3007,73.02528381347656,348.65777587890625,70.58126068115234,281.4910583496094
3008,74.10237884521484,341.67913818359375,66.23549652099611,269.78515625
3009,51.49842071533203,323.4359130859375,52.02388000488281,246.134033203125
3010,60.42930221557617,333.630859375,57.93291854858398,257.36495971679693
3011,71.5854263305664,350.4716491699219,65.60719299316406,268.10220336914057
3012,58.30878067016602,343.9754333496094,67.79503631591797,257.52951049804693
3013,40.13286590576172,332.5799560546875,57.90299987792969,239.31619262695312
3014,41.57646942138672,335.063232421875,52.71575927734375,242.88780212402344
3015,66.40566253662111,359.927978515625,74.29124450683594,263.8218994140625
3016,55.07750701904297,356.6780090332031,68.21764373779297,255.86338806152344
3017,36.51264190673828,340.0204772949219,61.08939743041992,239.34425354003903
3018,46.21394348144531,349.8638916015625,65.05368804931639,250.7210235595703
3019,67.572509765625,365.2236633300781,75.01678466796875,264.83914184570307
3020,63.05097198486328,358.4132995605469,69.72482299804689,259.52099609375
3021,48.944068908691406,339.2687683105469,56.05175018310547,249.00814819335938
3022,52.40347671508789,340.1326904296875,55.63288116455078,255.4557342529297
3023,69.36018371582031,360.5263671875,64.76571655273439,277.87271118164057
3024,60.33206558227539,353.49908447265625,65.98866271972656,268.40701293945307
3025,47.93055725097656,334.50787353515625,59.63457489013672,253.70172119140625
3026,51.1393928527832,332.31256103515625,56.42200088500977,260.975830078125
3027,69.03107452392578,348.14727783203125,65.62589263916016,275.22109985351557
3028,63.84009170532226,347.8144226074219,71.31053924560547,272.6405639648437
3029,48.95903015136719,333.3821716308594,54.409934997558594,252.04869079589844
3030,37.89266586303711,326.6166687011719,51.77704620361328,239.00765991210938
3031,28.853328704833984,317.2706604003906,44.45058059692383,221.4263916015625
3032,41.83078002929688,322.84686279296875,50.87947082519531,240.00994873046875
3033,66.75347137451172,341.8717346191406,66.38883209228516,251.04640197753903
3034,57.75901412963867,333.5616760253906,63.374473571777344,240.01368713378903
3035,44.83766174316406,319.2976989746094,53.841468811035156,224.91197204589844
3036,41.76720428466797,324.0885009765625,53.51609802246094,226.6697235107422
3037,63.55212020874024,339.4482727050781,69.20497894287111,248.1666717529297
3038,49.77058792114258,333.06427001953125,63.8569221496582,235.7950897216797
3039,34.201385498046875,319.6455078125,52.465187072753906,217.9407958984375
3040,28.95430564880371,322.944091796875,44.98164749145508,218.21006774902344
3041,55.49263381958008,337.8326416015625,56.03305053710938,245.13735961914062
3042,51.38996505737305,328.7783508300781,55.27385330200195,237.64633178710938
3043,43.44641876220703,315.55780029296875,50.29978561401367,230.3310852050781
3044,50.57092666625977,317.12481689453125,51.05524444580078,242.01080322265625
3045,64.51701354980469,332.357421875,59.97116470336914,262.10153198242193
3046,62.62462615966797,323.7107849121094,62.22258377075195,253.19683837890625
3047,50.18945693969727,308.68011474609375,52.98129272460938,241.5919342041016
3048,40.85092544555664,316.0477294921875,44.82456970214844,243.3272399902344
3049,57.29900741577149,332.7575988769531,55.62914276123047,252.72186279296875
3050,54.13131332397461,332.0657043457031,62.05802917480469,249.5354766845703
3051,35.93669891357422,314.4283447265625,48.13438415527344,234.88629150390625
3052,38.95853805541992,324.36151123046875,49.33115005493164,236.0381774902344
3053,56.79412078857422,337.46612548828125,63.927978515625,251.85047912597656
3054,47.19005584716797,333.7374572753906,64.98262786865234,242.47454833984372
3055,36.45654296875,317.1322937011719,58.47520446777344,224.11163330078125
3056,36.80435562133789,323.9314270019531,53.80406951904297,224.3509826660156
3057,62.18331527709961,337.1145935058594,67.34250640869139,236.07183837890625
3058,61.05012512207031,336.5199279785156,75.36085510253906,227.71316528320312
3059,44.59830856323242,318.4300537109375,66.94233703613281,213.74462890625
3060,52.12298583984375,322.9515686035156,63.101463317871094,219.18618774414062
3061,72.92430877685547,333.9132385253906,66.56835174560547,232.37681579589844
3062,65.65020751953125,329.4739685058594,67.52576446533203,236.69265747070312
3063,49.06374740600586,309.95916748046875,52.78681945800781,227.13720703125
3064,47.7959213256836,317.1322937011719,47.49111938476562,225.9890594482422
3065,71.31615447998047,331.2242431640625,55.37856674194336,248.0843963623047
3066,68.06243896484375,326.28009033203125,66.74786376953125,244.76710510253903
3067,47.09281921386719,302.4906005859375,48.63552856445313,225.704833984375
3068,56.76794052124024,322.1736755371094,53.3066635131836,237.60145568847656
3069,75.55345916748047,337.43994140625,65.12100982666016,251.85047912597656
3070,62.1309585571289,332.34246826171875,74.01074981689453,252.94625854492188
3071,42.43290328979492,315.6026916503906,59.33538436889648,232.5376281738281
3072,41.25483703613281,322.7384033203125,57.31957626342773,236.79737854003903
3073,65.882080078125,340.4954528808594,76.34819030761719,251.7831573486328
3074,59.76359939575195,332.2676696777344,74.40718078613281,245.8778533935547
3075,39.31008911132813,313.1156311035156,61.70647811889648,228.2105712890625
3076,52.04444885253906,323.8828125,57.72722625732422,231.07159423828125
3077,67.78569030761719,344.2802429199219,77.27194213867188,250.6200408935547
3078,61.899085998535156,334.130126953125,77.91146850585938,244.92791748046875
3079,51.80883407592773,322.5252380371094,72.28665924072266,228.2330017089844
3080,57.75527572631836,321.6837463378906,61.69525909423828,232.4366455078125
3081,69.96978759765625,336.5573425292969,72.578369140625,251.95144653320312
3082,65.42581176757811,330.82781982421875,69.36205291748047,252.00755310058597
3083,38.47983169555664,314.5218505859375,52.30810928344727,237.1526641845703
3084,52.42217636108398,319.1593322753906,52.02761840820313,242.47454833984372
3085,65.75492095947266,332.7987365722656,64.7320556640625,259.01239013671875
3086,64.27766418457031,334.7472229003906,68.97310638427734,257.55007934570307
3087,52.79242706298828,320.4608154296875,64.90409088134766,245.78060913085938
3088,56.64826583862305,323.81549072265625,63.1351203918457,252.17584228515625
3089,66.34956359863281,336.9874267578125,74.05562591552734,262.39324951171875
3090,56.21069717407226,327.4020690917969,76.1125717163086,252.77423095703125
3091,45.39490509033203,309.4729919433594,65.14718627929689,230.2712554931641
3092,42.95648956298828,316.1524353027344,60.74158477783203,234.84141540527344
3093,63.18560791015625,334.7808837890625,72.4773941040039,250.6836242675781
3094,59.05302047729492,334.3994140625,70.42044830322266,245.86663818359372
3095,43.74560928344727,313.0558166503906,63.78212356567383,226.3368682861328
3096,48.94781112670898,324.7392578125,64.97888946533203,238.427978515625
3097,71.07679748535156,344.5981140136719,82.66114044189453,251.88412475585938
3098,67.41169738769531,340.2224426269531,87.53048706054688,251.77194213867188
3099,40.06554794311523,324.78411865234375,67.67162322998047,231.75973510742188
3100,47.85575866699219,322.9777526855469,60.363853454589844,237.20877075195312
3101,57.22794723510742,334.5115966796875,68.13536834716797,266.14810180664057
3102,53.36463165283203,328.378173828125,63.4642333984375,256.64129638671875
3103,46.6515121459961,313.47467041015625,57.06900405883789,246.42013549804688
3104,51.32264709472656,311.9749755859375,54.63432693481445,244.1949005126953
3105,68.78050231933594,330.3490905761719,60.775245666503906,262.30349731445307
3106,63.888710021972656,325.3675537109375,67.09941864013672,254.2290496826172
3107,45.507102966308594,308.80352783203125,54.409934997558594,236.6627349853516
3108,53.34219360351562,317.6484069824219,55.04571914672852,246.06858825683597
3109,65.69882202148439,334.68365478515625,71.92762756347656,259.67434692382807
3110,58.27886199951172,331.5720520019531,75.72736358642578,258.26812744140625
3111,42.41420364379883,316.73211669921875,67.72023773193361,236.79364013671875
3112,45.4659652709961,320.4122009277344,62.02437210083008,230.2413330078125
3113,59.501808166503906,337.77655029296875,72.05104064941406,242.2613677978516
3114,51.1880111694336,331.100830078125,70.95525360107422,228.22552490234372
3115,40.529296875,317.532470703125,58.14235305786133,212.7311248779297
3116,40.35351943969727,328.41558837890625,56.15646743774414,219.4292755126953
3117,64.74888610839844,342.8553161621094,63.55773162841797,246.16583251953125
3118,57.6430778503418,337.0210876464844,62.7536506652832,248.5481414794922
3119,39.89725112915039,312.2030944824219,45.52767181396485,235.4622344970703
3120,49.089927673339844,316.48529052734375,42.42355346679688,244.20611572265625
3121,61.558753967285156,326.07440185546875,51.7508659362793,264.356689453125
3122,64.99198150634766,322.1736755371094,61.33996963500977,264.30435180664057
3123,40.6003532409668,304.3680114746094,45.83808517456055,250.07028198242188
3124,41.21369934082031,310.561279296875,45.41921615600586,251.0015106201172
3125,62.68446350097656,327.5105285644531,56.74363327026367,268.51919555664057
3126,54.6324577331543,326.7587890625,63.31089782714844,260.13809204101557
3127,36.24337005615234,312.0572509765625,47.30412292480469,230.0468597412109
3128,45.70531845092773,318.1794738769531,48.82626342773438,231.6849365234375
3129,61.42411804199219,337.47735595703125,63.70358657836914,240.18572998046875
3130,61.22216415405274,335.1661071777344,68.91700744628906,236.7711944580078
3131,44.7142448425293,321.4369201660156,58.83423614501953,221.0860595703125
3132,48.66357803344727,323.6135559082031,64.91905212402344,228.158203125
3133,63.62317657470703,343.62200927734375,79.35132598876953,246.3415985107422
3134,61.20346450805664,340.65252685546875,75.2673568725586,240.2044219970703
3135,39.3549690246582,326.2239990234375,65.47255706787111,224.0443115234375
3136,47.81088256835938,327.3235168457031,59.38774108886719,227.08859252929688
3137,55.91150283813477,330.73431396484375,61.99445343017578,240.8439483642578
3138,56.24061584472656,339.03314208984375,70.65979766845703,249.0567626953125
3139,35.80580139160156,317.75311279296875,49.682701110839844,229.9309234619141
3140,39.56440353393555,325.6031799316406,47.42753982543945,228.7341461181641
3141,50.47369003295898,334.83697509765625,50.87572860717773,247.04470825195312
3142,48.91415023803711,330.2481384277344,54.68668746948242,239.19091796875
3143,36.57622146606445,317.6334533691406,45.19482040405274,228.5135040283203
3144,37.19330596923828,319.716552734375,41.481101989746094,230.97808837890625
3145,57.02973556518555,338.4010925292969,56.36216354370117,250.283447265625
3146,50.234336853027344,331.605712890625,61.80371856689453,239.71075439453125
3147,34.38090133666992,316.9752197265625,52.00518035888672,222.7353515625
3148,36.4453239440918,320.3635559082031,46.96753311157226,227.20079040527344
3149,57.9534912109375,338.64794921875,59.372779846191406,239.0338287353516
3150,50.45499038696289,331.3027648925781,64.94523620605469,227.32794189453125
3151,40.10668563842773,324.3876953125,57.75714492797852,212.9106292724609
3152,47.24241638183594,329.98260498046875,55.42718887329102,210.32261657714844
3153,63.79147338867188,343.6855773925781,65.71939086914061,226.4789886474609
3154,61.809326171875,343.5621643066406,71.28062438964844,219.75091552734372
3155,49.26570129394531,331.3102722167969,59.372779846191406,206.68370056152344
3156,49.03008651733398,335.4278869628906,54.15188217163086,207.42794799804688
3157,64.54319000244139,354.7332458496094,60.853782653808594,233.10235595703125
3158,58.48455429077149,343.5472106933594,60.70044708251953,234.79278564453125
3159,43.28560256958008,329.02142333984375,52.5138053894043,224.92318725585938
3160,40.67141342163086,322.20361328125,47.07225036621094,232.2720947265625
3161,58.40975570678711,334.8407287597656,51.28711700439453,251.76071166992188
3162,54.37066650390625,333.9431457519531,49.36481094360352,249.3335266113281
3163,32.540870666503906,318.1083984375,37.91697692871094,233.94757080078125
3164,42.86673355102539,322.46539306640625,41.095890045166016,238.9253845214844
3165,55.20840454101562,337.099609375,61.33248901367188,258.66458129882807
3166,43.33422088623047,336.1347351074219,59.028709411621094,249.0605010986328
3167,33.49828338623047,323.9950256347656,52.20713424682617,238.8131866455078
3168,44.366432189941406,327.5740966796875,49.4957046508789,240.35028076171875
3169,67.0264892578125,347.9976806640625,71.72566986083984,258.39529418945307
3170,60.08523178100586,338.3450012207031,70.52890014648438,243.0130920410156
3171,43.50251770019531,327.04302978515625,54.86246109008789,227.3578643798828
3172,52.97194290161133,331.2952880859375,55.77499771118164,229.2577362060547
3173,65.71378326416016,344.43731689453125,68.89082336425781,242.2875518798828
3174,56.88761901855469,348.66339111328125,76.00785827636719,236.8123321533203
3175,42.99388885498047,334.80706787109375,64.05887603759766,220.93272399902344
3176,46.17280578613281,337.1220703125,59.93376541137695,229.79254150390625
3177,64.74888610839844,348.66339111328125,70.88045501708984,242.6241455078125
3178,60.90801239013672,350.3351135253906,75.47679138183594,244.3931121826172
3179,51.64427947998047,329.2832336425781,62.27494430541992,230.2039337158203
3180,56.07231903076172,324.4475402832031,60.8650016784668,235.0657958984375
3181,74.26692962646484,341.5874938964844,70.80565643310547,264.13229370117193
3182,73.2309799194336,333.69256591796875,74.66897583007812,256.62258911132807
3183,57.81511306762695,318.6843566894531,60.79768371582031,246.41639709472656
3184,57.34762573242188,317.2108459472656,58.28073120117188,254.4384765625
3185,63.48480224609375,331.6954650878906,64.98637390136719,261.129150390625
3186,63.507240295410156,334.5527648925781,63.8569221496582,260.80380249023443
3187,42.8592529296875,318.8414306640625,53.55349731445313,235.59312438964844
3188,47.04046249389648,322.58880615234375,54.48473358154297,238.23724365234372
3189,65.10417938232422,341.96148681640625,71.57981872558594,246.63331604003903
3190,61.4278564453125,344.7888488769531,76.89047241210938,236.39720153808597
3191,37.67949295043945,327.192626953125,60.90240097045898,212.12152099609372
3192,47.66876602172852,332.7613525390625,61.47086715698242,216.74777221679688
3193,61.96266174316406,349.7180480957031,70.51020050048828,234.89002990722656
3194,58.29381942749024,341.1910705566406,71.65460968017578,217.3386688232422
3195,40.742469787597656,326.9046630859375,58.677162170410156,204.98204040527344
3196,41.11272048950195,333.09417724609375,52.40534973144531,205.1765289306641
3197,58.27886199951172,347.34320068359375,60.33767700195313,225.962890625
3198,49.6135139465332,343.16949462890625,63.31463623046875,228.10958862304688
3199,37.00257110595703,330.65203857421875,56.54167938232422,219.74343872070312
3200,45.98580932617188,330.5099182128906,49.682701110839844,227.3503875732422
3201,59.94685745239258,340.9292907714844,57.09892272949219,246.9100646972656
3202,53.22251510620117,331.4112243652344,56.03679275512695,238.17739868164062
3203,46.6328125,316.676025390625,48.39243698120117,230.1440887451172
3204,48.80195617675781,315.7410583496094,43.05559921264648,238.15870666503903
3205,61.786888122558594,333.52801513671875,54.36505508422852,258.81417846679693
3206,55.80304718017578,331.9984130859375,57.92544174194336,259.04977416992193
3207,39.48212432861328,316.5189514160156,49.97815322875977,241.984619140625
3208,41.06784057617188,317.6259765625,52.5025863647461,246.8988494873047
3209,54.15748977661133,332.69403076171875,61.42224502563477,258.3878173828125
3210,55.98256301879883,334.1750183105469,71.66209411621094,249.46067810058597
3211,37.70567321777344,312.1619567871094,57.02412414550781,223.46463012695312
3212,47.182579040527344,323.09368896484375,56.72493362426758,228.8426055908203
3213,55.66466903686523,335.3456115722656,66.39631652832031,233.43521118164062
3214,62.10664749145508,353.8207092285156,78.74732971191406,246.2144470214844
3215,55.72264099121094,341.92034912109375,70.08572387695311,228.6593475341797
3216,45.7296257019043,347.3731384277344,59.26245498657226,220.8915863037109
3217,60.02352523803711,370.1865234375,71.56298828125,237.8669891357422
3218,52.4951057434082,366.783203125,70.28768157958984,232.1112823486328
3219,40.32173156738281,349.59088134765625,57.67673873901367,221.83029174804688
3220,38.72853469848633,356.0796203613281,50.387672424316406,227.5149383544922
3221,53.53105926513672,368.75787353515625,60.04409408569336,249.29612731933597
3222,57.49535369873047,362.78900146484375,59.95807647705078,253.6456298828125
3223,44.304725646972656,341.19854736328125,47.75104141235352,234.6731109619141
3224,44.36082458496094,341.62115478515625,47.88567733764648,244.4005889892578
3225,61.14549255371094,356.2292175292969,57.6131591796875,268.79971313476557
3226,64.54132080078125,350.27154541015625,65.95313262939453,265.8638916015625
3227,48.269020080566406,335.59991455078125,54.583839416503906,249.0941619873047
3228,50.56157684326172,340.62261962890625,44.71798324584961,253.7727813720703
3229,64.57498168945311,356.1618957519531,59.48684692382813,273.7401123046875
3230,55.96199417114258,351.1766052246094,70.86736297607422,267.03073120117193
3231,47.23306655883789,337.7428894042969,61.678428649902344,253.0509796142578
3232,50.87572860717773,340.8619689941406,59.19513702392578,258.29806518554693
3233,59.57847595214844,356.771484375,71.2039566040039,269.779541015625
3234,53.33658218383789,355.2792663574219,73.75457000732422,260.99078369140625
3235,40.22075271606445,345.091796875,62.08607864379883,246.5248565673828
3236,40.92011642456055,344.8449401855469,57.90861129760742,239.92019653320312
3237,62.7237319946289,362.2915954589844,65.82971954345703,253.3239898681641
3238,55.08311462402344,358.237548828125,67.03770446777344,246.0087432861328
3239,44.60391616821289,345.267578125,60.51906204223633,235.2453155517578
3240,44.26732635498047,345.2638244628906,54.93539047241211,236.15411376953125
3241,65.39402008056639,363.6080322265625,63.66805648803711,258.088623046875
3242,59.88140869140625,355.92626953125,71.18525695800781,261.42086791992193
3243,48.75894546508789,334.2535705566406,59.24375534057617,244.0041656494141
3244,55.56930160522461,341.935302734375,57.88991165161133,251.0538787841797
3245,69.62758636474611,358.8172302246094,72.18380737304688,271.68316650390625
3246,65.04621124267578,351.6702575683594,71.29371643066406,264.45767211914057
3247,48.02592468261719,330.9661865234375,53.64512634277344,250.6200408935547
3248,60.68548583984375,341.23968505859375,51.58818054199219,260.57192993164057
3249,75.17012023925781,355.09600830078125,63.22300720214844,270.75567626953125
3250,67.17420959472656,350.3987121582031,72.25112915039062,274.15524291992193
3251,55.21027374267578,339.0107116699219,64.04204559326172,258.02130126953125
3252,51.058982849121094,342.6234436035156,56.760459899902344,256.222412109375
3253,68.45326232910156,356.1319885253906,71.48445129394531,267.1204833984375
3254,69.33213806152344,352.36590576171875,72.82707214355469,254.8162078857422
3255,46.38410949707031,340.30096435546875,62.79666137695313,235.04710388183597
3256,45.46409225463867,342.84783935546875,56.62956619262695,238.22227478027344
3257,69.73978424072266,362.7553405761719,70.86736297607422,255.11166381835938
3258,63.31463623046875,360.8105773925781,67.09754180908203,250.5377655029297
3259,48.328857421875,345.6078796386719,57.93852996826172,240.94866943359372
3260,53.51609802246094,346.688720703125,52.332420349121094,247.99462890625
3261,68.8870849609375,358.4544372558594,58.72016906738281,272.3114624023437
3262,65.23320770263672,355.24188232421875,64.35993957519531,270.8529052734375
3263,48.05958557128906,338.0158996582031,49.57985305786133,256.58145141601557
3264,52.59234237670898,335.0763244628906,47.68372344970703,256.73104858398443
3265,68.50935363769531,350.0172424316406,58.66407012939453,272.74530029296875
3266,61.77379608154297,352.2948303222656,65.95687866210939,268.97174072265625
3267,45.63612747192383,329.0812683105469,52.99064254760742,246.2107086181641
3268,58.26951217651367,342.76556396484375,51.74525451660156,255.28370666503903
3269,77.71324920654297,357.6914978027344,70.46719360351562,269.19613647460943
3270,69.96791839599611,352.8857421875,79.00164794921875,269.25222778320307
3271,51.07020568847656,332.98199462890625,65.53426361083984,247.8076477050781
3272,54.05838394165039,336.06365966796875,59.41205215454102,255.9007873535156
3273,62.89950561523438,349.9536437988281,68.36163330078125,262.11648559570307
3274,53.90878677368164,351.7899475097656,69.3975830078125,258.2120361328125
3275,39.54009246826172,335.8654479980469,61.90656280517578,238.19235229492188
3276,52.25949096679688,344.564453125,56.50240707397461,242.21649169921875
3277,75.75728607177734,358.5853576660156,71.79112243652344,256.2635498046875
3278,79.4036865234375,355.6869201660156,78.80342864990234,261.49942016601557
3279,60.13946151733398,337.6344299316406,64.53945159912111,243.53668212890625
3280,55.976951599121094,341.4005126953125,54.59505844116211,245.6796417236328
3281,72.98975372314453,357.23150634765625,65.78109741210939,268.91189575195307
3282,66.69924926757811,352.69873046875,67.00778961181639,267.77871704101557
3283,47.73421478271485,335.5363464355469,55.76190948486328,256.42437744140625
3284,50.19132614135742,343.06103515625,54.9727897644043,256.14761352539057
3285,61.41476821899414,355.8252868652344,71.08053588867188,270.31808471679693
3286,49.25261306762695,351.4346618652344,67.22096252441406,260.57192993164057
3287,40.79669952392578,334.05535888671875,54.29212951660156,248.4322052001953
3288,45.759544372558594,341.8343505859375,54.02659606933594,243.9779815673828
3289,64.27578735351561,360.268310546875,64.98075866699219,261.89208984375
3290,62.52177810668945,356.876220703125,67.66226959228516,253.38009643554688
3291,46.87029647827149,342.3728942871094,61.46151733398438,242.3062438964844
3292,54.86246109008789,343.5958251953125,63.77277374267578,244.3332672119141
3293,67.91097259521484,355.24560546875,76.6268081665039,257.94277954101557
3294,69.16384124755861,357.39605712890625,81.42884063720703,258.33544921875
3295,49.66026306152344,342.1148376464844,66.90680694580078,241.9285125732422
3296,53.05982971191406,343.5546875,61.8205451965332,245.7619171142578
3297,66.92738342285156,359.4642333984375,71.46575164794922,264.12481689453125
3298,60.44613265991211,351.0419616699219,68.98993682861328,261.92202758789057
3299,45.277099609375,340.4131774902344,61.599891662597656,253.02105712890625
3300,49.8023796081543,341.1761169433594,50.73174285888672,255.06678771972656
3301,63.15008163452149,356.0272521972656,64.32254028320311,273.85977172851557
3302,60.39751434326172,351.9058837890625,62.74804306030274,272.35635375976557
3303,40.20205307006836,335.58123779296875,51.27402877807617,252.68821716308597
3304,45.18360137939453,339.3360900878906,52.05566787719727,253.1856231689453
3305,58.5574836730957,354.3817138671875,65.99053192138672,271.14834594726557
3306,54.21545791625977,355.503662109375,74.02010345458984,264.97378540039057
3307,38.57893753051758,341.430419921875,60.16376876831055,241.5096435546875
3308,42.76762771606445,344.0520935058594,55.47393417358398,242.829833984375
3309,58.75569915771485,366.83929443359375,63.77277374267578,257.924072265625
3310,58.71455764770508,362.58331298828125,76.1817626953125,252.6695098876953
3311,48.75520706176758,347.2272644042969,66.89559173583984,238.5775604248047
3312,54.82880401611328,345.7200927734375,60.20491027832031,235.6342620849609
3313,66.18313598632811,357.95703125,69.72669219970703,250.76963806152344
3314,69.71360778808594,362.4337158203125,73.67228698730469,256.14013671875
3315,51.130043029785156,339.57916259765625,61.89534378051758,241.0683441162109
3316,52.9663314819336,344.141845703125,58.48081588745117,250.30963134765625
3317,74.11547088623047,360.4403381347656,71.51436614990234,270.19094848632807
3318,71.20582580566406,354.5238037109375,69.31904602050781,258.8216552734375
3319,47.2555046081543,337.20806884765625,59.99173355102539,246.1508636474609
3320,52.40160751342773,342.17840576171875,53.4880485534668,254.8274383544922
3321,68.165283203125,355.0735778808594,64.180419921875,274.92190551757807
3322,60.1245002746582,351.6478271484375,73.04024505615234,266.74276733398443
3323,43.0593376159668,338.78631591796875,62.59844589233398,256.3570556640625
3324,45.57255172729492,341.33319091796875,58.64911270141602,255.9232177734375
3325,68.84220886230469,357.0108642578125,71.55924224853516,274.3422241210937
3326,62.33478164672852,352.6725769042969,71.63404083251953,267.95822143554693
3327,42.89104080200195,338.3599548339844,63.40252304077149,243.98919677734372
3328,51.87802124023438,344.1007080078125,69.22554779052734,254.07945251464844
3329,77.05876922607422,361.5436096191406,81.27924346923828,269.28213500976557
3330,66.16069793701172,359.4530029296875,85.57264709472656,262.49423217773443
3331,44.31220626831055,346.3670959472656,77.09056091308594,243.0729217529297
3332,42.58063125610352,346.7897033691406,66.12142944335939,247.05218505859372
3333,70.18109130859375,368.3203125,82.31520080566406,265.893798828125
3334,61.78127670288086,358.3273010253906,80.95387268066406,260.470947265625
3335,46.18963623046875,343.3452453613281,68.98619079589844,241.19175720214844
3336,53.34032440185547,340.7011413574219,56.20321655273438,244.42303466796875
3337,57.68234634399414,359.09771728515625,58.63415145874024,260.5120849609375
3338,59.85149002075195,359.91302490234375,58.394798278808594,257.79318237304693
3339,46.15597534179688,344.0633239746094,55.35052108764648,247.2391815185547
3340,49.9257926940918,341.430419921875,51.39744567871094,251.1997375488281
3341,75.21499633789062,361.9998779296875,69.66685485839844,274.3385009765625
3342,73.3824462890625,359.845703125,79.88052368164062,266.51461791992193
3343,49.604164123535156,345.5892028808594,62.84153747558594,252.160888671875
3344,46.16719436645508,340.7908935546875,56.07231903076172,251.8168182373047
3345,71.8154296875,358.2861633300781,65.86338043212889,266.58193969726557
3346,60.00482559204102,362.88623046875,67.68096923828125,259.438720703125
3347,40.62466430664063,344.37371826171875,54.774574279785156,244.4492034912109
3348,45.26961898803711,342.4140319824219,51.32638549804688,241.9060821533203
3349,55.86849594116211,358.24127197265625,62.51616668701172,262.29226684570307
3350,46.54866409301758,355.4251403808594,65.57914733886719,251.5176239013672
3351,36.55939102172852,343.4649353027344,57.43364334106445,242.00331115722656
3352,37.43078994750977,341.84930419921875,55.27198028564453,243.7274169921875
3353,59.369041442871094,355.17828369140625,61.13614273071289,262.24365234375
3354,64.98262786865234,354.9501647949219,69.36392211914061,262.7186279296875
3355,51.12630081176758,339.4744567871094,64.31131744384766,245.6796417236328
3356,51.86306381225586,339.4482727050781,51.46102523803711,246.0536346435547
3357,64.47774505615234,357.31378173828125,57.254127502441406,260.02215576171875
3358,54.51839065551758,353.6561584472656,62.07112121582031,254.22531127929688
3359,27.98754119873047,341.6548156738281,52.59421157836914,236.4981842041016
3360,35.4822998046875,349.2131652832031,49.75936889648438,242.9682159423828
3361,52.44648742675781,359.576416015625,63.36886596679688,260.44100952148443
3362,59.22318649291992,361.1808471679688,73.82188415527344,259.943603515625
3363,49.24139404296875,341.0938415527344,65.73622131347656,245.3243408203125
3364,49.54806518554688,347.1188049316406,59.25871658325195,248.9744873046875
3365,67.48836517333984,361.7119140625,67.34437561035156,264.7381591796875
3366,68.17650604248047,355.2381286621094,73.82188415527344,259.49856567382807
3367,44.77595138549805,339.33233642578125,62.85649871826172,239.4340057373047
3368,45.27335739135742,339.3472900390625,54.74465560913086,242.5493469238281
3369,57.64494705200195,359.23236083984375,63.02853393554688,258.73562622070307
3370,49.682701110839844,355.7542419433594,67.00778961181639,250.1226348876953
3371,30.91214370727539,343.62200927734375,59.04928207397461,238.4616241455078
3372,37.10541915893555,345.2152099609375,55.6758918762207,242.74008178710938
3373,53.71805191040039,360.27203369140625,60.86687088012695,258.91140747070307
3374,53.52731704711914,357.040771484375,69.34896850585939,259.461181640625
3375,36.76134490966797,338.3824157714844,56.80533981323242,245.0176696777344
3376,44.36830139160156,341.3930358886719,56.30793380737305,253.4474029541016
3377,61.6503791809082,359.0378723144531,66.54778289794922,267.26632690429693
3378,59.30172348022461,353.82818603515625,70.30638122558594,268.9866943359375
3379,51.19361877441406,335.491455078125,62.64332580566406,248.8809967041016
3380,48.10072326660156,333.22882080078125,55.114906311035156,246.86892700195312
3381,62.94812774658203,352.5229797363281,66.31964874267578,259.779052734375
3382,63.64000701904297,355.526123046875,76.37623596191406,261.61160278320307
3383,44.065372467041016,339.30615234375,59.02684020996094,237.571533203125
3384,46.8141975402832,342.68328857421875,61.88412475585938,242.84478759765625
3385,60.14694213867188,356.8238525390625,71.9668960571289,252.61715698242188
3386,60.01978302001953,358.6003112792969,81.97486877441406,259.69305419921875
3387,54.10326385498047,344.2166442871094,70.36248016357422,242.08184814453125
3388,48.500892639160156,342.4439392089844,66.63753509521484,246.2032165527344
3389,69.39571380615234,364.4158630371094,76.2453384399414,264.1659545898437
3390,63.96163940429688,362.979736328125,78.97920989990234,260.19418334960943
3391,57.73096466064453,347.9154052734375,75.22808837890625,254.81246948242188
3392,51.24224090576172,341.9390563964844,65.44824981689453,250.8070373535156
3393,65.46134185791016,357.3287353515625,77.78244018554688,264.73443603515625
3394,60.87996292114258,354.76690673828125,77.70016479492188,260.89727783203125
3395,45.11254501342773,336.8191223144531,65.25377655029297,243.2935791015625
3396,42.26274108886719,334.07403564453125,57.71039581298828,248.2713928222656
3397,67.46218872070311,354.0899963378906,62.89763641357422,264.02383422851557
3398,59.7617301940918,354.1610412597656,64.18790435791016,261.75
3399,48.59064865112305,340.4617919921875,56.66696548461914,240.17449951171875
3400,56.49679946899414,345.0356750488281,59.55416870117188,246.14712524414062
3401,79.40742492675781,361.431396484375,75.88630676269531,260.87860107421875
3402,68.54301452636719,356.4947509765625,80.69207763671875,257.00030517578125
3403,53.841468811035156,339.8858337402344,69.81645202636719,238.5887908935547
3404,54.4211540222168,342.08489990234375,64.46465301513672,244.08644104003903
3405,62.23754501342773,360.8143310546875,67.56129455566406,263.67977905273443
3406,68.845947265625,355.23065185546875,78.22374725341797,262.830810546875
3407,44.09154891967773,342.88525390625,70.22409820556639,246.8651885986328
3408,50.75231170654297,346.6064453125,66.55152130126953,250.01043701171875
3409,69.10025787353516,361.5959777832031,77.39348602294922,267.81985473632807
3410,63.81952285766602,360.7096252441406,80.76313781738281,259.74166870117193
3411,45.46409225463867,340.925537109375,67.55381011962889,240.26426696777344
3412,42.99575805664063,345.55926513671875,56.9511947631836,240.7841033935547
3413,59.09602737426758,363.21533203125,73.23846435546875,259.614501953125
3414,60.775245666503906,356.76776123046875,76.30517578125,255.27247619628903
3415,43.521217346191406,343.10589599609375,61.50452423095703,237.22560119628903
3416,55.38043975830078,342.275634765625,59.21570587158203,245.5917510986328
3417,66.98160552978516,357.1268005371094,66.44493103027344,267.67959594726557
3418,65.16775512695311,353.7646179199219,72.00616455078125,269.03717041015625
3419,53.22625732421875,342.6645812988281,67.66787719726561,254.36929321289062
3420,52.39973831176758,345.327392578125,61.29135131835938,256.01858520507807
3421,73.9116439819336,355.44757080078125,73.4011459350586,272.15625
3422,74.22205352783203,355.5447998046875,82.1973876953125,271.5653686523437
3423,53.69374465942383,342.98248291015625,65.60345458984375,245.0793914794922
3424,49.03756713867188,337.626953125,60.4423942565918,244.53335571289062
3425,67.60243225097656,354.4041442871094,72.43999481201172,258.37472534179693
3426,52.42965698242188,350.0509033203125,72.54470825195312,252.38714599609372
3427,38.31527328491211,334.59014892578125,53.61333465576172,239.54806518554688
3428,44.25423431396485,342.544921875,56.97924423217773,244.6642608642578
3429,65.47816467285156,355.78790283203125,73.03089904785156,267.43649291992193
3430,64.69652557373047,353.0989074707031,81.94681549072266,268.43881225585943
3431,47.945518493652344,341.8941650390625,74.21644592285156,247.4766540527344
3432,52.63909149169922,346.5316467285156,74.9083251953125,249.9524688720703
3433,68.11479949951172,357.6802978515625,78.90254211425781,265.48428344726557
3434,72.44186401367188,359.5801696777344,84.46002960205078,263.62930297851557
3435,57.68047714233398,342.7992248535156,70.37556457519531,243.29171752929688
3436,54.29212951660156,345.2750549316406,67.25275421142578,245.13548278808597
3437,72.76349639892578,362.7029724121094,78.98481750488281,262.41757202148443
3438,75.9237060546875,359.7484436035156,88.03163146972656,260.18484497070307
3439,50.0660400390625,336.10107421875,71.91266632080078,238.9048156738281
3440,50.26051712036133,336.688232421875,69.72856140136719,245.59922790527344
3441,69.10587310791016,356.21051025390625,75.70118713378906,260.75704956054693
3442,60.53776168823242,348.56988525390625,80.33492279052734,255.75680541992188
3443,45.507102966308594,330.0723571777344,64.36928558349611,240.01182556152344
3444,54.2098503112793,336.19830322265625,61.556884765625,243.0710601806641
3445,69.24050903320311,355.5522766113281,79.99832916259766,259.44061279296875
3446,65.87833404541016,352.34344482421875,84.24311828613281,253.6063537597656
3447,44.366432189941406,338.6441955566406,66.84510040283203,234.1513977050781
3448,44.45993041992188,335.46527099609375,64.63855743408203,245.4683380126953
3449,67.18356323242189,358.3684387207031,75.06166076660156,263.68539428710943
3450,62.213233947753906,358.6376953125,85.97843170166016,264.23141479492193
3451,51.06459426879883,338.9022521972656,76.12005615234375,247.1438140869141
3452,54.09017181396485,338.5095520019531,76.16493225097656,251.0146026611328
3453,69.01237487792969,353.4317626953125,83.18846130371094,266.65859985351557
3454,61.47273635864258,355.5896911621094,78.3228530883789,259.90435791015625
3455,45.847434997558594,332.1293029785156,69.12644195556639,245.73013305664062
3456,52.717628479003906,338.1916809082031,68.93944549560547,251.5045318603516
3457,75.5235366821289,352.6688232421875,76.01533508300781,266.81942749023443
3458,67.90162658691406,354.0413818359375,76.90917205810547,261.9388427734375
3459,44.284156799316406,336.5461120605469,65.95500946044922,243.65447998046875
3460,53.18511581420898,338.554443359375,63.66244888305664,247.38316345214844
3461,68.69821929931639,356.18060302734375,74.19400787353516,261.28811645507807
3462,60.59011840820313,351.0494384765625,68.49066162109375,257.26022338867193
3463,44.76286315917969,336.62091064453125,61.61298370361328,241.23851013183597
3464,43.76430892944336,334.9678649902344,54.24163818359375,243.4787139892578
3465,69.78279113769531,356.2740783691406,73.81253814697266,258.528076171875
3466,65.05555725097656,354.58740234375,75.970458984375,252.76487731933597
3467,46.079307556152344,340.772216796875,70.82061767578125,237.4911193847656
3468,43.2706413269043,341.44537353515625,65.93256378173828,242.5212860107422
3469,57.83381271362305,364.4644775390625,73.16927337646484,266.07891845703125
3470,55.65345001220703,365.7322998046875,79.13067626953125,265.74234008789057
3471,41.88314056396485,346.04547119140625,69.73230743408203,253.7783966064453
3472,47.42941284179688,344.2764892578125,62.7723503112793,247.05404663085938
3473,72.18380737304688,357.9981689453125,73.41610717773438,260.78695678710943
3474,71.26005554199219,356.18060302734375,83.39415740966797,264.04815673828125
3475,58.45837783813477,342.6870422363281,71.44517517089844,246.00314331054688
3476,54.18367004394531,342.23077392578125,65.56605529785156,245.52442932128903
3477,69.63694000244139,354.69586181640625,74.26880645751953,259.26107788085943
3478,66.36826324462889,355.2194519042969,77.41780090332031,252.0767364501953
3479,51.42362594604492,344.7701721191406,71.4152603149414,243.73301696777344
3480,54.48660278320313,349.2393493652344,67.52202606201172,252.14031982421875
3481,65.96061706542969,359.1239013671875,70.61492156982422,267.30935668945307
3482,65.97183227539061,366.6635437011719,77.83293151855469,267.43276977539057
3483,49.774330139160156,344.2577819824219,64.99385070800781,251.54193115234372
3484,55.769386291503906,339.1453552246094,60.8650016784668,251.5643768310547
3485,70.03336334228516,360.1149597167969,64.77693939208984,264.95693969726557
3486,66.13639068603516,356.348876953125,71.0749282836914,255.7343597412109
3487,46.75249099731445,337.2118225097656,59.81034851074219,238.07455444335938
3488,54.389366149902344,338.28143310546875,56.11906814575195,243.5497589111328
3489,67.47901153564453,358.6376953125,69.93425750732422,261.78176879882807
3490,64.50953674316406,359.1762390136719,67.32380676269531,261.41525268554693
3491,49.88652420043945,343.307861328125,56.72119140625,250.8350830078125
3492,54.20610809326172,350.9297790527344,63.13138198852539,257.68658447265625
3493,67.61365509033203,363.2602233886719,70.72338104248047,270.80990600585943
3494,64.92092132568361,364.0231628417969,79.95719146728516,262.89999389648443
3495,50.56718826293945,343.1657409667969,71.96128845214844,246.5940399169922
3496,46.09052658081055,346.2174987792969,62.62649536132813,247.8169860839844
3497,63.98220825195313,361.782958984375,75.77972412109375,269.126953125
3498,61.87664413452149,355.855224609375,74.96442413330078,259.6762084960937
3499,41.93175888061523,338.3599548339844,66.37761688232422,245.22897338867188
3500,37.40647888183594,342.3653869628906,57.97406005859375,248.3817138671875
3501,57.90487289428711,361.9176025390625,68.37097930908203,268.28546142578125
3502,54.50156021118164,358.0430603027344,67.75016021728516,259.25735473632807
3503,43.26316452026367,342.4551696777344,57.80950546264648,249.59718322753903
3504,45.43230438232422,340.15887451171875,54.38375473022461,246.6015167236328
3505,67.13494110107422,354.4901428222656,65.77548980712889,259.53408813476557
3506,64.63294982910156,354.56121826171875,73.18797302246094,255.7119140625
3507,52.41095733642578,335.7383117675781,62.10664749145508,235.6548309326172
3508,61.0164680480957,336.7293701171875,62.35348129272461,244.29400634765625
3509,72.07909393310547,349.2991638183594,64.65725708007811,255.7081756591797
3510,64.943359375,353.5626525878906,68.12040710449219,261.3516845703125
3511,44.47863006591797,340.6188659667969,58.90529251098633,249.38400268554688
3512,41.42687225341797,339.235107421875,54.98962020874024,250.52093505859372
3513,53.56658554077149,352.111572265625,65.67451477050781,260.031494140625
3514,57.13819122314453,355.95245361328125,74.53059387207031,260.3531494140625
3515,41.03044128417969,342.8515930175781,62.68633270263672,243.2094268798828
3516,46.50565719604492,337.20806884765625,60.19929885864258,241.15249633789062
3517,69.56961822509766,361.04620361328125,71.86779022216797,255.6446075439453
3518,70.28768157958984,359.0790100097656,83.34554290771484,256.71795654296875
3519,53.23373413085938,336.007568359375,68.25878143310547,234.4879913330078
3520,56.8277816772461,339.586669921875,69.69864654541016,238.844970703125
3521,67.75576782226561,351.9245910644531,71.16094970703125,259.702392578125
3522,61.25208282470703,346.6401062011719,68.59911346435547,252.6227569580078
3523,48.28584671020508,336.9874267578125,58.29195022583008,243.32162475585938
3524,45.87361145019531,337.7952575683594,51.85558319091797,244.0060272216797
3525,65.2425537109375,357.1192932128906,65.15467071533203,262.00991821289057
3526,62.69568252563477,357.7027282714844,75.57776641845703,265.22622680664057
3527,52.84852600097656,339.1902160644531,62.74617004394531,247.93292236328125
3528,47.93055725097656,339.1004638671875,60.4311752319336,248.44155883789062
3529,62.93877792358398,351.53936767578125,66.44866943359375,270.29379272460943
3530,64.99945831298828,359.5165710449219,81.94307708740234,273.1361083984375
3531,31.927526473999023,343.0161437988281,61.94583129882813,248.4378204345703
3532,34.818470001220696,343.3602294921875,57.62250900268555,250.9921722412109
3533,49.6733512878418,361.8016662597656,71.90144348144531,265.26736450195307
3534,53.38333129882813,365.5191345214844,73.45724487304688,262.69430541992193
3535,39.32878875732422,345.7313232421875,65.18832397460939,255.09483337402344
3536,39.8486328125,346.16888427734375,60.53963088989258,251.74761962890625
3537,60.25726699829102,360.5749816894531,72.62698364257812,266.59127807617193
3538,54.31456756591797,362.3589172363281,73.94717407226562,264.66897583007807
3539,47.82958221435547,345.26007080078125,71.17216491699219,249.09603881835938
3540,48.07641220092773,339.41461181640625,57.3906364440918,244.5370941162109
3541,62.32543182373047,353.1924133300781,70.42418670654297,260.39053344726557
3542,65.51182556152344,360.1935119628906,82.40682220458984,262.5372314453125
3543,47.032981872558594,347.97149658203125,70.35686492919922,240.8719940185547
3544,40.87336730957031,340.1214599609375,64.38798522949219,239.55181884765625
3545,68.39154815673828,362.6319274902344,70.96646881103516,262.89627075195307
3546,63.6343994140625,358.96307373046875,77.32804107666016,261.1048583984375
3547,44.366432189941406,341.0078125,70.47654724121094,247.68235778808597
3548,48.36438751220703,340.8956298828125,62.46941757202149,255.2967834472656
3549,59.29985427856445,359.5838928222656,71.91266632080078,273.58865356445307
3550,59.71124267578125,361.24066162109375,75.47305297851562,270.735107421875
3551,37.19330596923828,347.7022399902344,67.26396942138672,256.54965209960943
3552,34.16024780273437,345.2862548828125,61.770057678222656,250.8313446044922
3553,59.53546905517578,363.5631408691406,73.90603637695312,271.3746337890625
3554,66.70859527587889,363.3948669433594,81.80844116210938,269.35134887695307
