,T7,F8,Cz,P4
2000,63.59886932373047,376.6995544433594,66.94420623779297,321.3359375
2001,75.26361846923828,387.3807067871094,75.55345916748047,324.20819091796875
2002,54.77644348144531,369.9677429199219,65.3248291015625,300.9497375488281
2003,54.95970153808594,366.9421691894531,59.30359268188477,293.73175048828125
2004,69.60140991210939,385.3050537109375,71.9668960571289,305.42266845703125
2005,79.85247039794922,392.4632263183594,86.739501953125,302.50555419921875
2006,63.56147003173828,369.6049499511719,75.61329650878906,281.30780029296875
2007,62.11412811279297,368.3109436035156,70.87858581542969,276.991943359375
2008,71.17216491699219,386.1166076660156,72.94300842285156,290.1003112792969
2009,76.1537094116211,387.5751953125,85.13134002685547,293.716796875
2010,55.666542053222656,371.6319885253906,73.92285919189453,281.27413940429693
2011,49.07683563232422,369.8630065917969,66.65623474121094,276.6104736328125
2012,70.207275390625,390.0098571777344,73.90415954589844,287.4075622558594
2013,82.05901336669922,398.0207214355469,86.27949523925781,295.1267395019531
2014,68.83098602294922,378.7901611328125,74.7605972290039,275.54833984375
2015,67.73519897460939,373.7712097167969,70.89728546142578,281.22177124023443
2016,75.27483367919922,382.2046813964844,70.09694671630861,296.663818359375
2017,74.65401458740234,381.9578552246094,76.2640380859375,312.9361267089844
2018,56.511756896972656,363.2022399902344,65.22759246826172,297.48284912109375
2019,49.4508285522461,358.1870422363281,52.36233901977539,293.22686767578125
2020,63.12763977050781,375.2148132324219,57.61689758300781,310.7819519042969
2021,67.08071899414061,382.4290771484375,61.42411804199219,328.03411865234375
2022,44.959205627441406,362.3121643066406,54.69977569580078,306.77276611328125
2023,47.40510177612305,361.51556396484375,51.45354461669922,303.201171875
2024,67.14055633544922,375.0465087890625,61.61859130859375,314.7611999511719
2025,76.01533508300781,380.2300109863281,69.45742034912111,312.69677734375
2026,61.33622741699219,369.6535949707031,64.61425018310547,294.9509582519531
2027,57.57762908935547,362.6113586425781,62.6021842956543,282.1866760253906
2028,77.23454284667969,378.59942626953125,72.5091781616211,291.065185546875
2029,85.87371063232422,387.6499938964844,82.2217025756836,295.983154296875
2030,71.04126739501953,375.30084228515625,79.77206420898438,274.88265991210943
2031,64.10749816894531,365.7752990722656,65.94939422607422,264.208984375
2032,85.04719543457031,385.5294494628906,76.15558624267578,281.8762512207031
2033,89.15360260009766,391.6180114746094,83.90465545654297,289.6627197265625
2034,74.57921600341797,373.01202392578125,71.59290313720703,273.50262451171875
2035,69.55652618408203,366.58685302734375,60.80329513549805,270.71640014648443
2036,84.620849609375,382.1523132324219,64.80124664306639,287.7740783691406
2037,84.86019897460938,384.3065185546875,68.39903259277344,301.1217956542969
2038,66.54216766357422,365.8463745117188,65.30239105224611,285.5675354003906
2039,60.53215026855469,362.8731384277344,55.03636932373047,282.1156005859375
2040,74.94572448730469,376.6060485839844,60.52280044555664,305.1159973144531
2041,73.58814239501953,383.4687805175781,68.94879913330078,308.0892333984375
2042,48.93471908569336,364.2195129394531,58.76504898071289,296.0579528808594
2043,58.04137802124024,364.60845947265625,57.58697891235352,294.7190856933594
2044,69.99409484863281,378.4498291015625,61.95518112182617,306.4361877441406
2045,76.92039489746094,383.2256774902344,66.33834838867189,312.8650817871094
2046,64.71710205078125,367.03564453125,67.27706146240234,292.6845703125
2047,67.47340393066406,361.81475830078125,62.34039306640625,293.18572998046875
2048,80.3087387084961,378.4498291015625,68.54862976074219,309.1625671386719
2049,81.81591796875,375.3756408691406,75.77411651611328,308.0293884277344
2050,68.98058319091797,359.9447937011719,68.6346435546875,287.7217102050781
2051,67.98577117919922,359.8587951660156,63.6643180847168,279.98760986328125
2052,89.36678314208984,385.4584045410156,81.140869140625,295.0743713378906
2053,88.2784652709961,390.0397644042969,83.72514343261719,295.4969787597656
2054,67.578125,379.2127685546875,70.05580902099611,279.32565307617193
2055,66.17939758300781,369.9191284179688,63.10707092285156,276.58428955078125
2056,66.31029510498047,377.6233215332031,64.04578399658203,294.01971435546875
2057,76.7109603881836,381.2659606933594,66.49916076660156,308.7998046875
2058,57.34575653076172,368.6026611328125,62.77796173095703,295.53436279296875
2059,54.0396842956543,364.0960998535156,55.3542594909668,298.7918395996094
2060,69.05912017822266,374.3321838378906,59.1689567565918,314.480712890625
2061,76.33696746826172,375.521484375,67.32942199707031,310.3892517089844
2062,61.66534042358398,363.3106994628906,59.1278190612793,307.2851257324219
2063,56.73241424560547,356.8406982421875,57.41868591308594,306.82513427734375
2064,81.06046295166016,375.9104309082031,66.02793121337889,322.21856689453125
2065,81.44193267822266,374.9455261230469,70.68785095214844,323.0413513183594
2066,63.0640640258789,360.9657897949219,63.17065048217773,300.1419372558594
2067,68.681396484375,355.8009948730469,61.96266174316406,293.64947509765625
2068,86.10184478759766,370.4053039550781,72.47926330566406,314.2675476074219
2069,82.34698486328125,376.3479919433594,76.48843383789062,306.8326110839844
2070,73.99952697753906,360.9770202636719,68.06243896484375,286.4501647949219
2071,72.35771179199219,360.1168518066406,64.68904876708984,281.52471923828125
2072,86.76754760742188,373.0381774902344,74.00888061523438,293.4437561035156
2073,90.97119903564452,387.997802734375,83.12675476074219,297.7970275878906
2074,71.16468811035156,372.54827880859375,75.76289367675781,279.66598510742193
2075,68.37097930908203,377.0697937011719,65.48191070556639,289.5318298339844
2076,72.06600189208984,388.2932434082031,68.25691223144531,303.71728515625
2077,68.29991912841797,385.8099365234375,71.31241607666016,317.6745910644531
2078,58.07503509521485,368.7185974121094,58.83610534667969,299.726806640625
2079,51.87054061889648,365.20684814453125,53.14023971557617,306.7877197265625
2080,60.5059700012207,370.8690490722656,58.0656852722168,323.048828125
2081,70.12499237060547,375.87677001953125,69.00489044189453,335.0351867675781
2082,53.991065979003906,354.3686218261719,52.56803512573242,317.23699951171875
2083,44.06911087036133,346.9299621582031,46.210205078125,308.66143798828125
2084,64.38424682617189,358.9649353027344,58.26016235351562,320.10552978515625
2085,65.82036590576172,364.86651611328125,53.4581298828125,317.50628662109375
2086,57.02412414550781,354.9595031738281,55.21588134765625,299.210693359375
2087,59.81409072875977,358.0224914550781,53.65260314941406,292.90521240234375
2088,70.0726318359375,371.84515380859375,61.786888122558594,298.30938720703125
2089,84.47872924804688,387.1824951171875,81.0361557006836,307.8199462890625
2090,67.7015380859375,372.15557861328125,72.99910736083984,281.240478515625
2091,64.73954010009766,363.8604736328125,67.94276428222656,273.16976928710943
2092,86.33746337890625,383.8091125488281,81.33908081054688,293.85888671875
2093,85.75029754638672,383.8277893066406,82.29650115966797,289.0531311035156
2094,72.33153533935547,370.80548095703125,74.94011688232422,273.27822875976557
2095,63.50163269042969,362.0428771972656,68.34293365478516,272.41806030273443
2096,64.25334930419922,381.2472839355469,67.46779632568361,282.72894287109375
2097,74.60165405273438,389.8004150390625,78.01431274414062,305.6358337402344
2098,53.796592712402344,367.8247680664063,66.25980377197266,292.5424499511719
2099,49.59294509887695,363.5912170410156,55.26824188232422,297.71099853515625
2100,67.06201934814453,370.78302001953125,62.45632934570313,315.0641174316406
2101,73.96212768554688,374.36212158203125,71.49566650390625,321.5752868652344
2102,65.44264221191406,362.6524963378906,68.88895416259766,315.056640625
2103,61.91591262817383,352.74176025390625,55.60109329223633,305.79290771484375
2104,74.03318786621094,369.09259033203125,68.62342071533203,321.8408203125
2105,77.22332763671875,368.9242858886719,75.38890075683594,324.2717590332031
2106,58.53130340576172,357.3343505859375,65.02564239501953,303.77337646484375
2107,63.04910278320313,359.2865905761719,67.92780303955078,301.2003173828125
2108,76.10883331298828,375.4990539550781,69.15448760986328,306.40625
2109,70.25962829589844,379.94952392578125,68.08487701416016,301.0395202636719
2110,63.9092788696289,372.48095703125,72.88690948486328,293.5896301269531
2111,55.25141143798828,373.99560546875,63.52968215942383,287.3627014160156
2112,66.82266235351561,384.96099853515625,67.57999420166016,300.3663330078125
2113,72.85137939453125,388.0912780761719,75.39264678955078,298.7656555175781
2114,59.24188613891602,377.4064025878906,70.43353271484375,279.538818359375
2115,63.677406311035156,370.1173400878906,62.852760314941406,274.84524536132807
2116,79.18302917480469,383.8539733886719,67.38177490234375,286.7530822753906
2117,86.23274230957031,386.2774353027344,72.58397674560547,294.79388427734375
2118,73.37496948242188,379.6428527832031,75.31036376953125,293.60833740234375
2119,69.02172088623047,365.8201904296875,60.85191345214844,291.51025390625
2120,79.56824493408203,377.8290100097656,64.25521850585939,311.5187072753906
2121,81.10160064697266,383.3603210449219,77.8310546875,319.2602844238281
2122,66.63192749023439,367.7574462890625,67.42291259765625,303.7658996582031
2123,53.62081527709961,357.02392578125,49.12732696533203,298.2644958496094
2124,79.28401184082031,376.04132080078125,61.34557723999024,314.5517578125
2125,80.60045623779297,383.1807861328125,64.36741638183594,319.38372802734375
2126,49.95571517944336,360.77880859375,50.14083862304688,292.7070007324219
2127,48.94968032836914,360.7638244628906,48.31576919555664,288.45849609375
2128,64.75823974609375,373.85723876953125,57.51592254638672,297.0565185546875
2129,71.34793853759766,387.23486328125,66.91429138183594,300.407470703125
2130,52.42030715942383,374.2349548339844,59.06423950195313,279.56875610351557
2131,51.90420150756836,372.37249755859375,58.14048385620117,276.75634765625
2132,67.22657012939453,389.2431640625,69.24050903320311,291.0016174316406
2133,68.92822265625,403.2004699707031,76.65673065185547,284.6961364746094
2134,53.42634201049805,388.06884765625,71.34233093261719,271.81219482421875
2135,48.04836654663086,378.7041320800781,64.63668823242189,269.25784301757807
2136,74.104248046875,395.5523986816406,73.01033020019531,284.7372741699219
2137,76.92039489746094,393.3196716308594,72.150146484375,286.6296691894531
2138,61.63916015625,377.4924011230469,64.63294982910156,272.27593994140625
2139,59.10725021362305,370.0088806152344,53.7685432434082,271.72616577148443
2140,77.5599136352539,381.707275390625,61.26704025268555,296.9293518066406
2141,84.90133666992188,381.0752258300781,68.33171081542969,301.7912292480469
2142,71.57233428955078,368.3932495117188,62.91259765625,296.9405822753906
2143,65.48751831054689,357.3642578125,51.94721221923828,293.30914306640625
2144,82.92293548583984,367.0880126953125,58.7987060546875,305.13470458984375
2145,91.38632202148438,371.9461364746094,65.81849670410156,307.0495300292969
2146,71.8752670288086,357.00897216796875,61.25208282470703,297.5426940917969
2147,60.57703018188477,352.9698791503906,47.59022521972656,285.9602355957031
2148,81.62518310546875,370.9064331054688,65.29491424560547,306.4287109375
2149,79.81133270263672,383.0087585449219,72.0042953491211,307.6665954589844
2150,59.52611923217773,367.7350158691406,63.653099060058594,296.5329284667969
2151,50.52791976928711,368.325927734375,59.79352188110352,291.3681335449219
2152,60.17686080932617,380.4432067871094,73.1300048828125,302.4457092285156
2153,61.44842529296875,380.09912109375,71.6265640258789,298.21588134765625
2154,53.44129943847656,368.72607421875,62.935035705566406,280.59347534179693
2155,55.9283332824707,368.1987609863281,59.44197082519531,270.52938842773443
2156,69.65377044677734,386.3709411621094,62.9312973022461,280.043701171875
2157,79.69539642333984,387.89306640625,73.0477294921875,290.6089172363281
2158,62.39462280273438,369.0439758300781,56.12841796875,272.57138061523443
2159,61.54566192626953,361.9082336425781,56.93997573852539,272.25350952148443
2160,75.70866394042969,378.0384521484375,61.3754997253418,294.8873596191406
2161,81.5503921508789,383.1807861328125,65.94939422607422,303.60882568359375
2162,71.40778350830078,364.6421203613281,62.55730819702149,299.7754211425781
2163,59.41765975952149,360.1504821777344,52.88218688964844,293.0884704589844
2164,67.3612060546875,367.6789245605469,55.02140808105469,309.3458251953125
2165,76.89421081542969,373.3336486816406,63.92610931396485,316.0477294921875
2166,63.78212356567383,358.325439453125,59.9730339050293,299.58843994140625
2167,62.82471084594727,355.1278076171875,55.01766967773438,296.663818359375
2168,76.052734375,375.4803466796875,63.3239860534668,314.3946838378906
2169,81.47559356689453,378.2216796875,78.4107437133789,310.9203186035156
2170,66.17939758300781,363.98388671875,74.192138671875,293.1483154296875
2171,57.274696350097656,363.0077819824219,61.58493423461914,285.66851806640625
2172,69.87815856933594,377.294189453125,70.86736297607422,293.7915954589844
2173,77.29064178466797,384.8263549804688,81.91503143310547,300.4373779296875
2174,59.99360656738281,369.0103149414063,70.9047622680664,283.03936767578125
2175,48.62430953979492,361.7661437988281,57.76275634765625,278.16629028320307
2176,69.55652618408203,384.0821228027344,64.62173461914061,296.8919677734375
2177,78.13211822509766,389.60968017578125,76.17802429199219,291.1998291015625
2178,55.135475158691406,366.6167907714844,61.67095184326172,263.928466796875
2179,62.62275314331055,361.0892028808594,56.51362991333008,266.10134887695307
2180,84.56100463867188,377.458740234375,66.48419952392578,287.24676513671875
2181,84.55352783203125,370.9176635742188,66.21492767333984,294.7564697265625
2182,75.03922271728516,361.80352783203125,62.1197395324707,285.6086730957031
2183,63.46049118041992,356.41058349609375,54.15748977661133,284.36328125
2184,74.9906005859375,368.8831481933594,56.981117248535156,299.98486328125
2185,72.99349975585938,376.21337890625,69.24424743652344,308.9306945800781
2186,65.50621795654297,360.1766662597656,56.30419540405274,293.5073547363281
2187,59.42887878417969,351.77313232421875,49.05626678466797,288.6567077636719
2188,74.94198608398438,367.129150390625,60.32832717895508,305.21697998046875
2189,88.34578704833984,372.40240478515625,68.83285522460939,314.31988525390625
2190,70.40548706054688,363.7557678222656,63.26040649414063,300.0484313964844
2191,59.14838790893555,353.1194763183594,54.40432357788086,286.88397216796875
2192,68.93944549560547,370.11358642578125,62.50494766235352,306.64935302734375
2193,69.95295715332031,377.4363098144531,61.54753494262695,307.2290344238281
2194,53.841468811035156,364.15966796875,67.22096252441406,288.8175048828125
2195,47.775352478027344,362.14013671875,56.00500106811523,284.26605224609375
2196,59.13155746459961,380.4207458496094,59.38212966918945,295.4913635253906
2197,62.935035705566406,386.06427001953125,65.71752166748047,297.1107482910156
2198,56.25183486938477,376.48638916015625,59.05302047729492,290.4237976074219
2199,45.94467163085938,369.6012268066406,45.67913818359375,288.0527038574219
2200,64.17668151855469,379.7064208984375,56.59590530395508,303.43865966796875
2201,69.77157592773439,380.2038269042969,57.81511306762695,319.02655029296875
2202,60.18621063232422,361.3173522949219,53.54788589477539,298.9657287597656
2203,61.05012512207031,361.71002197265625,49.49383544921875,296.7105712890625
2204,75.40760040283203,373.4869689941406,61.90656280517578,312.339599609375
2205,74.08741760253906,373.5430908203125,64.47587585449219,315.6157531738281
2206,65.05555725097656,360.04205322265625,58.17414474487305,295.68585205078125
2207,56.71184158325195,356.1413269042969,48.08389282226562,289.2232971191406
2208,73.4927749633789,369.13372802734375,52.01453018188477,307.2458801269531
2209,80.119873046875,382.36175537109375,64.58058929443361,315.4549560546875
2210,62.83779907226562,367.3797302246094,62.43389129638672,296.0224304199219
2211,59.161476135253906,362.8207702636719,51.65176010131836,290.76788330078125
2212,64.65538787841797,374.5640563964844,59.98425674438477,305.2450256347656
2213,63.26040649414063,380.7498779296875,64.13554382324219,296.9798583984375
2214,58.40227890014648,372.7689208984375,66.72355651855469,287.4244079589844
2215,46.77492904663086,364.077392578125,54.31456756591797,282.73455810546875
2216,62.64332580566406,380.0392761230469,62.362831115722656,300.9366455078125
2217,69.18067169189453,387.8855895996094,67.12372589111328,303.8687438964844
2218,51.079551696777344,366.0557861328125,53.12154006958008,291.9683837890625
2219,52.19778442382813,359.2716064453125,50.17449951171875,291.56072998046875
2220,68.04747772216797,372.4921569824219,59.269935607910156,307.8255615234375
2221,72.31470489501953,380.686279296875,64.65538787841797,321.10968017578125
2222,52.58299255371094,361.1677551269531,57.35136413574219,305.45819091796875
2223,52.65779113769531,362.6636962890625,52.13794708251953,307.7432861328125
2224,67.63609313964844,373.9469909667969,60.00669479370117,316.5133361816406
2225,73.2721176147461,382.8292541503906,74.27067565917969,320.12982177734375
2226,55.6945915222168,366.5158081054688,62.38153076171875,304.4259948730469
2227,48.05397415161133,358.807861328125,57.45608139038086,291.91229248046875
2228,72.8719482421875,379.30999755859375,70.70281219482422,311.78985595703125
2229,76.5856704711914,380.0467529296875,73.70594787597656,311.6589660644531
2230,58.46959686279297,370.4801025390625,68.36911010742189,296.77789306640625
2231,54.41928482055664,363.09381103515625,61.12492370605469,284.98223876953125
2232,65.3248291015625,381.7372131347656,71.6228256225586,294.5863037109375
2233,71.89583587646484,387.6424865722656,78.4518814086914,302.9412536621094
2234,56.08353805541992,371.7965393066406,72.44560241699219,279.64166259765625
2235,50.83272171020508,369.9004211425781,61.61859130859375,277.26309204101557
2236,70.05580902099611,382.2196350097656,69.0572509765625,298.3411560058594
2237,72.50170135498047,383.71185302734375,74.52872467041016,299.90069580078125
2238,47.05168151855469,368.5353393554688,51.87989044189453,285.0196533203125
2239,46.2812614440918,363.5500793457031,42.41420364379883,282.3044738769531
2240,64.91344451904297,376.10491943359375,54.36318588256836,299.36962890625
2241,71.42835235595703,380.2561950683594,59.9318962097168,307.1261901855469
2242,60.915489196777344,370.2706604003906,53.4169921875,298.0083312988281
2243,55.61605072021485,360.3524475097656,47.26859664916992,293.01556396484375
2244,71.9033203125,372.7427368164063,55.04010772705078,306.3333435058594
2245,75.76289367675781,380.3048095703125,60.305885314941406,305.7087707519531
2246,62.69942092895508,361.3622131347656,56.92501831054688,294.48907470703125
2247,57.38128662109375,358.9873962402344,58.18162536621094,285.7377014160156
2248,73.76204681396484,372.3575439453125,61.0763053894043,301.0750427246094
2249,79.43921661376953,383.7006530761719,70.78882598876953,302.7953796386719
2250,60.29840850830078,373.3673095703125,62.09729766845703,280.296142578125
2251,54.53522109985352,368.7971496582031,57.31396865844727,278.05221557617193
2252,73.35065460205078,381.5128173828125,71.2862319946289,292.0282287597656
2253,74.15473937988281,391.5095520019531,71.68266296386719,293.9879150390625
2254,63.02105331420898,377.74298095703125,65.63524627685547,281.41812133789057
2255,56.32289505004883,369.8891906738281,55.97134399414063,268.89694213867193
2256,62.15339660644531,382.7581787109375,61.52883529663086,275.11639404296875
2257,72.20250701904297,389.3666076660156,70.15678405761719,287.3982238769531
2258,48.23348999023438,372.7576904296875,58.07690811157226,276.51138305664057
2259,56.71558380126953,371.77783203125,61.79436874389648,279.94461059570307
2260,73.72090911865234,383.5361022949219,61.0576057434082,300.9815368652344
2261,75.1607666015625,383.925048828125,68.15593719482422,307.8592224121094
2262,54.24724960327149,373.0755920410156,59.51302719116211,298.0382385253906
2263,58.33121871948242,358.1571350097656,47.49673080444336,297.092041015625
2264,73.16740417480469,370.8989562988281,59.21383666992188,313.7196350097656
2265,80.58736419677734,371.4113464355469,64.39360046386719,309.62445068359375
2266,71.21891784667969,365.8688049316406,67.77072906494139,303.7079162597656
2267,62.91633605957031,359.1295166015625,58.8286247253418,296.7030944824219
2268,74.67084503173828,374.3284606933594,68.11479949951172,309.38134765625
2269,73.28707885742188,380.3833618164063,74.92889404296875,313.5401306152344
2270,59.03432083129883,373.4570617675781,66.14012908935547,297.4286193847656
2271,52.11550521850586,366.3512573242188,62.84901809692383,289.96380615234375
2272,68.57854461669922,381.28466796875,70.96833801269531,294.02532958984375
2273,76.17802429199219,384.7515563964844,76.98583984375,292.08056640625
2274,61.77192687988281,368.5802307128906,70.96086120605469,275.17623901367193
2275,60.72849655151367,369.35064697265625,62.02624130249024,267.068115234375
2276,74.56986236572266,380.16644287109375,67.407958984375,281.30966186523443
2277,79.64116668701172,388.3755187988281,72.3895034790039,291.08575439453125
2278,55.41783905029297,374.0367431640625,58.14422607421875,277.7455444335937
2279,47.91559982299805,364.86651611328125,48.39804458618164,281.06283569335943
2280,65.28369140625,378.5246276855469,48.02031707763672,299.79974365234375
2281,75.0186538696289,387.42559814453125,62.39649200439453,314.1422424316406
2282,60.06653213500977,372.4285888671875,62.5311279296875,307.6273498535156
2283,55.90402603149414,361.3921508789063,55.30189895629883,304.2651672363281
2284,72.67373657226562,373.9806518554688,64.34123992919922,316.3637390136719
2285,79.46165466308594,383.8652038574219,76.85868072509766,329.5917663574219
2286,59.40082931518555,369.9939270019531,63.95228958129883,311.516845703125
2287,44.362693786621094,359.50347900390625,54.67733764648438,301.3929138183594
2288,56.75298309326172,370.4352111816406,55.7768669128418,312.4368591308594
2289,59.55790710449219,378.56201171875,62.852760314941406,307.7395324707031
2290,44.39261245727539,370.2407531738281,62.32543182373047,290.977294921875
2291,40.37221908569336,359.4660949707031,52.81112670898438,281.8407287597656
2292,49.91270446777344,373.1092529296875,55.93020248413086,293.1090393066406
2293,57.39250564575195,384.9684753417969,66.41314697265625,293.5578308105469
2294,46.49817657470703,370.6222229003906,68.15967559814453,277.6258544921875
2295,49.69953155517578,365.7865295410156,61.40167617797852,269.0689697265625
2296,67.31446075439453,383.50244140625,68.15593719482422,275.0191650390625
2297,68.66082000732422,383.3752746582031,72.5091781616211,285.401123046875
2298,56.4874496459961,374.8819580078125,66.63753509521484,277.64080810546875
2299,56.1695556640625,367.9444580078125,55.50011444091797,273.26141357421875
2300,73.89668273925781,374.8370971679688,64.09066772460939,293.8832092285156
2301,76.2004623413086,384.6393737792969,71.82477569580078,310.83990478515625
2302,61.7681884765625,367.2525634765625,65.15279388427734,300.330810546875
2303,48.07641220092773,358.478759765625,55.18222427368164,293.7597961425781
2304,66.82453155517578,374.3883056640625,58.11804580688477,311.0418701171875
2305,66.19622802734375,374.5715637207031,65.99801635742189,320.6534118652344
2306,46.54679489135742,364.1072998046875,53.42073059082031,297.8662109375
2307,30.723278045654297,359.05096435546875,43.04998779296875,289.3579406738281
2308,55.63849258422852,378.4834899902344,56.88387680053711,306.5539855957031
2309,63.2716293334961,380.8545837402344,65.42207336425781,306.1463317871094
2310,46.12418746948242,372.54827880859375,66.51786041259766,291.9609069824219
2311,43.02754974365234,367.24884033203125,60.38442611694336,284.4100341796875
2312,64.77880859375,383.5772399902344,77.85350036621094,300.6673889160156
2313,79.98523712158203,391.7713623046875,88.6692886352539,304.7962341308594
2314,67.79690551757811,373.8123474121094,78.34342193603516,290.49859619140625
2315,59.10163879394531,362.9815979003906,61.12118530273438,270.92022705078125
2316,75.45248413085938,383.0087585449219,72.11649322509766,286.0256652832031
2317,71.81729888916016,386.6925659179688,72.54283905029297,287.54034423828125
2318,59.20261764526367,370.2706604003906,61.19972229003906,281.26852416992193
2319,46.31492233276367,370.6895446777344,44.81148147583008,273.3062744140625
2320,62.84901809692383,381.0640258789063,54.57635879516602,287.8619689941406
2321,64.65913391113281,381.7558898925781,58.17414474487305,293.12774658203125
2322,53.22625732421875,369.2347106933594,49.53497314453125,285.1243591308594
2323,52.19030380249024,356.107666015625,40.45823669433594,282.7383117675781
2324,69.46115875244139,371.6993103027344,60.59011840820313,308.3304443359375
2325,72.92430877685547,372.6080932617188,72.52787780761719,313.9627380371094
2326,52.60917282104492,367.05810546875,65.48938751220703,308.3528747558594
2327,53.17763900756836,363.232177734375,62.5199089050293,302.85150146484375
2328,61.43159484863281,375.8206787109375,67.1087646484375,317.3810119628906
2329,65.98679351806639,382.2308654785156,74.53620910644531,326.70831298828125
2330,56.93997573852539,372.81005859375,67.72210693359375,310.4360046386719
2331,48.78325653076172,358.138427734375,56.81282043457031,294.7171936035156
2332,63.29032516479492,374.0853576660156,65.05930328369139,309.02606201171875
2333,75.70305633544922,379.4371643066406,77.6852035522461,317.3136901855469
2334,60.29840850830078,367.48443603515625,72.6886978149414,297.27154541015625
2335,53.0056037902832,368.3221740722656,66.95542907714844,292.8996276855469
2336,63.6343994140625,370.8765258789063,64.87978363037111,296.83026123046875
2337,78.24992370605469,391.2664489746094,80.77062225341797,304.6429138183594
2338,59.1278190612793,374.6725158691406,68.11106109619139,281.7023620605469
2339,49.41529846191406,366.88232421875,58.85854721069336,277.0761108398437
2340,69.41254425048828,382.5711975097656,68.1708984375,289.52996826171875
2341,75.22434997558594,380.1477355957031,68.23073577880861,295.8466491699219
2342,59.70750427246094,363.4042053222656,60.414344787597656,282.51763916015625
2343,46.56923294067383,355.2736511230469,47.84453964233398,278.92361450195307
2344,66.13639068603516,370.0799255371094,57.11949157714844,301.1984558105469
2345,70.10068511962889,374.7996826171875,60.455482482910156,311.4532470703125
2346,63.98220825195313,365.5957946777344,63.39878463745117,310.6155090332031
2347,55.93394470214844,360.0083923339844,59.34847259521485,307.53009033203125
2348,62.11599731445313,368.6026611328125,59.51302719116211,318.2972717285156
2349,70.17174530029297,382.9377136230469,74.84288024902344,327.87890625
2350,51.77891540527344,366.6841125488281,65.24629211425781,308.1359558105469
2351,39.89725112915039,358.138427734375,48.5513801574707,286.4034118652344
2352,59.36717224121094,376.5050659179688,58.88098526000977,295.1024169921875
2353,64.32254028320311,382.2981872558594,67.407958984375,294.391845703125
2354,52.20900344848633,365.0684509277344,62.149658203125,273.75131225585943
2355,54.12757110595703,363.1124877929688,62.46006774902344,278.82638549804693
2356,69.97352600097656,368.9130859375,67.84552764892578,293.9281005859375
2357,83.90091705322266,379.3922729492188,78.25740814208984,303.21051025390625
2358,66.91055297851561,370.1883850097656,80.46768951416016,294.45916748046875
2359,56.56598663330078,360.5730895996094,65.882080078125,291.8674011230469
2360,78.37334442138672,375.345703125,74.38661193847656,308.4987487792969
2361,78.27610778808594,379.1080627441406,76.32013702392578,308.7081604003906
2362,57.79267501831055,357.37176513671875,65.02190399169922,290.8651123046875
2363,51.83127212524414,360.14300537109375,54.42302322387695,287.0391845703125
2364,62.9537353515625,370.9775085449219,60.02165603637695,299.66510009765625
2365,63.01731491088867,374.90814208984375,65.26499176025389,302.28302001953125
2366,56.491188049316406,361.5379943847656,57.88617324829102,290.8164978027344
2367,55.82548522949219,349.82464599609375,54.03781509399414,284.8326416015625
2368,70.8187484741211,363.2620849609375,66.37574768066406,304.5494079589844
2369,84.81719207763672,371.39263916015625,85.3183364868164,318.30474853515625
2370,63.24918746948242,356.5489807128906,73.65733337402344,295.4764099121094
2371,57.36632537841797,351.7431945800781,66.74599456787111,292.4695129394531
2372,69.26668548583984,371.8526306152344,72.80089569091797,305.2599792480469
2373,72.54283905029297,380.3758850097656,87.584716796875,310.2751770019531
2374,60.20491027832031,371.6843566894531,69.30408477783203,303.9622497558594
2375,57.403724670410156,360.99945068359375,73.1524429321289,296.5534973144531
2376,68.27935028076172,369.7246398925781,70.53077697753906,303.64434814453125
2377,78.8109130859375,375.5962829589844,82.28901672363281,304.2127990722656
2378,65.07051849365234,356.9304504394531,70.60931396484375,280.801025390625
2379,59.33351135253906,350.62872314453125,60.97158813476562,276.410400390625
2380,76.51835632324219,356.8219909667969,72.35210418701172,291.51959228515625
2381,82.08706665039062,363.4864807128906,75.22061157226562,289.3280029296875
2382,76.2004623413086,355.6775817871094,77.44584655761719,288.452880859375
2383,64.38237762451172,348.631591796875,68.12601470947266,290.56591796875
2384,73.74708557128906,364.05120849609375,71.02069854736328,308.33416748046875
2385,88.39253234863281,380.1851501464844,76.6866455078125,312.6425476074219
2386,61.86168670654297,355.41204833984375,66.11769104003906,286.9195251464844
2387,53.29357528686523,356.5601806640625,60.17124938964844,287.2336730957031
2388,65.46321105957031,373.6216125488281,64.40481567382811,302.04742431640625
2389,71.17403411865234,384.02227783203125,72.86447143554688,311.000732421875
2390,51.01223373413086,362.3832092285156,60.08149337768555,289.2681579589844
2391,50.78036117553711,359.0360107421875,61.92526245117188,280.84591674804693
2392,67.38925933837889,370.31927490234375,73.30951690673828,293.4306945800781
2393,70.78508758544922,382.3131408691406,86.7170639038086,290.8015441894531
2394,61.0351676940918,366.108154296875,74.75312042236328,269.38687133789057
2395,60.92296981811523,355.2175598144531,66.73103332519531,259.7080078125
2396,85.22857666015625,371.5796203613281,75.57215881347656,277.6483154296875
2397,94.69800567626952,377.1632995605469,90.3391571044922,293.33343505859375
2398,73.78074645996094,363.2770385742188,75.01304626464844,283.5760498046875
2399,67.25836181640625,349.78350830078125,61.30257034301758,283.63214111328125
2400,81.70185089111328,367.6676940917969,75.72736358642578,302.7205810546875
2401,82.82008361816406,372.5295715332031,82.44048309326172,312.6537780761719
2402,65.81849670410156,361.18646240234375,74.39221954345703,296.7928466796875
2403,54.87555313110352,359.0360107421875,62.91820526123047,289.8478698730469
2404,60.63873672485352,372.0658264160156,67.43226623535156,298.3112487792969
2405,59.501808166503906,377.4512634277344,66.77030181884766,304.9832458496094
2406,48.92911148071289,365.614501953125,54.22668075561523,289.6982727050781
2407,44.175697326660156,354.55560302734375,48.32511901855469,281.6088562011719
2408,59.62522506713867,370.4576721191406,59.821571350097656,289.8441162109375
2409,73.60497283935547,375.1400146484375,66.91242218017578,290.1134033203125
2410,56.35281372070313,362.4430541992188,60.94728088378906,277.31546020507807
2411,56.54354858398438,354.5406494140625,54.79888534545898,276.98260498046875
2412,75.54598236083984,370.28936767578125,69.36953735351561,300.9403991699219
2413,77.25137329101562,373.13916015625,79.55702209472656,305.5591735839844
2414,68.46260833740234,361.5118103027344,74.30994415283203,299.6800537109375
2415,64.64043426513672,356.7471923828125,68.32610321044922,289.1447448730469
2416,80.71077728271484,375.790771484375,75.80590057373047,307.29449462890625
2417,80.84542083740234,381.4417419433594,86.49827575683594,315.56341552734375
2418,59.91693878173828,364.70196533203125,75.00182342529297,295.4876403808594
2419,46.74126815795898,362.7384948730469,59.66823196411133,290.5210266113281
2420,65.68759918212889,382.6385192871094,66.49729156494139,310.2751770019531
2421,74.3753890991211,387.3021545410156,75.61516571044922,317.3697814941406
2422,62.83406066894531,371.7741088867188,69.59018707275389,301.493896484375
2423,54.34822463989258,360.333740234375,62.682594299316406,294.216064453125
2424,67.21348571777344,371.7254943847656,67.26396942138672,311.3747253417969
2425,78.1115493774414,375.6486511230469,77.5150375366211,315.7840576171875
2426,53.99667739868164,362.3233642578125,68.8870849609375,293.09783935546875
2427,45.78385543823242,352.28173828125,58.44528579711914,285.48712158203125
2428,60.86687088012695,371.0896911621094,67.41730499267578,292.1291809082031
2429,65.76988220214844,380.60400390625,76.0714340209961,300.5589294433594
2430,58.66407012939453,366.37744140625,70.03897857666016,285.62176513671875
2431,51.1992301940918,362.3271179199219,63.0939826965332,273.4110107421875
2432,68.60472106933594,385.8810119628906,71.7518539428711,294.4292297363281
2433,65.06678009033203,391.7377014160156,74.28002166748047,300.3943786621094
2434,60.51906204223633,383.1022644042969,73.12439727783203,293.6625671386719
2435,47.16013717651367,374.39202880859375,59.42514038085938,288.68475341796875
2436,63.24544906616211,386.53173828125,63.1126823425293,303.876220703125
2437,67.36307525634766,382.7881164550781,69.29099273681639,312.3433532714844
2438,48.68975830078125,370.1285400390625,55.707679748535156,302.1446533203125
2439,46.14662551879883,369.9078979492188,54.50343322753906,300.0428161621094
2440,63.41748428344727,381.36322021484375,59.43262100219727,314.0823974609375
2441,66.97412872314453,388.3680419921875,73.55074310302734,312.06658935546875
2442,58.59301376342773,378.96966552734375,69.35083770751953,296.5534973144531
2443,56.188255310058594,370.4314880371094,63.905540466308594,298.8310852050781
2444,62.10477828979492,380.6638488769531,69.96791839599611,303.6368713378906
2445,73.12626647949219,390.9036865234375,82.35072326660156,313.31573486328125
2446,60.92671203613281,373.2887573242188,73.09073638916016,300.5888366699219
2447,49.44895553588867,363.80810546875,64.48148345947266,287.7946472167969
2448,64.37490081787111,372.7726440429688,73.30390930175781,308.60345458984375
2449,66.727294921875,381.7484130859375,77.42527770996094,310.1891784667969
2450,53.76106262207031,373.20648193359375,67.53324127197266,294.66485595703125
2451,39.8187141418457,365.2105712890625,52.13981628417969,280.89828491210943
2452,52.84104537963867,379.41845703125,61.10061645507813,291.4859313964844
2453,66.18126678466797,386.5055847167969,68.37471771240234,300.5290222167969
2454,58.32373809814453,377.1558227539063,62.3310432434082,277.95123291015625
2455,59.67384338378906,372.6567077636719,55.81239700317383,277.9886474609375
2456,76.99706268310547,390.8849792480469,68.98806762695311,290.5584411621094
2457,79.6336898803711,389.7368469238281,74.62035369873047,294.1150817871094
2458,62.53860855102539,373.9357604980469,71.34793853759766,280.3597412109375
2459,53.60772705078125,373.2738037109375,64.91157531738281,280.50933837890625
2460,67.21722412109375,381.2697143554688,73.96961212158203,298.1766052246094
2461,75.95362854003906,387.83697509765625,82.5377197265625,310.75390625
2462,62.5909652709961,376.8229675292969,77.97130584716797,296.4188537597656
2463,50.92621612548828,363.5126647949219,65.95126342773439,291.1231689453125
2464,71.40216827392578,383.7006530761719,83.16976165771484,316.9471740722656
2465,66.03541564941406,389.28057861328125,89.12368774414062,326.54376220703125
2466,49.11984634399414,372.5707092285156,78.91001892089844,303.90240478515625
2467,50.27173614501953,369.148681640625,73.45724487304688,299.0106201171875
2468,60.451744079589844,379.4035034179688,74.609130859375,308.2294616699219
2469,74.00140380859375,387.3133850097656,89.38922119140625,306.1426086425781
2470,61.47647476196289,375.0951232910156,77.82544708251953,288.67352294921875
2471,57.2017707824707,365.2405090332031,67.87731170654297,278.28781127929693
2472,74.87653350830078,378.9472351074219,76.40428924560547,298.6515808105469
2473,82.46105194091797,380.9256286621094,83.41285705566406,304.53070068359375
2474,72.09779357910156,373.04193115234375,84.2393798828125,298.9544982910156
2475,64.53945159912111,364.7243957519531,76.47908782958984,295.7830810546875
2476,81.5859146118164,377.3428039550781,75.12149810791016,307.9863586425781
2477,83.25765228271484,378.4573059082031,88.71977996826172,316.65545654296875
2478,69.59954071044922,371.1495361328125,79.37376403808594,300.19989013671875
2479,61.45403671264648,365.87628173828125,73.7414779663086,295.79803466796875
2480,76.48843383789062,379.0519409179688,76.57632446289062,307.2608337402344
2481,74.4576644897461,388.8018798828125,82.19364929199219,308.9400329589844
2482,53.95179748535156,370.2444763183594,70.02027893066406,291.0371398925781
2483,45.52580261230469,366.1418151855469,62.92942810058594,285.9808044433594
2484,67.90162658691406,375.24847412109375,70.34938812255861,316.1730041503906
2485,71.54802703857422,382.5001525878906,80.35362243652344,325.42926025390625
2486,57.47478103637695,370.9887390136719,77.07746887207031,311.9917907714844
2487,49.59107208251953,363.912841796875,64.83303833007811,302.0623779296875
2488,73.93782043457031,384.91986083984375,82.11137390136719,323.0805969238281
2489,70.96833801269531,390.533447265625,89.77816772460938,329.9395751953125
2490,61.83550643920898,382.9564208984375,90.03247833251953,313.1361999511719
2491,64.13554382324219,373.6851806640625,83.48391723632812,300.25225830078125
2492,84.6339340209961,388.5550231933594,86.73014831542969,317.4894714355469
2493,96.24632263183594,386.70751953125,95.6011962890625,320.56365966796875
2494,73.5301742553711,372.5856628417969,87.40333557128906,301.7743835449219
2495,69.98101043701172,360.5431823730469,74.5044174194336,298.0831298828125
2496,78.15642547607422,370.9513244628906,74.91954803466797,312.679931640625
2497,79.05026245117188,379.5194396972656,77.34300231933594,316.9733581542969
2498,65.93817901611328,364.6121826171875,72.34275817871094,295.7830810546875
2499,48.39430618286133,363.890380859375,61.72517776489258,289.5374450683594
2500,58.6865119934082,371.9012756347656,67.81373596191406,301.80804443359375
2501,59.4681510925293,381.5502014160156,73.11691284179688,308.9063720703125
2502,46.2625617980957,373.737548828125,67.00592041015625,295.5998229980469
2503,40.1777458190918,367.3124084472656,58.82675552368164,291.4410400390625
2504,56.90631866455078,387.1338806152344,67.46966552734375,305.6377258300781
2505,75.00743103027344,393.9741516113281,84.2580795288086,313.8692321777344
2506,57.30648803710938,378.73779296875,73.67415618896484,297.2752990722656
2507,56.96989440917969,376.7033081054688,67.72397613525389,290.00494384765625
2508,75.23182678222656,389.2394409179688,75.67500305175781,306.91302490234375
2509,82.53958892822266,393.89935302734375,85.0247573852539,312.96417236328125
2510,57.17559051513672,382.9526672363281,79.95345306396484,296.13836669921875
2511,53.79471969604492,376.0749816894531,70.09881591796875,291.57196044921875
2512,75.18321228027344,391.8087463378906,82.0515365600586,308.5772705078125
2513,74.15847778320312,397.2054138183594,88.31212615966797,319.4416809082031
2514,59.1913948059082,370.4576721191406,80.39102172851562,301.0077209472656
2515,54.68855667114258,369.7358703613281,72.3016128540039,298.68896484375
2516,68.32797241210939,380.521728515625,71.31428527832031,314.3629150390625
2517,68.8927001953125,382.8554382324219,77.84040832519531,324.2063293457031
2518,64.79750823974611,377.5709533691406,70.52890014648438,317.08929443359375
2519,49.42277908325195,362.8058166503906,57.51779174804688,305.90325927734375
2520,64.62921142578125,380.6114807128906,64.94523620605469,320.7356872558594
2521,69.85385131835939,386.9132080078125,70.21101379394531,316.1991882324219
2522,50.55222702026367,372.5819091796875,64.17481231689453,301.3704833984375
2523,48.97024917602539,371.97607421875,63.68488693237305,296.19073486328125
2524,58.14796447753906,385.3125305175781,65.65581512451172,301.3517761230469
2525,60.85565185546875,392.564208984375,67.38739013671875,299.627685546875
2526,55.90402603149414,384.0447082519531,67.07323455810547,281.47048950195307
2527,52.75128936767578,376.5350036621094,67.26770782470703,275.8531494140625
2528,68.05870056152344,393.5777282714844,78.88384246826172,293.5877685546875
2529,72.01925659179688,395.4925537109375,88.36074829101562,295.62225341796875
2530,66.50289916992189,383.1134948730469,80.20028686523438,282.5064392089844
2531,55.60483169555664,374.6613159179688,70.97395324707031,292.18902587890625
2532,70.96833801269531,384.1120300292969,74.8484878540039,309.1008605957031
2533,72.03421020507812,388.5138854980469,74.30620574951172,317.2613220214844
2534,60.10019302368164,374.1040649414063,74.26506042480469,314.0113525390625
2535,55.25328063964844,362.3158874511719,60.47979354858398,307.2645568847656
2536,60.03661346435547,377.3540344238281,57.54022979736328,313.6784973144531
2537,67.89788055419922,381.5015869140625,68.41586303710939,315.3951110839844
2538,53.59650802612305,365.9884643554688,56.71745300292969,297.0845642089844
2539,47.45933151245117,359.74658203125,49.95571517944336,282.2184753417969
2540,56.00874328613281,371.2355651855469,50.96548843383789,292.7200927734375
2541,66.31964874267578,378.3937377929688,65.93630981445311,297.3725280761719
2542,52.76250839233398,364.758056640625,60.32645797729492,282.7607421875
2543,50.55222702026367,364.3130187988281,55.1728744506836,280.2811889648437
2544,69.63694000244139,375.2933654785156,62.21510696411133,291.97210693359375
2545,75.7404556274414,386.80474853515625,74.96068572998047,301.153564453125
2546,59.32603454589844,373.2102355957031,66.8563232421875,285.02337646484375
2547,60.88183212280274,372.12939453125,65.80166625976561,282.9776611328125
2548,63.806434631347656,380.9406127929688,66.90868377685547,295.44647216796875
2549,66.21866607666016,384.2017822265625,68.52057647705078,303.4760437011719
2550,51.27402877807617,381.2098693847656,59.55229568481445,287.1326904296875
2551,42.27209091186523,373.3373718261719,55.07189559936523,287.03546142578125
2552,60.15629196166992,387.1189270019531,63.00796508789063,300.4242858886719
2553,71.59664154052734,391.66290283203125,73.83123779296875,308.0088195800781
2554,60.46296310424805,371.1794738769531,69.1451416015625,304.3885803222656
2555,59.0792007446289,361.1041564941406,59.49245834350586,300.4205627441406
2556,76.6268081665039,372.9484252929688,67.55942535400389,310.9521179199219
2557,80.08248138427734,377.8589172363281,78.3826904296875,315.9374084472656
2558,71.7088394165039,363.69964599609375,70.00157928466797,303.93231201171875
2559,64.50579071044922,357.30816650390625,61.1754150390625,296.35528564453125
2560,70.59061431884766,368.150146484375,66.26541900634766,301.9576416015625
2561,76.3238754272461,374.05169677734375,64.67970275878906,307.5600280761719
2562,56.40517044067383,367.3684997558594,65.01628875732422,292.37603759765625
2563,52.03322982788086,368.0080261230469,59.91880798339844,284.0809326171875
2564,62.24315643310547,383.573486328125,64.88913726806639,295.3978576660156
2565,70.54946899414062,396.07598876953125,74.36229705810547,294.462890625
2566,48.85805130004883,383.75299072265625,62.48437881469727,275.15753173828125
2567,45.67539978027344,381.3893737792969,57.4317741394043,273.14547729492193
2568,63.507240295410156,393.8133239746094,64.12245178222656,284.76531982421875
2569,70.01466369628906,392.4333190917969,69.20497894287111,292.8734436035156
2570,55.88906478881836,379.8111572265625,61.09313583374024,281.01422119140625
2571,47.59396743774414,371.695556640625,52.82421875,277.05740356445307
2572,66.93672943115234,388.8093566894531,64.96018981933594,295.60357666015625
2573,74.72694396972656,388.86920166015625,70.59622192382812,309.0597229003906
2574,58.47333526611328,376.8080139160156,66.81892395019531,294.9752502441406
2575,54.29212951660156,363.88665771484375,58.23959350585938,289.0624694824219
2576,68.66456604003906,379.1080627441406,69.74726104736328,304.65411376953125
2577,83.67652130126953,389.37408447265625,82.14877319335938,313.3531188964844
2578,65.83345794677734,371.4038696289063,74.36604309082031,295.7793273925781
2579,58.85106658935547,360.3374938964844,65.21076202392578,289.544921875
2580,75.1383285522461,371.4337768554688,71.5386734008789,303.7939453125
2581,78.11528778076172,379.53814697265625,81.57656860351562,302.2605895996094
2582,62.99861526489258,364.1297607421875,69.74352264404297,281.29470825195307
2583,55.86662673950195,359.21551513671875,57.74218368530274,270.37045288085943
2584,70.20166015625,377.3914489746094,61.575584411621094,286.6651916503906
2585,73.09260559082031,388.31195068359375,74.31742095947266,290.5995788574219
2586,59.53546905517578,374.4668273925781,70.06515502929689,273.25018310546875
2587,48.61122131347656,369.7882080078125,57.42803192138672,267.54684448242193
2588,61.69712829589844,389.0374755859375,66.41127014160156,287.349609375
2589,64.60303497314453,392.1603088378906,72.81398010253906,297.0509033203125
2590,47.89315795898438,374.1377258300781,62.06177139282226,281.5003967285156
2591,39.50830459594727,370.7381591796875,49.37976837158203,276.66845703125
2592,58.60423278808594,383.0910339355469,62.34600067138672,293.5578308105469
2593,66.91055297851561,388.315673828125,66.82266235351561,310.3387756347656
2594,60.77337265014648,373.748779296875,69.66124725341797,301.8155212402344
2595,51.74899673461914,362.7534790039063,55.24767303466797,293.5428771972656
2596,75.5010986328125,381.63623046875,68.25504302978516,312.58270263671875
2597,76.8437271118164,378.9434814453125,78.39017486572266,313.1175231933594
2598,62.74056243896485,365.5452880859375,70.28394317626953,296.13275146484375
2599,57.28030776977539,358.9144592285156,64.74514770507811,293.1707458496094
2600,68.92261505126953,370.2388610839844,64.30384063720703,300.0970458984375
2601,74.73068237304688,377.4531555175781,78.1489486694336,303.9304504394531
2602,61.36427688598633,361.3042602539063,72.37454223632812,280.98989868164057
2603,48.8804931640625,356.6405944824219,60.2123908996582,270.16290283203125
2604,62.14217758178711,373.3542175292969,66.15509033203125,283.7349853515625
2605,71.3273696899414,382.0158081054688,70.70655059814453,291.23724365234375
2606,61.00898742675781,371.7909240722656,68.71318054199219,273.11740112304693
2607,52.3025016784668,361.21075439453125,62.1608772277832,269.19052124023443
2608,67.52763366699219,377.6363830566406,74.69328308105469,286.158447265625
2609,73.511474609375,385.1423645019531,83.09683990478516,297.5015563964844
2610,54.65489959716797,369.6554565429688,71.78363800048828,284.9280090332031
2611,56.69314193725586,366.6410827636719,61.88038635253906,287.9423828125
2612,73.52643585205078,373.133544921875,66.73477172851561,305.2356872558594
2613,74.2557144165039,383.6763305664063,69.88002777099611,310.0975341796875
2614,58.30503845214844,365.1825256347656,62.03746032714844,300.1195068359375
2615,55.43653869628906,364.1241455078125,55.4066162109375,298.3131103515625
2616,70.23905944824219,368.0173645019531,61.45403671264648,296.8358459472656
2617,84.1103515625,378.238525390625,74.00140380859375,301.746337890625
2618,70.26898193359375,368.3390197753906,69.38636016845703,287.54595947265625
2619,67.07136535644531,366.12872314453125,67.30697631835939,283.8210144042969
2620,76.20793914794922,371.0953063964844,68.78797912597656,296.4693603515625
2621,80.7780990600586,385.5949096679688,78.56781768798828,303.01043701171875
2622,60.74345397949219,372.0302734375,69.27790832519531,289.59539794921875
2623,62.46754837036133,368.2679443359375,70.57191467285156,284.0379333496094
2624,77.408447265625,380.1832580566406,77.54308319091797,295.2015380859375
2625,80.83419799804688,388.2016296386719,88.67676544189453,303.4068603515625
2626,69.61449432373047,377.0903625488281,80.63224029541016,293.4101257324219
2627,61.66720962524414,364.2064208984375,70.34004211425781,290.466796875
2628,79.0914077758789,375.77392578125,72.20624542236328,303.7696228027344
2629,81.72055053710938,380.01123046875,82.46479034423828,312.6930236816406
2630,61.67469024658203,368.4175415039063,68.78424072265625,294.4273681640625
2631,56.87639999389648,361.41644287109375,64.10562133789061,290.0329895019531
2632,76.40615844726562,374.83148193359375,73.51521301269531,315.0192565917969
2633,86.36177062988281,380.8190612792969,75.79655456542969,320.85723876953125
2634,67.69219207763672,369.22161865234375,67.74080657958984,307.3749084472656
2635,55.27572250366211,361.9961242675781,66.11769104003906,297.72222900390625
2636,79.41677856445312,381.3688049316406,77.15039825439453,314.63031005859375
2637,78.96798706054688,379.2969055175781,81.84770965576172,316.2608947753906
2638,63.843833923339844,372.7745361328125,75.51232147216797,304.26702880859375
2639,51.86119079589844,364.4083862304688,62.10477828979492,289.3971862792969
2640,74.06124114990234,381.3426513671875,76.05086517333984,302.16522216796875
2641,75.63573455810547,384.4018859863281,82.2852783203125,296.8994445800781
2642,61.20720291137695,370.6427917480469,73.56008911132812,279.198486328125
2643,52.182823181152344,360.8330383300781,66.97412872314453,270.55557250976557
2644,69.48360443115234,376.17034912109375,71.27875518798828,290.747314453125
2645,77.0045394897461,385.6173400878906,81.44754028320312,302.1465148925781
2646,59.45318984985352,367.4638671875,66.24111175537111,287.1345520019531
2647,52.89340591430664,361.4127197265625,58.51821517944336,284.0827941894531
2648,76.9634017944336,381.1631164550781,69.37514495849611,309.84698486328125
2649,80.28816986083984,383.5379638671875,76.08826446533203,318.388916015625
2650,64.15424346923828,363.8810424804688,66.97412872314453,298.9937744140625
2651,53.74236297607422,356.4087219238281,55.17848205566406,296.6114807128906
2652,76.40615844726562,373.5860900878906,67.52389526367189,314.0693054199219
2653,84.78726959228516,382.2252502441406,77.50568389892578,322.0577392578125
2654,68.57480621337889,369.4460144042969,68.89643859863281,301.63787841796875
2655,55.60483169555664,357.68402099609375,59.920677185058594,292.5611572265625
2656,71.12541961669922,373.8441467285156,60.20491027832031,303.9566345214844
2657,78.50798034667969,380.3179016113281,71.57794189453125,317.4464416503906
2658,62.1309585571289,368.6120300292969,66.74973297119139,287.91619873046875
2659,53.0953598022461,365.8893737792969,60.39938354492188,285.313232421875
2660,65.75118255615234,381.5670471191406,69.779052734375,301.3125305175781
2661,76.78014373779297,390.774658203125,77.29624938964844,301.2825927734375
2662,57.28030776977539,373.4215393066406,70.08198547363281,279.90158081054693
2663,50.69808197021485,376.0768737792969,63.94107055664063,271.89071655273443
2664,69.78652954101561,388.9608154296875,68.41398620605469,284.2510986328125
2665,80.3180923461914,398.8902587890625,81.5859146118164,294.70037841796875
2666,63.2828483581543,384.7085571289063,75.43003845214844,287.3252868652344
2667,57.94226837158203,378.0028991699219,66.70111846923828,282.01837158203125
2668,72.07160949707031,391.8180847167969,68.45138549804689,301.4359436035156
2669,79.01660919189453,399.2193603515625,75.46743774414062,316.3880615234375
2670,60.17124938964844,380.72930908203125,67.46405792236328,294.6368103027344
2671,52.23144149780274,373.5187683105469,54.90172958374024,293.3240966796875
2672,67.37055969238281,389.8209838867188,64.61798858642578,313.0670166015625
2673,69.87628936767578,388.074462890625,68.70944213867189,321.2012939453125
2674,49.23952102661133,370.4931945800781,57.69917678833008,304.50640869140625
2675,44.848880767822266,363.42852783203125,47.24989700317383,297.8979797363281
2676,60.23482894897461,385.6958923339844,60.17873001098633,319.07330322265625
2677,62.80413818359375,387.8537902832031,65.63898468017578,324.3914489746094
2678,58.10308456420898,378.6199951171875,64.14676666259766,308.93817138671875
2679,56.78664016723633,370.35107421875,57.14192962646485,298.7581787109375
2680,64.92465972900389,379.7344970703125,65.79979705810547,307.9508361816406
2681,82.53211212158203,389.9182434082031,81.4587631225586,308.5006103515625
2682,66.56273651123047,375.515869140625,70.01840972900389,286.0948791503906
2683,64.89474487304689,374.1433410644531,71.34233093261719,278.62628173828125
2684,73.20854187011719,382.5917663574219,70.69532775878906,282.3661804199219
2685,83.0482177734375,394.2378234863281,77.43463134765625,286.06121826171875
2686,70.63175201416016,380.4001770019531,73.15618133544922,271.44192504882807
2687,58.64911270141602,366.4279174804688,54.049034118652344,258.38967895507807
2688,70.71776580810547,378.7135009765625,60.3245849609375,273.51385498046875
2689,77.80113983154297,388.1043701171875,67.96520233154297,286.334228515625
2690,57.78893280029297,369.741455078125,54.58758163452149,287.3103332519531
2691,50.13335800170898,371.0205078125,47.57526779174805,291.8580627441406
2692,68.72814178466797,382.5618591308594,54.06399536132813,314.2413635253906
2693,71.4059066772461,387.0123291015625,63.99342727661133,321.0404968261719
2694,51.68541717529297,367.68450927734375,55.27198028564453,306.94854736328125
2695,44.01862335205078,360.8255615234375,50.92995834350586,302.8795471191406
2696,60.18994903564453,374.835205078125,54.77831649780274,317.13604736328125
2697,66.80209350585939,382.63665771484375,66.64127349853516,325.6854553222656
2698,45.75393676757813,368.7877807617188,52.13420486450195,300.1905517578125
2699,43.02006912231445,368.8064880371094,50.956138610839844,295.0070495605469
2700,56.75298309326172,381.4473571777344,57.50096130371094,306.2080383300781
2701,62.08234024047852,391.04766845703125,74.11359405517578,305.5311279296875
2702,50.047340393066406,375.16058349609375,68.68326568603516,283.7125549316406
2703,45.088233947753906,369.5806579589844,59.883277893066406,278.63375854492193
2704,67.84178161621094,384.87310791015625,65.66142272949219,287.7890319824219
2705,83.8709945678711,394.8137512207031,87.28926849365234,297.5726318359375
2706,69.37140655517578,377.6700439453125,77.47950744628906,278.5814208984375
2707,64.09440612792969,363.8211975097656,68.46634674072266,269.66921997070307
2708,78.81465148925781,377.1950988769531,75.9424057006836,285.07012939453125
2709,75.15702819824219,384.1587829589844,76.44355773925781,290.1376953125
2710,56.95493698120117,374.4163513183594,68.18959808349611,283.9967956542969
2711,35.484169006347656,364.3709716796875,51.04963302612305,281.26666259765625
2712,50.38019180297852,374.2143859863281,49.48635482788086,309.45428466796875
2713,55.56743240356445,386.1671142578125,60.69857788085938,320.913330078125
2714,46.91330337524414,368.36517333984375,51.300209045410156,312.93988037109375
2715,37.70567321777344,353.9553527832031,43.11356735229492,301.3948059082031
2716,57.37754440307617,373.3990783691406,57.65055847167969,319.4285888671875
2717,65.97183227539061,375.3999328613281,64.64417266845703,318.882568359375
2718,54.22854995727539,364.98431396484375,62.73682022094727,306.5895080566406
2719,46.46077728271485,362.9273681640625,56.55476760864258,295.7587585449219
2720,68.63838195800781,382.0008544921875,70.18296051025389,302.931884765625
2721,75.22434997558594,390.8606872558594,83.4708251953125,312.1470031738281
2722,60.88183212280274,372.4977722167969,72.92057037353516,292.3105773925781
2723,53.24121475219727,370.02197265625,65.09669494628906,286.64837646484375
2724,69.76035308837889,381.0771179199219,69.91742706298828,294.7789001464844
2725,77.56926727294922,397.2970581054688,79.37937927246094,300.13446044921875
2726,62.21697616577149,379.4465026855469,78.50798034667969,275.08087158203125
2727,56.67444229125977,370.3847351074219,73.75457000732422,270.7650146484375
2728,75.98355102539062,380.1009826660156,76.29396057128906,287.79278564453125
2729,85.92046356201172,388.8299255371094,84.60027313232422,300.0895690917969
2730,61.56997299194336,372.8081970214844,69.74913787841797,284.1463928222656
2731,51.1880111694336,360.021484375,60.9940299987793,275.18557739257807
2732,63.3464241027832,379.4988708496094,65.54548645019531,295.9345397949219
2733,69.99596405029297,382.2925720214844,70.69532775878906,306.40625
2734,57.35136413574219,375.5308227539063,63.09585189819336,301.33868408203125
2735,51.06833267211914,369.0121765136719,55.17100524902344,301.7500915527344
2736,64.16172027587889,372.4678649902344,61.67469024658203,313.44476318359375
2737,74.78304290771484,381.61566162109375,69.61824035644531,320.5505676269531
2738,53.61520385742188,366.6036987304688,58.65658950805664,306.3164978027344
2739,61.84298706054688,365.3022155761719,63.3950424194336,298.3692321777344
2740,71.51810455322266,376.1778259277344,72.07909393310547,310.0601501464844
2741,74.2519760131836,381.60443115234375,79.12132263183594,309.5552673339844
2742,67.55381011962889,374.5921325683594,75.17198944091797,295.2800598144531
2743,64.5618896484375,366.1885681152344,67.86796569824219,287.90496826171875
2744,76.46973419189453,374.2966613769531,76.75022888183594,291.4691162109375
2745,88.49351501464844,383.4631652832031,90.1727294921875,299.3528137207031
2746,71.75746154785156,370.8222961425781,86.00647735595703,278.24856567382807
2747,66.77591705322266,369.8424377441406,83.39228820800781,269.53457641601557
2748,85.89427947998047,380.6470031738281,90.46443939208984,285.6124267578125
2749,93.89019012451172,383.6763305664063,97.80960083007812,295.8784484863281
2750,75.64695739746094,369.43853759765625,84.07295227050781,290.4181823730469
2751,66.33460235595703,360.4029541015625,79.60376739501953,289.9207763671875
2752,69.42002105712889,369.6367492675781,77.3074722290039,308.8633728027344
2753,73.4478988647461,375.44482421875,78.05545043945312,316.8705139160156
2754,53.57406616210938,356.33392333984375,61.7681884765625,299.3004455566406
2755,41.91679763793945,350.82879638671875,53.4693489074707,294.33013916015625
2756,57.91983032226562,367.50128173828125,60.10393142700195,308.42205810546875
2757,68.35789489746094,377.2624206542969,71.67518615722656,315.1277160644531
2758,49.25448226928711,358.3048400878906,63.51845932006836,299.5024108886719
2759,48.62617874145508,353.6972961425781,55.44027709960938,287.0074157714844
2760,75.43003845214844,371.9779357910156,67.572509765625,304.60736083984375
2761,84.67133331298828,375.9085693359375,80.1385726928711,307.27764892578125
2762,74.30059051513672,363.3724060058594,76.30892181396484,290.9455261230469
2763,76.23786163330078,358.02435302734375,72.30348205566406,280.62713623046875
2764,89.64913940429688,366.6934509277344,75.74793243408203,290.9043884277344
2765,94.71670532226562,374.49114990234375,86.89283752441406,297.673583984375
2766,77.14291381835938,359.0191650390625,81.34282684326172,273.98507690429693
2767,65.81101989746094,357.1043395996094,73.70968627929688,260.61492919921875
2768,81.08477020263672,370.8896179199219,74.25945281982422,271.0380249023437
2769,85.5763931274414,383.9269104003906,86.30193328857422,281.053466796875
2770,63.28658676147461,364.24755859375,73.07390594482422,265.88070678710943
2771,56.53606796264648,361.38653564453125,71.73876190185547,272.74716186523443
2772,77.33739471435547,378.7135009765625,76.1219253540039,298.2644958496094
2773,83.27261352539062,380.9088134765625,90.9394073486328,320.2925109863281
2774,71.39095306396484,363.64544677734375,83.24642944335938,309.50665283203125
2775,61.10248565673828,351.53564453125,69.73043823242189,300.6842041015625
2776,74.3753890991211,367.02630615234375,66.83949279785156,312.9024658203125
2777,78.66131591796875,376.4246826171875,74.91767883300781,318.96112060546875
2778,63.12951278686523,357.1716613769531,66.94046783447266,296.9293518066406
2779,50.20815658569336,352.5155029296875,51.87989044189453,277.88204956054693
2780,70.25028228759766,366.83929443359375,60.55271911621094,286.3828430175781
2781,78.30602264404297,377.9430847167969,77.03820037841797,289.5430603027344
2782,68.14471435546875,363.9034729003906,76.67916870117188,278.8319702148437
2783,67.4490966796875,359.6063537597656,73.73587036132812,272.97531127929693
2784,70.67288970947266,369.576904296875,76.05086517333984,282.39984130859375
2785,80.9987564086914,375.63555908203125,87.37528228759766,294.4273681640625
2786,61.49143600463867,366.0464477539063,81.68315124511719,282.1978759765625
2787,61.409156799316406,362.1569519042969,83.23895263671875,284.53533935546875
2788,71.84722137451172,376.3311767578125,84.84336853027344,298.3168640136719
2789,75.60955810546875,377.5989990234375,90.09793090820312,297.0527648925781
2790,63.52968215942383,373.6982727050781,83.14545440673828,283.705078125
2791,59.42327117919922,367.4339599609375,73.88545989990234,278.9815673828125
2792,75.09345245361328,374.2330932617188,77.90959930419922,293.8252258300781
2793,90.07549285888672,382.0382690429688,91.26851654052734,309.7796630859375
2794,72.7073974609375,362.40753173828125,83.50822448730469,300.5907287597656
2795,65.87085723876953,353.9703063964844,71.95193481445312,295.1155090332031
2796,80.79679870605469,358.555419921875,72.64007568359375,305.5198974609375
2797,84.7723159790039,371.2149963378906,83.60172271728516,318.81524658203125
2798,65.81475830078125,360.1972351074219,75.13459014892578,307.6329650878906
2799,61.04077529907226,353.126953125,66.92176818847656,306.4399108886719
2800,69.82954406738281,367.9219970703125,71.23013305664062,311.6271667480469
2801,68.55797576904297,368.4605407714844,68.88895416259766,300.4822692871094
2802,58.12739562988281,359.74285888671875,67.35559844970703,291.63739013671875
2803,57.91796112060547,353.0521545410156,58.7276496887207,288.0433654785156
2804,67.68283843994139,363.2620849609375,61.16606521606445,296.6264343261719
2805,79.1269302368164,387.2311096191406,77.22893524169922,313.4896240234375
2806,64.61985778808594,369.2010498046875,73.79570770263672,292.19091796875
2807,58.05633544921875,362.962890625,70.4821548461914,275.82135009765625
2808,75.3533706665039,376.20587158203125,80.6546859741211,294.2029724121094
2809,90.35411071777344,386.1802062988281,98.71839904785156,305.3478698730469
2810,66.08216094970703,365.4461975097656,81.20819091796875,291.0315246582031
2811,60.08710098266602,358.0523986816406,68.37284851074219,287.15325927734375
2812,71.64713287353516,368.2922668457031,73.80692291259766,311.428955078125
2813,76.82315826416016,379.4932556152344,78.4930191040039,315.8083801269531
2814,67.16673278808594,363.7894287109375,66.386962890625,312.71173095703125
2815,58.08625793457031,349.8059387207031,56.1171989440918,306.25665283203125
2816,67.68657684326172,364.36163330078125,56.8502197265625,318.5085754394531
2817,79.60564422607422,377.1632995605469,70.75890350341797,331.2579040527344
2818,52.58112335205078,357.7906188964844,55.27198028564453,303.1712646484375
2819,47.24054718017578,349.8994445800781,50.72052383422852,298.3056335449219
2820,60.61442947387695,369.7807312011719,54.2322883605957,306.59698486328125
2821,66.82640075683594,378.2516174316406,65.50808715820311,312.5845642089844
2822,52.49136734008789,364.84033203125,63.53342056274414,296.02056884765625
2823,46.27939224243164,363.5837097167969,60.6948356628418,280.46258544921875
2824,58.51260375976562,381.0827026367188,65.87085723876953,305.5498352050781
2825,63.81204223632813,385.85107421875,73.93782043457031,306.3875732421875
2826,56.34720230102539,379.8710021972656,76.99706268310547,297.88677978515625
2827,52.07997512817383,373.2887573242188,71.61160278320312,289.07183837890625
2828,66.59452819824219,381.85687255859375,69.98848724365234,296.7648010253906
2829,74.67645263671875,387.2984313964844,79.27839660644531,304.1735534667969
2830,51.58631134033203,366.6354675292969,68.24943542480469,289.64404296875
2831,47.65567398071289,362.0653381347656,54.70351791381836,289.1503601074219
2832,60.27783584594727,374.39202880859375,61.24834060668945,309.16632080078125
2833,72.38389587402344,377.60833740234375,71.04313659667969,321.7398681640625
2834,58.55000305175781,359.5072326660156,64.95458221435547,306.9148864746094
2835,53.57593536376953,352.63330078125,52.40721893310547,306.1407165527344
2836,66.98722076416016,366.6953125,61.24460220336914,316.1487121582031
2837,71.14225006103516,373.408447265625,68.22699737548828,319.2640380859375
2838,58.336830139160156,363.9390258789063,57.74031448364258,304.0762939453125
2839,43.328609466552734,352.09100341796875,50.03985977172852,290.3583679199219
2840,62.68633270263672,376.1123962402344,63.17438888549805,302.5205078125
2841,68.24008178710939,386.4532165527344,75.26174926757812,307.367431640625
2842,45.51271438598633,375.427978515625,67.44161224365234,291.8804931640625
2843,37.24753189086914,368.819580078125,61.44281768798828,280.74307250976557
2844,55.18035507202149,387.91925048828125,65.36222839355469,295.39227294921875
2845,65.20702362060547,398.1179504394531,81.3802261352539,304.65972900390625
2846,47.206886291503906,379.4259338378906,70.05954742431639,281.569580078125
2847,46.48882675170898,376.3779296875,64.46465301513672,278.9217529296875
2848,69.32839202880861,388.92529296875,77.93577575683594,301.47332763671875
2849,73.83123779296875,386.5093078613281,83.60172271728516,299.386474609375
2850,54.772705078125,371.72174072265625,71.37599182128906,283.7948303222656
2851,53.35902404785156,365.262939453125,63.79147338867188,283.2263488769531
2852,57.843162536621094,370.8129577636719,55.343040466308594,289.3223876953125
2853,74.0444107055664,380.0841674804688,68.78050231933594,311.6159362792969
2854,57.90674209594727,368.6812133789063,60.55271911621094,300.7029113769531
2855,48.61309051513672,356.8369445800781,48.01283645629883,288.70904541015625
2856,66.87128448486328,374.8482971191406,56.30793380737305,303.21240234375
2857,64.44408416748047,383.3865051269531,55.92272567749024,307.1392822265625
2858,51.45915222167969,372.48468017578125,58.49203491210938,293.2118835449219
2859,47.31908416748047,364.86651611328125,55.85540771484375,291.39056396484375
2860,58.92399215698242,379.9046325683594,63.05845260620117,298.82550048828125
2861,65.52491760253906,389.0187683105469,73.4890365600586,309.3046875
2862,45.449134826660156,376.3143310546875,66.19622802734375,291.2185363769531
2863,37.225093841552734,370.88775634765625,60.73971557617188,285.15240478515625
2864,55.34864807128906,386.7823181152344,70.8224868774414,303.0777587890625
2865,61.235252380371094,396.21807861328125,78.18634796142578,296.6039733886719
2866,44.51789855957031,380.510498046875,71.11419677734375,273.84295654296875
2867,35.39254379272461,375.3419799804688,60.01043319702149,260.12875366210943
2868,49.91083526611328,388.2184448242188,63.60447692871094,272.4554443359375
2869,58.677162170410156,391.0757141113281,66.32712554931639,271.67379760742193
2870,49.682701110839844,382.9564208984375,61.52509307861328,264.82980346679693
2871,46.4439468383789,375.2035827636719,54.45294189453125,267.7843017578125
2872,62.68633270263672,382.6160888671875,61.92152404785156,281.3638916015625
2873,71.38908386230469,387.05908203125,66.39444732666016,293.3016662597656
2874,53.98358535766602,367.3610229492188,58.585533142089844,282.7962646484375
2875,54.34261703491211,358.2805480957031,52.57177352905274,285.7695007324219
2876,59.76921081542969,371.7516784667969,53.78350067138672,311.2045593261719
2877,65.76052856445311,372.2939453125,60.03661346435547,309.4916687011719
2878,52.94389343261719,362.0989685058594,50.94117736816406,297.1163635253906
2879,51.23101806640625,358.8826599121094,46.37475967407226,294.5021667480469
2880,73.38618469238281,376.21710205078125,59.80474090576172,306.94854736328125
2881,76.96527099609375,380.9031982421875,69.10587310791016,308.7287292480469
2882,54.4622917175293,367.2450866699219,63.36886596679688,293.2305908203125
2883,50.15766906738281,362.7384948730469,57.19429016113281,284.7672119140625
2884,58.32561111450195,375.9515686035156,63.85131072998047,293.4288024902344
2885,60.1544189453125,378.79388427734375,70.34004211425781,294.3376159667969
2886,47.71177291870117,373.5954284667969,66.01671600341797,274.80410766601557
2887,44.36082458496094,373.25885009765625,62.28429412841797,268.73797607421875
2888,67.34999084472656,391.6853332519531,72.75975036621094,285.2908020019531
2889,81.05672454833984,396.1694641113281,82.21796417236328,291.7271423339844
2890,65.14344787597656,385.3125305175781,76.34632110595703,275.67550659179693
2891,56.80720901489258,370.9288940429688,61.96640396118164,270.56680297851557
2892,69.90059661865234,380.5366821289063,66.50289916992189,287.96856689453125
2893,74.62409210205078,380.5254821777344,69.64815521240234,292.3143310546875
2894,52.58112335205078,364.2008056640625,56.0760612487793,279.61737060546875
2895,44.54781723022461,356.0552978515625,40.32360076904297,270.30126953125
2896,65.47629547119139,367.75372314453125,57.975929260253906,304.0650939941406
2897,69.32091522216797,372.6118469238281,63.60073852539063,312.3115539550781
2898,54.67920684814453,358.4563293457031,54.09765243530274,297.69976806640625
2899,48.0184440612793,345.0412902832031,46.419639587402344,288.6866149902344
2900,69.1451416015625,368.4979553222656,62.17583847045898,303.58636474609375
2901,71.14972686767578,375.8319091796875,64.48335266113281,309.11767578125
2902,54.03594589233398,366.9870300292969,58.68276977539063,288.9858093261719
2903,46.402809143066406,365.06097412109375,55.80304718017578,281.54339599609375
2904,60.11702346801758,379.60919189453125,60.01791381835938,293.776611328125
2905,65.52491760253906,389.3254699707031,77.74130249023438,305.20574951171875
2906,56.83712768554688,379.51568603515625,69.27042388916016,291.3868103027344
2907,50.939308166503906,381.9989929199219,61.62607192993164,283.6976013183594
2908,61.80371856689453,391.3973693847656,70.70281219482422,299.7567138671875
2909,60.49849319458008,394.17236328125,75.19816589355469,302.2923583984375
2910,50.6363754272461,381.2884216308594,71.23387145996094,283.62652587890625
2911,51.57508850097656,373.50567626953125,59.99921417236328,272.96408081054693
2912,60.69670486450195,389.14593505859375,63.3763427734375,283.97808837890625
2913,63.17251968383789,389.78173828125,64.34123992919922,290.67999267578125
2914,53.00373077392578,379.665283203125,64.356201171875,283.1702575683594
2915,44.2149658203125,366.9870300292969,52.22770309448242,273.19967651367193
2916,68.98058319091797,379.26513671875,65.02564239501953,290.89691162109375
2917,72.1370620727539,383.6445617675781,66.64127349853516,296.2748718261719
2918,61.20907211303711,369.4403991699219,65.42581176757811,292.6920471191406
2919,50.2062873840332,357.7756652832031,58.98196029663086,285.8779602050781
2920,62.69007110595703,370.11358642578125,66.73103332519531,300.3738098144531
2921,74.02197265625,381.6773681640625,75.36646270751953,305.07861328125
2922,59.73555374145508,369.7283935546875,64.99571990966797,293.50360107421875
2923,53.38146209716797,367.3684997558594,56.80160140991211,287.0485534667969
2924,63.0640640258789,382.14111328125,67.13494110107422,294.7340393066406
2925,68.64399719238281,388.7906494140625,76.07704162597656,305.40771484375
2926,60.06466293334961,381.4080810546875,73.9153823852539,290.3359069824219
2927,53.46747970581055,369.58251953125,62.65828323364258,284.116455078125
2928,66.95729827880861,382.7095642089844,68.04000091552734,297.1575012207031
2929,72.42503356933594,388.4390869140625,80.41532897949219,301.7987060546875
2930,58.04885864257813,371.7030334472656,75.7778549194336,288.6529541015625
2931,41.35768508911133,363.2994995117188,58.11430358886719,275.18557739257807
2932,64.57872009277344,380.873291015625,66.49916076660156,298.1261291503906
2933,73.92098999023438,382.6422424316406,76.38372039794922,295.07061767578125
2934,72.94487762451172,370.6783142089844,85.30337524414062,285.88543701171875
2935,68.44577789306639,356.2946472167969,73.02154541015625,281.9809875488281
2936,81.68128204345703,370.3155517578125,80.74817657470703,294.9696350097656
2937,91.31526947021484,374.5042419433594,92.8205795288086,305.45257568359375
2938,73.39366912841797,360.1579895019531,83.03325653076172,294.621826171875
2939,62.69755172729492,352.1508483886719,74.9775161743164,287.6431884765625
2940,77.0924301147461,363.7632446289063,78.9156265258789,307.1392822265625
2941,79.90109252929688,372.48468017578125,82.25161743164062,310.34063720703125
2942,64.64230346679689,360.5169982910156,70.18296051025389,295.54559326171875
2943,50.45312118530274,355.72991943359375,53.10284042358398,281.98846435546875
2944,61.76257705688477,375.2709045410156,56.99981689453125,288.1256408691406
2945,65.38279724121094,388.2184448242188,62.08234024047852,285.4328918457031
2946,41.85134887695313,375.592529296875,55.54873275756836,270.46957397460943
2947,26.27840614318848,366.2539978027344,41.393211364746094,264.9083251953125
2948,47.79030990600586,383.2742919921875,60.51531982421875,295.92706298828125
2949,59.3615608215332,380.46563720703125,69.63694000244139,304.02020263671875
2950,50.63263702392578,366.5531921386719,59.00440216064453,290.76226806640625
2951,51.05524444580078,359.4660949707031,60.60881805419922,295.2912902832031
2952,66.97225952148439,371.5758972167969,69.41254425048828,308.2051696777344
2953,72.15202331542969,372.15557861328125,73.57878875732422,315.3221740722656
2954,61.6092414855957,363.4528198242188,62.79291915893555,301.9258728027344
2955,55.53564453125,358.74053955078125,57.635597229003906,291.1250305175781
2956,68.40090179443361,375.12506103515625,61.31565856933594,301.3873291015625
2957,77.16722869873047,375.5401916503906,73.08138275146484,307.4160461425781
2958,63.30341720581055,364.3878173828125,65.43702697753906,289.56549072265625
2959,58.69960021972656,354.3835754394531,61.93274307250977,284.22491455078125
2960,61.69525909423828,369.840576171875,61.24834060668945,300.4560852050781
2961,68.16154479980469,370.6521301269531,70.12686157226561,308.0892333984375
2962,58.568702697753906,365.7865295410156,66.74973297119139,297.07147216796875
2963,31.99297332763672,350.9802551269531,49.68831253051758,280.29428100585943
2964,48.19422149658203,376.2919006347656,56.0984992980957,298.33929443359375
2965,50.39702224731445,381.2659606933594,63.806434631347656,297.4342346191406
2966,30.86352348327637,369.93780517578125,57.16437149047852,278.95913696289057
2967,29.10951042175293,365.5957946777344,50.73548126220703,277.95309448242193
2968,49.28253173828125,383.7193603515625,70.37743377685547,302.2961120605469
2969,53.93496704101562,392.42584228515625,75.23182678222656,302.2026062011719
2970,41.34646224975586,379.1678771972656,64.15050506591797,289.80859375
2971,40.26189422607422,367.11419677734375,58.34991836547852,289.4869689941406
2972,60.53215026855469,376.0787353515625,64.31505584716797,295.137939453125
2973,74.75498962402344,384.089599609375,73.38805389404297,305.0224914550781
2974,58.336830139160156,365.1395263671875,56.4388313293457,281.3900756835937
2975,63.31463623046875,359.0547180175781,55.28694152832031,280.32418823242193
2976,76.18363189697266,369.2608947753906,63.47732162475586,298.8479309082031
2977,81.74860382080078,382.5936279296875,78.4930191040039,307.9957275390625
2978,56.94932556152344,365.1432495117188,70.92720031738281,293.436279296875
2979,42.73396682739258,360.3973388671875,55.62353134155274,286.81292724609375
2980,60.4723129272461,376.0675048828125,59.48684692382813,293.6606750488281
2981,55.0943374633789,385.110595703125,64.25896453857422,301.6117248535156
2982,36.222801208496094,370.7306823730469,59.18765640258789,284.01922607421875
2983,30.46709442138672,363.396728515625,59.23253631591797,274.38525390625
2984,46.7618408203125,374.7174072265625,68.66830444335939,285.4852600097656
2985,59.11098861694336,385.4957885742188,79.40555572509766,290.33966064453125
2986,47.68185424804688,380.4020690917969,81.74673461914062,278.71603393554693
2987,42.34875869750977,366.1380615234375,73.02528381347656,269.77395629882807
2988,64.43286895751953,379.4371643066406,79.06896209716797,283.0318908691406
2989,65.90638732910156,384.8226013183594,77.45706939697266,293.716796875
2990,59.327903747558594,370.697021484375,65.05930328369139,276.75259399414057
2991,57.52527236938477,365.262939453125,59.39335250854492,284.8681945800781
2992,71.35542297363281,373.9320373535156,67.77446746826172,309.1363830566406
2993,77.11860656738281,384.87872314453125,73.24594116210938,318.8601379394531
2994,57.34575653076172,367.11419677734375,62.68820190429688,301.0581970214844
2995,45.40051651000977,352.8726501464844,56.37151336669922,284.4605407714844
2996,51.63492965698242,367.1216735839844,59.08293914794922,307.7713317871094
2997,60.41621398925781,382.6011047363281,71.27875518798828,315.314697265625
2998,52.34550857543945,372.5445251464844,70.0782470703125,299.9923400878906
2999,43.89333724975586,363.7856750488281,65.09669494628906,295.1454162597656
3000,60.37133407592773,375.84124755859375,66.88623809814453,306.8830871582031
3001,72.37267303466797,387.4685974121094,85.1893081665039,310.1480407714844
3002,56.56411743164063,372.4828186035156,71.74810791015625,285.8312072753906
3003,50.07538986206055,369.52081298828125,66.1756591796875,272.27780151367193
3004,60.9360580444336,384.4991149902344,78.38643646240234,282.7420349121094
3005,70.21849060058594,393.3514709472656,87.01811981201172,289.44769287109375
3006,52.40534973144531,382.1055908203125,83.27448272705078,273.98321533203125
3007,42.13932418823242,376.5817565917969,74.72132873535156,272.19180297851557
3008,60.78646469116211,387.3489074707031,77.7955322265625,290.4125671386719
3009,73.63675689697266,396.2536315917969,91.99967193603516,302.7542419433594
3010,64.33563232421875,381.95599365234375,83.517578125,296.1458435058594
3011,58.44154739379883,366.3381652832031,74.03318786621094,285.9546203613281
3012,78.79782104492188,379.341796875,78.26301574707031,308.1060485839844
3013,84.99857330322266,378.9341430664063,92.46715545654295,317.8073425292969
3014,71.43022155761719,366.1661376953125,83.34554290771484,310.9969787597656
3015,61.75883865356445,358.1029052734375,73.99205017089844,302.8253173828125
3016,78.02366638183594,368.32403564453125,77.86284637451172,317.6614990234375
3017,82.70227813720703,373.1485290527344,87.54544830322266,322.5981750488281
3018,70.64483642578125,360.3505859375,84.68816375732422,302.8178405761719
3019,62.47689819335938,352.7436218261719,70.36808776855469,289.111083984375
3020,71.01509094238281,371.27484130859375,70.11751556396484,297.2603454589844
3021,78.88758087158203,382.0270385742188,81.57656860351562,293.7074279785156
3022,54.68294906616211,370.6614990234375,83.63725280761719,279.05825805664057
3023,44.345863342285156,365.17132568359375,72.68682861328125,270.4452514648437
3024,60.01978302001953,382.97698974609375,82.94911193847656,285.9022521972656
3025,67.04705810546875,397.4167175292969,91.8089370727539,285.5731506347656
3026,58.20967102050781,385.7968444824219,83.52505493164062,271.11843872070307
3027,52.71202087402344,374.8015441894531,72.82520294189453,259.13204956054693
3028,72.19316101074219,395.5841674804688,81.4344482421875,283.875244140625
3029,70.68598175048828,396.6051635742188,82.14877319335938,296.8227844238281
3030,57.82072448730469,382.32623291015625,73.33008575439453,295.83544921875
3031,55.2252311706543,369.8948059082031,69.66872406005861,292.5667724609375
3032,69.68368530273439,380.5198669433594,76.62493896484375,314.5050048828125
3033,74.41465759277344,382.124267578125,77.2794189453125,321.3116455078125
3034,63.93920135498047,367.6882629394531,69.06660461425781,313.5700378417969
3035,51.15996170043945,358.7798156738281,56.74737167358398,307.8180847167969
3036,71.60599517822266,372.288330078125,66.64688873291016,321.1022033691406
3037,76.135009765625,378.5302429199219,71.28062438964844,321.9773254394531
3038,62.17770767211914,361.4987182617188,70.10629272460939,300.8543701171875
3039,55.58052444458008,353.802001953125,58.01893615722656,286.8858642578125
3040,67.85861206054689,370.9606628417969,65.67451477050781,294.896728515625
3041,75.11402130126953,381.9410095214844,80.5667953491211,299.5865478515625
3042,72.48487091064453,379.6110534667969,81.71868133544922,286.48944091796875
3043,59.36530303955078,372.628662109375,73.57318115234375,275.79705810546875
3044,75.39451599121094,380.4525451660156,76.44916534423828,285.0308532714844
3045,75.21499633789062,384.7496948242188,86.04949188232422,289.1971130371094
3046,60.36011505126953,375.9609375,76.78575897216797,271.38021850585943
3047,51.739646911621094,375.1680603027344,67.69779968261719,270.4302978515625
3048,58.46398544311523,384.8095397949219,69.94174194335939,283.7630310058594
3049,60.0833625793457,393.3888549804688,73.95838928222656,287.4131774902344
3050,47.81275177001953,385.3144226074219,64.5263671875,281.3994140625
3051,38.64251708984375,374.4462585449219,57.33079528808594,278.91238403320307
3052,61.29135131835938,383.3808898925781,69.58271026611328,301.1161804199219
3053,68.64399719238281,385.8866271972656,78.57342529296875,318.6899719238281
3054,54.17806243896485,367.9575500488281,66.16069793701172,305.9518737792969
3055,44.30098342895508,363.0395812988281,51.07768249511719,293.6101989746094
3056,60.56954956054688,370.5343322753906,54.88864135742188,308.0836181640625
3057,76.21729278564453,385.011474609375,70.55134582519531,323.5705261230469
3058,62.43576049804688,366.2558898925781,59.7205924987793,306.9055480957031
3059,56.06296920776367,364.7337341308594,56.6800537109375,299.9605407714844
3060,67.24526977539061,372.31451416015625,59.37652206420898,308.26312255859375
3061,75.87696075439453,379.0238952636719,68.81228637695311,312.8445129394531
3062,60.16189956665039,366.7233581542969,62.3497428894043,298.35614013671875
3063,57.23729705810547,363.6117858886719,59.64205551147461,289.6084899902344
3064,74.07807159423828,373.2120971679688,69.94174194335939,301.5500183105469
3065,73.93595123291016,387.9323425292969,79.11945343017578,306.587646484375
3066,53.20194625854492,372.793212890625,67.27145385742189,279.97079467773443
3067,51.3693962097168,365.3583068847656,58.28073120117188,264.88775634765625
3068,65.01255035400389,385.9090576171875,69.76970672607422,278.90866088867193
3069,63.1426010131836,382.44964599609375,73.48716735839844,280.6065673828125
3070,50.11652755737305,378.7508850097656,66.28411865234375,273.007080078125
3071,41.387603759765625,367.1871032714844,56.21256637573242,267.7301025390625
3072,59.88140869140625,389.16650390625,65.85028839111328,288.8156433105469
3073,64.99385070800781,399.1669921875,72.39137268066406,302.67572021484375
3074,46.50004577636719,381.3576049804688,62.74617004394531,288.20977783203125
3075,49.091796875,375.8225402832031,57.92169952392578,295.412841796875
3076,64.57124328613281,384.7459411621094,61.1866340637207,304.24273681640625
3077,68.05683135986328,390.62506103515625,63.4941520690918,318.8470458984375
3078,54.04342269897461,374.8277282714844,49.94449234008789,300.6673889160156
3079,52.76811981201172,364.6739196777344,50.05669021606445,300.16998291015625
3080,66.38883209228516,374.1582946777344,62.09917068481445,308.1434326171875
3081,80.12174987792969,381.1070251464844,71.60599517822266,317.1416320800781
3082,71.5386734008789,370.8185729980469,70.41670989990234,305.1515197753906
3083,57.07648468017578,358.1141052246094,60.72288513183594,294.9303894042969
3084,73.82001495361328,373.5973205566406,61.53444290161133,304.3848571777344
3085,74.33985900878906,381.537109375,68.71878814697266,302.8739318847656
3086,56.18638610839844,370.8410034179688,58.796836853027344,287.16259765625
3087,48.37373733520508,368.2903747558594,58.837974548339844,273.1529541015625
3088,64.47026824951172,383.1340637207031,66.53095245361328,292.8734436035156
3089,65.46508026123047,388.9159240722656,67.88105773925781,295.3155822753906
3090,50.08660888671875,371.9143371582031,63.49789047241211,276.29818725585943
3091,31.353450775146484,371.4992370605469,53.6993522644043,268.440673828125
3092,56.429481506347656,387.06842041015625,63.082763671875,292.8061218261719
3093,59.99360656738281,393.78155517578125,72.41754913330078,300.6412048339844
3094,56.60525512695313,375.7140808105469,65.90264892578125,285.40484619140625
3095,54.10326385498047,366.49896240234375,61.56062316894531,286.7026062011719
3096,71.89396667480469,370.8783874511719,66.73664855957031,297.1556091308594
3097,83.97758483886719,385.4939270019531,75.17012023925781,316.0084533691406
3098,63.83822250366211,364.3223571777344,68.25130462646484,299.8221740722656
3099,55.57304382324219,357.4858093261719,52.34925079345703,294.0440368652344
3100,73.34878540039062,363.6716003417969,58.5163459777832,311.4644775390625
3101,81.44193267822266,374.86138916015625,71.36289978027344,324.74859619140625
3102,63.99155807495117,363.0993957519531,63.78212356567383,311.1465759277344
3103,52.41282653808594,350.6156311035156,47.52103805541992,290.5621643066406
3104,73.10943603515625,367.36663818359375,63.09772109985352,299.9268798828125
3105,73.19171142578125,379.17724609375,69.51538848876953,297.267822265625
3106,58.80431747436523,364.0418701171875,65.68572998046875,279.34622192382807
3107,53.43381881713867,360.8367614746094,60.82760238647461,275.3632202148437
3108,63.57268905639648,382.6590881347656,71.75933074951172,284.204345703125
3109,75.43191528320312,389.7125244140625,85.64183807373047,294.3320007324219
3110,59.16708755493164,379.083740234375,77.91520690917969,282.173583984375
3111,42.30013656616211,372.475341796875,64.27578735351561,269.66360473632807
3112,57.92544174194336,390.0341796875,73.06829833984375,282.70465087890625
3113,67.62673950195311,396.9380187988281,76.37810516357422,290.4350280761719
3114,46.72444152832031,383.4482116699219,76.0714340209961,285.917236328125
3115,50.23994445800781,379.6110534667969,74.51937866210938,282.3007507324219
3116,64.87417602539061,383.2013549804688,70.65605926513672,295.60357666015625
3117,79.59068298339844,384.7010803222656,76.30330657958984,315.00616455078125
3118,62.39836120605469,367.36663818359375,68.15780639648439,295.8877868652344
3119,53.841468811035156,356.2366943359375,54.4622917175293,286.3061828613281
3120,69.77718353271484,369.7153015136719,62.6713752746582,303.9173583984375
3121,78.52107238769531,376.7874450683594,65.43141937255861,314.2394714355469
3122,60.67800521850586,367.2843627929688,70.55882263183594,299.73614501953125
3123,53.45251846313477,361.2593688964844,52.67462158203125,292.2638244628906
3124,70.66353607177734,370.0182189941406,60.30027770996094,301.340576171875
3125,77.10738372802734,379.5474853515625,67.69406127929689,309.803955078125
3126,58.55374526977539,366.7196350097656,60.38255310058594,286.72503662109375
3127,53.10844802856445,365.59765625,57.89926147460938,287.244873046875
3128,65.16962432861328,371.4206848144531,55.99565124511719,291.1979675292969
3129,70.52142333984375,380.1271667480469,64.44408416748047,294.4441833496094
3130,64.33563232421875,374.1059265136719,68.97684478759766,284.0809326171875
3131,50.11278915405274,375.96466064453125,64.94523620605469,277.53985595703125
3132,59.07358932495117,389.6302490234375,73.48716735839844,291.0184326171875
3133,66.76656341552734,401.8934020996094,87.47064971923828,304.85980224609375
3134,53.2580451965332,389.9855346679688,81.76730346679688,293.33343505859375
3135,47.16948699951172,376.7463073730469,73.92098999023438,283.45635986328125
3136,62.62649536132813,393.0522766113281,79.71409606933594,301.64349365234375
3137,75.00556182861328,392.734375,86.44591522216797,311.1578063964844
3138,64.78815460205078,373.6945495605469,83.29318237304688,300.1886901855469
3139,55.29254913330078,355.4251403808594,68.77114868164061,289.9712829589844
3140,69.47425079345703,366.11376953125,67.02835845947266,303.52093505859375
3141,78.5397720336914,368.9486083984375,78.57342529296875,315.2043762207031
3142,62.12534713745117,352.91192626953125,64.79937744140625,292.9407653808594
3143,63.714805603027344,351.8198547363281,62.20388412475586,294.040283203125
3144,73.52830505371094,362.1158142089844,61.2763900756836,302.07733154296875
3145,82.42178344726562,372.6324157714844,71.03752899169922,304.47833251953125
3146,57.502830505371094,355.06610107421875,64.91905212402344,283.4002685546875
3147,49.82855606079102,357.4334716796875,56.6501350402832,275.95785522460943
3148,62.39836120605469,370.0069885253906,63.46797180175781,284.9485778808594
3149,75.73858642578125,386.69818115234375,73.77887725830078,293.8345947265625
3150,55.07563781738281,372.0639343261719,63.68488693237305,283.33294677734375
3151,52.46144485473633,364.69635009765625,65.80541229248047,282.8205871582031
3152,58.677162170410156,378.3133239746094,64.20847320556639,291.2764892578125
3153,60.61068725585938,382.6665649414063,67.67162322998047,299.2125549316406
3154,54.53709030151367,377.3297119140625,66.86380004882811,296.99853515625
3155,48.77764511108398,363.93341064453125,61.28387069702149,292.7238464355469
3156,59.15212631225586,373.2607116699219,67.79129791259766,303.0272521972656
3157,69.66872406005861,381.454833984375,75.14393615722656,308.4164733886719
3158,61.05199813842773,366.2783203125,75.62265014648438,287.3047180175781
3159,59.43635940551758,357.2913513183594,68.50935363769531,283.0636901855469
3160,76.76331329345703,371.6787414550781,72.79154205322266,292.20025634765625
3161,81.38583374023438,379.1286315917969,80.40972137451172,300.2185974121094
3162,63.26601791381836,356.3302001953125,67.08071899414061,277.584716796875
3163,64.47026824951172,353.977783203125,65.74557495117189,277.04617309570307
3164,78.07975769042969,366.01654052734375,74.0818099975586,284.7615966796875
3165,84.50116729736328,371.7872009277344,80.03199005126953,291.0408935546875
3166,63.61382675170898,356.5022277832031,74.77742767333984,276.89657592773443
3167,62.64145278930664,349.60211181640625,67.04705810546875,272.84628295898443
3168,67.56690216064453,361.4912414550781,65.24068450927734,280.89080810546875
3169,70.00905609130861,382.27386474609375,72.65690612792969,289.122314453125
3170,46.92639541625977,368.5596618652344,63.56895065307617,273.22027587890625
3171,35.407501220703125,364.3111267089844,56.848350524902344,269.19985961914057
3172,51.51525115966797,382.6216735839844,65.85028839111328,290.1021728515625
3173,59.58221435546875,390.7372741699219,75.00182342529297,303.15069580078125
3174,45.53515243530274,376.5892333984375,66.96477508544922,291.23162841796875
3175,40.332950592041016,366.7757263183594,59.61961364746094,290.8987731933594
3176,54.795143127441406,377.7411193847656,63.11642074584961,304.1754150390625
3177,68.52805328369139,383.3958435058594,76.19859313964844,311.7861022949219
3178,65.27434539794922,361.4089660644531,70.02775573730469,291.7439880371094
3179,55.65532302856445,356.78271484375,59.50741958618164,281.45553588867193
3180,78.08350372314453,365.021728515625,64.98262786865234,292.091796875
3181,81.76730346679688,374.319091796875,72.61203002929688,297.9185485839844
3182,68.67391204833984,363.978271484375,68.07926940917969,282.7794494628906
3183,61.235252380371094,357.81866455078125,63.28471755981445,276.68341064453125
3184,71.05622863769531,365.6874084472656,60.00108337402344,292.5555419921875
3185,76.5351791381836,381.290283203125,76.28460693359375,302.8627014160156
3186,56.18638610839844,365.78466796875,61.36240768432617,288.3257141113281
3187,49.43586730957031,368.4512023925781,58.35178756713867,281.21615600585943
3188,58.03015899658203,382.8348693847656,70.76078033447266,295.3492431640625
3189,60.02352523803711,390.87939453125,71.05622863769531,298.3411560058594
3190,46.85159683227539,377.2773742675781,61.37736892700195,283.3254699707031
3191,40.55734634399414,371.73858642578125,58.81553649902344,272.71536254882807
3192,55.37856674194336,389.9818115234375,65.78671264648439,279.6566162109375
3193,57.68982696533203,385.2433471679688,75.40573120117188,284.00238037109375
3194,48.53455352783203,372.3631286621094,64.5675048828125,274.0243530273437
3195,49.38351058959961,365.175048828125,66.46363067626953,277.37530517578125
3196,62.0206298828125,377.6850280761719,72.43624877929688,291.65423583984375
3197,73.11691284179688,378.4479675292969,74.9906005859375,300.30462646484375
3198,61.60176086425781,360.3094482421875,68.06430816650389,290.6930847167969
3199,61.13801574707031,351.98443603515625,60.08710098266602,284.99346923828125
3200,80.30126190185547,367.2095642089844,69.03294372558594,302.4400939941406
3201,80.00206756591797,366.9309387207031,73.60310363769531,301.02642822265625
3202,57.03534317016602,355.920654296875,61.44842529296875,281.68365478515625
3203,45.20230102539063,348.912109375,49.36481094360352,268.86328125
3204,63.12016296386719,363.6959228515625,55.748817443847656,280.06427001953125
3205,63.96537780761719,376.1946716308594,64.56376647949219,287.0728454589844
3206,53.418861389160156,367.9257507324219,60.8238639831543,267.08309936523443
3207,48.88984298706055,360.9171752929688,59.08106994628906,263.31326293945307
3208,66.31029510498047,376.8080139160156,73.3637466430664,283.29180908203125
3209,74.43335723876953,381.8643493652344,84.14588165283203,290.06103515625
3210,62.70877075195313,367.9519348144531,79.74775695800781,272.92855834960943
3211,57.192420959472656,361.2687377929688,74.38099670410156,271.6046142578125
3212,68.83847045898439,371.7366943359375,75.41695404052734,287.7011413574219
3213,85.32020568847656,384.7216491699219,88.89181518554688,296.2393493652344
3214,64.55254364013672,363.8230895996094,74.35108184814453,264.09490966796875
3215,57.63372802734375,357.3381042480469,74.91954803466797,256.14389038085943
3216,69.63880920410156,369.9976501464844,78.52107238769531,275.01168823242193
3217,75.20751953125,378.8873901367188,87.7324447631836,292.7911682128906
3218,50.08660888671875,359.8326110839844,76.64363861083984,283.0786437988281
3219,47.14704895019531,353.3326721191406,66.17939758300781,284.17816162109375
3220,74.15287017822266,363.5538024902344,77.54869842529297,306.4604797363281
3221,76.77079772949219,367.9107971191406,80.0656509399414,312.5901794433594
3222,61.06321716308594,349.2636413574219,69.63507080078125,298.288818359375
3223,59.55603790283203,359.664306640625,66.54216766357422,296.5534973144531
3224,75.6899642944336,372.48095703125,71.10110473632812,304.3474426269531
3225,81.76730346679688,382.9002990722656,82.27218627929688,305.00567626953125
3226,59.75425338745117,373.3112182617188,72.48487091064453,282.7083740234375
3227,58.88285446166992,370.2407531738281,67.660400390625,278.946044921875
3228,64.10375213623047,377.90753173828125,67.46592712402344,277.337890625
3229,66.14574432373047,387.3395690917969,78.09471893310547,286.3921813964844
3230,55.36360931396485,363.490234375,62.88080978393555,264.038818359375
3231,46.04377746582031,359.6306457519531,57.91796112060547,254.0757141113281
3232,64.29448699951172,370.4576721191406,63.69236755371094,258.7281494140625
3233,77.38787841796875,381.4828796386719,74.91954803466797,276.11868286132807
3234,80.06190490722656,402.2168884277344,84.70686340332031,298.1429443359375
3235,86.10558319091797,408.668212890625,101.8468246459961,317.38848876953125
3236,72.32405853271484,389.007568359375,95.56379699707031,302.8963623046875
3237,71.72940826416016,382.728271484375,86.70023345947266,301.6210632324219
3238,88.46546173095703,394.0078125,95.2608642578125,325.414306640625
3239,94.12019348144531,394.3032531738281,100.65005493164062,337.4941711425781
3240,81.3297348022461,373.6964111328125,88.13261413574219,323.7575378417969
3241,85.0210189819336,368.80462646484375,81.59900665283203,321.3228454589844
3242,98.11814880371094,372.70159912109375,85.66801452636719,328.43988037109375
3243,105.12297821044922,386.3559875488281,92.67658996582031,336.73870849609375
3244,88.80205535888672,369.17486572265625,82.64244079589844,313.5401306152344
3245,77.4140625,364.0362548828125,71.00012969970703,295.2482604980469
3246,90.69070434570312,382.7768859863281,75.33841705322266,298.8310852050781
3247,90.7430648803711,399.5840148925781,81.26241302490234,303.0796203613281
3248,71.89022827148438,389.9051513671875,75.03922271728516,283.8864440917969
3249,66.01858520507811,385.7575988769531,68.1241455078125,280.1278686523437
3250,75.80590057373047,400.5900268554688,78.76416015625,293.9767150878906
3251,88.51034545898438,410.3661193847656,93.23009490966795,301.4752197265625
3252,72.8962631225586,399.0118103027344,89.88288879394531,290.0423278808594
3253,69.95669555664061,399.59521484375,87.7324447631836,290.97357177734375
3254,82.67610168457031,406.2672119140625,103.47742462158205,313.1474304199219
3255,88.18122863769531,413.4665222167969,107.6100082397461,323.8285827636719
3256,76.63990020751953,384.3999938964844,103.26050567626952,308.16961669921875
3257,77.96756744384766,381.35198974609375,98.95587921142578,304.24273681640625
3258,97.6319580078125,389.8602600097656,100.21248626708984,323.13671875
3259,98.60059356689452,391.6554260253906,93.96311950683594,326.35675048828125
3260,81.12777709960938,372.35003662109375,82.4778823852539,308.09857177734375
3261,80.26012420654297,363.30322265625,75.3309326171875,307.2720642089844
3262,91.56584167480469,378.6031494140625,80.2264633178711,321.9212341308594
3263,101.90292358398438,382.3841857910156,87.11161804199219,327.63580322265625
3264,86.66283416748047,377.1894836425781,82.14129638671875,314.97998046875
3265,81.96551513671875,368.2398986816406,72.80650329589844,302.48870849609375
3266,92.58683013916016,382.9451904296875,79.5083999633789,316.4721984863281
3267,86.75633239746094,393.40570068359375,83.12488555908203,319.8642883300781
3268,75.289794921875,389.6171569824219,80.47329711914062,309.33648681640625
3269,66.60200500488281,378.655517578125,67.07323455810547,304.5119934082031
3270,74.44084167480469,393.3720397949219,78.599609375,314.2656555175781
3271,75.38329315185547,403.080810546875,85.4249267578125,317.60540771484375
3272,62.0094108581543,396.54345703125,85.5670394897461,302.679443359375
3273,55.1728744506836,381.9690856933594,77.18966674804688,293.0230407714844
3274,74.78116607666016,401.7793273925781,83.43904113769531,317.07806396484375
3275,86.55437469482422,408.6308288574219,92.86732482910156,328.4585876464844
3276,73.50960540771484,389.31048583984375,87.69878387451172,314.87152099609375
3277,72.9000015258789,373.08306884765625,81.84957885742188,314.24322509765625
3278,85.04719543457031,386.1390686035156,80.91834259033203,325.5826110839844
3279,89.57247161865234,387.97161865234375,84.10099792480469,331.3046569824219
3280,81.98795318603516,388.1099853515625,85.1070327758789,321.9923095703125
3281,69.89685821533203,378.7714538574219,72.61576843261719,313.723388671875
3282,88.1363525390625,385.7052307128906,72.76536560058594,324.3072814941406
3283,94.04539489746094,388.7532653808594,86.77877044677734,323.9295654296875
3284,80.07686614990234,373.3336486816406,75.63386535644531,301.91650390625
3285,78.64822387695312,368.8233337402344,71.77055358886719,301.5574951171875
3286,90.21573638916016,383.38275146484375,77.5374755859375,309.5795593261719
3287,94.44182586669922,394.606201171875,92.44097900390624,320.1747131347656
3288,75.3533706665039,386.2325439453125,87.06674194335938,299.9867248535156
3289,63.41187286376953,379.8597717285156,72.3016128540039,294.99395751953125
3290,70.7345962524414,392.5567321777344,72.19316101074219,308.629638671875
3291,80.37232208251953,407.0002136230469,85.19305419921875,319.3968200683594
3292,76.94283294677734,395.1148071289063,87.7773208618164,313.3643493652344
3293,69.96044158935547,389.1384582519531,75.48052978515625,314.65460205078125
3294,83.4764404296875,403.8512268066406,80.15540313720703,324.91314697265625
3295,83.71578979492188,406.0016784667969,88.46920013427734,333.1558837890625
3296,67.33502960205078,394.03399658203125,76.80071258544922,324.1801452636719
3297,63.445533752441406,383.77545166015625,65.45011901855469,315.8775634765625
3298,73.42732238769531,388.5625305175781,71.64339447021484,321.7716369628906
3299,83.84668731689453,393.3869934082031,79.15685272216797,332.46026611328125
3300,77.66089630126953,384.5309143066406,76.93534851074219,327.3515625
3301,70.45784759521484,375.8356323242188,66.67306518554689,310.7202453613281
3302,81.47184753417969,385.8099365234375,66.13078308105469,323.8697204589844
3303,83.12488555908203,396.9361572265625,76.58380126953125,326.40911865234375
3304,68.55797576904297,388.5213623046875,70.7719955444336,300.71600341796875
3305,69.70986175537111,384.747802734375,66.78152465820311,300.1849365234375
3306,76.13127136230469,391.44970703125,72.44747161865234,315.1033935546875
3307,81.78600311279297,402.1271362304688,86.3337173461914,318.21124267578125
3308,63.04536437988281,398.162841796875,77.0512924194336,300.7085266113281
3309,59.41765975952149,390.4100341796875,68.46073913574219,299.1864013671875
3310,77.08868408203125,403.34259033203125,79.37002563476562,311.40838623046875
3311,90.56354522705078,414.4650573730469,91.84259033203124,325.7247314453125
3312,81.64014434814453,399.2025451660156,91.5920181274414,315.7840576171875
3313,69.84824371337889,390.13702392578125,82.10389709472656,312.2236633300781
3314,78.91749572753906,400.64239501953125,82.32828521728516,331.7646484375
3315,84.94995880126953,405.37335205078125,92.47837829589844,336.6452331542969
3316,72.14080047607422,392.6913757324219,89.04515075683594,321.177001953125
3317,68.02317047119139,382.7469787597656,77.99748229980469,318.5553283691406
3318,75.3907699584961,393.3869934082031,77.11860656738281,324.64013671875
3319,78.10594177246094,395.6458740234375,82.36942291259766,327.0710754394531
3320,66.79648590087889,385.5406799316406,76.80819702148438,307.2346496582031
3321,63.60260772705078,374.77349853515625,65.91386413574219,301.6173095703125
3322,76.89794921875,394.6510620117188,71.68453216552734,312.0927734375
3323,90.71314239501952,402.6095886230469,81.2511978149414,324.44940185546875
3324,77.40283966064453,391.06451416015625,78.681884765625,306.95416259765625
3325,69.17505645751953,388.1922607421875,70.31572723388672,301.5686950683594
3326,86.77503204345703,398.3947143554688,82.83317565917969,311.3634948730469
3327,95.56005096435548,398.162841796875,94.00051879882812,319.9615173339844
3328,83.83172607421875,386.72247314453125,87.60528564453125,305.58160400390625
3329,77.18218231201172,378.42364501953125,77.6197509765625,299.029296875
3330,101.52145385742188,399.4605712890625,98.35002136230469,319.7408752441406
3331,103.4549789428711,402.5572204589844,97.9722900390625,324.7523498535156
3332,79.13441467285156,386.9356689453125,83.39041900634766,306.0191955566406
3333,67.36494445800781,382.1598205566406,72.03982543945312,304.5494079589844
3334,77.20836639404297,388.5288696289063,78.25553894042969,314.4638671875
3335,83.30814361572266,400.5788269042969,81.228759765625,320.9376525878906
3336,72.1146240234375,388.1548767089844,76.84933471679688,307.3543395996094
3337,65.62963104248047,380.4244995117188,69.83702087402344,299.6725769042969
3338,77.07373046875,394.4341735839844,75.68248748779297,309.73291015625
3339,82.62747955322266,401.0986633300781,85.85875701904297,319.0115966796875
3340,69.94548034667969,384.4822998046875,75.0093002319336,301.9202575683594
3341,63.827003479003906,378.7004089355469,65.56231689453125,296.7966003417969
3342,83.2782211303711,393.7908935546875,73.21041107177734,314.052490234375
3343,92.28390502929688,401.9700622558594,81.82340240478516,322.6542663574219
3344,73.77513885498047,384.6468505859375,72.8962631225586,303.1207580566406
3345,70.84305572509766,380.8919677734375,63.78212356567383,299.968017578125
3346,84.70686340332031,395.88525390625,71.9164047241211,317.4520568847656
3347,94.08653259277344,401.8017578125,86.86478424072266,326.517578125
3348,81.7972183227539,391.1505126953125,82.36568450927734,307.1673278808594
3349,67.36869049072266,378.303955078125,71.3703842163086,297.185546875
3350,81.20631408691406,398.4582824707031,80.44337463378906,314.2806091308594
3351,92.58309173583984,409.4610900878906,94.74475860595705,323.9931335449219
3352,70.88045501708984,388.7719421386719,82.32080841064453,300.29339599609375
3353,67.12933349609375,383.7679748535156,81.16143798828125,299.73614501953125
3354,85.18183135986328,398.8771667480469,89.81556701660156,318.06915283203125
3355,85.30899047851562,399.2735900878906,87.74365997314453,320.04754638671875
3356,66.90119934082031,383.50616455078125,86.99942016601562,317.6689758300781
3357,63.39317321777344,376.273193359375,76.85307312011719,314.546142578125
3358,78.04984283447266,390.0921325683594,77.61601257324219,322.62060546875
3359,80.88468933105469,402.33282470703125,88.55522155761719,329.5880432128906
3360,74.19774627685547,384.3850402832031,73.24407196044922,304.74761962890625
3361,70.9926528930664,383.2518615722656,70.87671661376953,304.216552734375
3362,86.53193664550781,395.6421508789063,76.09761810302734,313.3531188964844
3363,95.69094848632812,403.7278137207031,86.89844512939453,316.599365234375
3364,84.20198059082031,388.667236328125,76.39680480957031,310.5369873046875
3365,69.62384796142578,375.6823120117188,72.1744613647461,303.864990234375
3366,89.84922790527344,393.31591796875,80.83606719970703,314.1048583984375
3367,88.78709411621094,399.699951171875,89.69589233398438,316.4983825683594
3368,73.77139282226562,386.296142578125,84.81532287597656,307.9975891113281
3369,65.69695281982422,381.1986389160156,79.39246368408203,304.1006164550781
3370,86.85356903076172,397.8711242675781,91.95852661132812,322.0596008300781
3371,88.2186279296875,401.3006286621094,96.98495483398438,329.5992431640625
3372,65.64085388183594,386.131591796875,88.62628173828125,311.9805908203125
3373,56.49305725097656,383.6258544921875,75.51792907714844,309.4037780761719
3374,73.64424133300781,391.3150939941406,80.08808898925781,313.7495422363281
3375,86.8909683227539,402.6656799316406,95.15614318847656,324.239990234375
3376,72.34275817871094,387.9641418457031,86.62169647216797,306.38568115234375
3377,65.73809051513672,377.2829895019531,74.23140716552734,298.04571533203125
3378,79.41864776611328,389.0150451660156,78.7043228149414,313.0352478027344
3379,87.62772369384766,395.6234436035156,84.43385314941406,316.3375549316406
3380,74.47449493408203,381.4380187988281,79.36628723144531,309.4112854003906
3381,72.40259552001953,378.0309448242188,70.68598175048828,302.44757080078125
3382,83.39789581298828,392.8185119628906,73.33757019042969,316.6592102050781
3383,97.08219146728516,398.656494140625,86.5094985961914,324.3521728515625
3384,82.50406646728516,379.7662658691406,75.6114273071289,310.63421630859375
3385,73.22163391113281,367.3161315917969,60.93980026245117,300.64495849609375
3386,88.00919342041016,379.3062744140625,72.9411392211914,327.5909118652344
3387,93.00196075439452,391.0794677734375,83.92896270751953,335.5307312011719
3388,69.00676727294922,374.3172302246094,71.96876525878906,314.2619323730469
3389,65.35662078857422,376.4751586914063,70.6897201538086,308.15093994140625
3390,80.80989074707031,386.3896484375,74.54181671142578,313.6074523925781
3391,79.24661254882812,397.5569763183594,84.280517578125,316.2141418457031
3392,64.01773834228516,391.9022521972656,81.28111267089844,302.47003173828125
3393,60.79020309448242,382.83673095703125,77.34300231933594,299.2798767089844
3394,78.341552734375,392.75494384765625,81.46437072753906,309.8450927734375
3395,91.76779174804688,399.4082336425781,91.01607513427734,318.3795471191406
3396,79.75897979736328,383.6033935546875,78.49862670898438,306.6587219238281
3397,69.08904266357422,376.635986328125,70.30451202392578,306.8905944824219
3398,84.52735137939453,389.523681640625,76.7745361328125,323.5181884765625
3399,84.40766906738281,389.78546142578125,81.64014434814453,323.4620666503906
3400,57.90113067626953,358.7592468261719,62.15713882446289,294.62371826171875
3401,57.81885147094727,354.9183654785156,59.72620391845703,288.2322082519531
3402,73.98270416259766,368.24365234375,69.07595062255861,298.6216735839844
3403,71.00199890136719,374.3022766113281,70.9870376586914,296.4749450683594
3404,50.13710021972656,360.8685607910156,62.10103988647461,280.01565551757807
3405,47.186317443847656,357.2071838378906,54.49408340454102,276.34307861328125
3406,61.46525573730469,368.01177978515625,61.67469024658203,294.45166015625
3407,68.68700408935547,380.9106750488281,71.43209075927734,308.4201965332031
3408,50.58214569091797,365.0796813964844,68.29804992675781,284.69427490234375
3409,47.35087203979492,361.530517578125,60.53028106689453,285.1094055175781
3410,62.9013786315918,376.0487976074219,68.42894744873047,299.650146484375
3411,65.36597442626953,381.4006042480469,72.65503692626953,305.33477783203125
3412,55.82548522949219,359.7278747558594,65.99053192138672,286.2874755859375
3413,54.87555313110352,351.8179931640625,55.06628799438477,286.3099060058594
3414,69.39010620117189,363.59869384765625,63.20056915283203,295.7344665527344
3415,78.03675079345703,371.8937683105469,74.2968521118164,306.9354553222656
3416,63.76529312133789,360.8274230957031,69.48734283447266,290.5247802734375
3417,61.64850997924805,352.4350891113281,62.85649871826172,278.96475219726557
3418,77.29624938964844,367.8285217285156,70.9832992553711,287.47674560546875
3419,87.03868865966797,375.3494567871094,82.1843032836914,303.6518249511719
3420,68.70944213867189,356.4853820800781,70.02588653564453,277.67446899414057
3421,54.28838729858398,351.5711669921875,61.177284240722656,270.70330810546875
3422,69.90621185302734,374.6875,69.31904602050781,288.45660400390625
3423,75.67313385009766,376.4414978027344,69.28538513183594,295.5287780761719
3424,57.32518768310547,362.1588134765625,60.55271911621094,278.70294189453125
3425,43.266902923583984,354.4097595214844,51.913551330566406,273.8934326171875
3426,59.26245498657226,367.81353759765625,58.357398986816406,293.9131164550781
3427,69.89498901367189,373.726318359375,71.02818298339844,307.95269775390625
3428,54.243507385253906,364.5074768066406,72.42316436767578,302.5784606933594
3429,40.38718032836914,353.72161865234375,56.34533309936523,297.4398498535156
3430,60.82947158813477,362.9554138183594,61.54005432128906,305.7200012207031
3431,70.78508758544922,374.066650390625,68.61220550537111,313.6822509765625
3432,55.84044647216797,357.4989013671875,67.69966888427734,295.9102478027344
3433,57.96096801757813,351.73199462890625,62.81161880493164,298.4720764160156
3434,72.7260971069336,366.05206298828125,72.89813232421875,312.10400390625
3435,78.73611450195312,366.9608459472656,78.0068359375,307.88165283203125
3436,69.22928619384766,352.13214111328125,68.91887664794922,289.2943420410156
3437,59.67758178710938,346.2642517089844,57.08209228515625,280.49810791015625
3438,76.30143737792969,363.6622619628906,72.86447143554688,290.28167724609375
3439,84.60027313232422,369.3169860839844,78.79969024658203,295.1734619140625
3440,70.46719360351562,362.5440368652344,74.67084503173828,280.647705078125
3441,55.25702285766602,347.89483642578125,57.2204704284668,263.07391357421875
3442,70.57565307617188,366.1941833496094,65.43328857421875,285.4945983886719
3443,70.65792846679688,372.8437194824219,74.69328308105469,289.9076843261719
3444,47.07786178588867,357.25579833984375,60.27596664428711,267.01577758789057
3445,46.6515121459961,362.47296142578125,54.61750030517578,273.35488891601557
3446,63.76155471801758,377.1632995605469,60.14881134033203,289.5486755371094
3447,66.14012908935547,380.1589660644531,65.9232177734375,294.8256530761719
3448,50.18571853637695,367.2413330078125,59.34847259521485,286.2987060546875
3449,41.71484375,362.5964050292969,44.15325927734375,285.12811279296875
3450,63.83261108398438,370.08740234375,54.34822463989258,311.43829345703125
3451,70.25775909423828,370.9176635742188,59.62522506713867,317.16033935546875
3452,58.06942749023438,356.47418212890625,54.03781509399414,297.0957946777344
3453,53.80594253540039,347.21417236328125,41.37451171875,291.3213806152344
3454,75.12711334228516,362.3458251953125,54.43798446655274,309.1382751464844
3455,78.92311096191406,368.6587829589844,66.6861572265625,312.1339111328125
3456,62.32543182373047,354.69024658203125,57.70291519165039,287.6600036621094
3457,59.04553985595703,348.302490234375,53.51422882080078,280.10916137695307
3458,77.58796691894531,372.5669555664063,72.73357391357422,298.617919921875
3459,79.46165466308594,372.6080932617188,76.67543029785156,297.5595397949219
3460,61.42037582397461,363.6248779296875,76.8811264038086,288.86053466796875
3461,50.956138610839844,356.11138916015625,62.77421951293945,271.48867797851557
3462,71.86965942382812,368.8869018554688,68.54488372802734,283.1309814453125
3463,86.05136108398438,382.33184814453125,88.40001678466797,297.5445556640625
3464,67.95024108886719,365.3526916503906,69.3153076171875,282.13616943359375
3465,57.93104934692383,359.3464050292969,58.36113739013672,266.70162963867193
3466,63.94480895996094,367.3161315917969,58.53317260742188,281.11892700195307
3467,74.95133209228516,385.1180725097656,69.68555450439453,292.514404296875
3468,61.19972229003906,367.44329833984375,63.59325790405274,283.7480773925781
3469,55.51881408691406,363.6098937988281,56.34907150268555,281.02542114257807
3470,59.68880462646485,374.2873229980469,63.63065719604492,298.0270080566406
3471,63.18186950683594,381.1275939941406,73.77700805664062,310.1480407714844
3472,48.1773910522461,368.1912841796875,62.25811386108398,296.08599853515625
3473,39.07821273803711,356.7247619628906,53.30479431152344,293.96923828125
3474,53.40951156616211,370.9849853515625,61.0052490234375,308.04620361328125
3475,71.05435943603516,379.81488037109375,76.2864761352539,313.1661376953125
3476,61.98510360717773,361.4893798828125,69.12831115722656,292.95196533203125
3477,54.77831649780274,347.5208435058594,59.31481170654297,286.3622741699219
3478,75.80776977539062,361.0443420410156,63.00609588623047,295.4614562988281
3479,88.06342315673828,369.8181457519531,74.00888061523438,298.27386474609375
3480,78.47805786132812,356.4143371582031,70.73272705078125,287.1813049316406
3481,65.71004486083984,348.57550048828125,53.4693489074707,280.307373046875
3482,79.5102767944336,369.0813903808594,67.98764038085939,289.0475158691406
3483,78.29106903076172,377.46624755859375,75.90875244140625,287.96295166015625
3484,62.87893676757813,361.8783264160156,63.58577728271485,275.19491577148443
3485,51.1094741821289,358.89764404296875,56.599647521972656,266.83999633789057
3486,62.781700134277344,379.2164916992188,60.74719619750977,280.55419921875
3487,62.10477828979492,379.4521179199219,62.489990234375,287.6001892089844
3488,47.35835266113281,368.1202087402344,57.99836730957031,281.0404052734375
3489,38.20307922363281,363.3593444824219,45.09945297241211,281.60137939453125
3490,56.92501831054688,383.7978820800781,63.90367126464844,305.1552734375
3491,61.0239486694336,386.4831237792969,70.02962493896484,312.91180419921875
3492,43.222023010253906,365.8538513183594,58.50325393676758,295.9139709472656
3493,35.495391845703125,356.0216369628906,47.62014770507813,283.7518310546875
3494,50.20815658569336,367.11419677734375,54.53522109985352,306.0191955566406
3495,66.386962890625,372.7203063964844,64.51327514648439,307.8592224121094
3496,54.75587463378906,357.0875244140625,57.31770706176758,292.8135986328125
3497,53.4805679321289,345.0525207519531,49.08618545532226,285.93218994140625
3498,72.99910736083984,364.0699157714844,63.125770568847656,303.4012451171875
3499,81.9449462890625,372.4248352050781,75.04483032226562,309.8899841308594
3500,70.49711608886719,362.6113586425781,68.61220550537111,295.1136474609375
3501,67.35186004638672,355.591552734375,62.822837829589844,282.8318176269531
3502,69.28164672851561,366.3138427734375,65.04808044433594,290.0834655761719
3503,80.77062225341797,379.5718078613281,81.69063568115234,297.59320068359375
3504,62.19827651977539,369.8817138671875,72.20999145507812,279.83615112304693
3505,50.21937561035156,360.2589416503906,63.62691879272461,265.69558715820307
3506,63.71293640136719,372.7838745117188,69.24050903320311,282.11749267578125
3507,59.93563842773438,382.1710205078125,70.03336334228516,291.8973083496094
3508,43.19584274291992,369.2160034179688,65.6240234375,286.2052001953125
3509,34.76610946655273,365.3265075683594,53.12527847290039,276.46649169921875
3510,50.0436019897461,376.8229675292969,59.692543029785156,295.9663391113281
3511,61.52135467529297,383.7305603027344,74.99247741699219,311.8048095703125
3512,53.03926086425781,368.9130859375,64.65164947509766,297.12945556640625
3513,52.04070663452149,357.5998840332031,61.24460220336914,287.68994140625
3514,71.645263671875,366.7364501953125,69.52100372314453,305.0430603027344
3515,83.33618927001953,376.3255615234375,77.63658142089844,311.8945617675781
3516,63.7765121459961,359.7989501953125,71.6639633178711,300.3943786621094
3517,63.87375259399414,353.97216796875,64.83116912841797,297.79888916015625
3518,76.23786163330078,363.0638732910156,69.46490478515625,307.937744140625
3519,87.78292846679688,373.0905456542969,83.95701599121094,321.5547180175781
3520,68.97871398925781,357.89532470703125,69.10587310791016,290.72674560546875
3521,60.24604797363281,351.7394714355469,56.30419540405274,275.66241455078125
3522,75.89752960205078,369.82562255859375,63.10333251953125,294.7733154296875
3523,87.85398864746094,383.925048828125,82.65178680419922,307.0962829589844
3524,66.19248962402344,368.0865783691406,76.33883666992188,285.53948974609375
3525,49.99872207641602,357.7906188964844,65.77362060546875,275.13134765625
3526,68.28309631347656,378.4610595703125,78.0255355834961,289.4588928222656
3527,63.33894729614258,383.24810791015625,79.47661590576172,297.6268615722656
3528,42.66477966308594,370.6895446777344,65.97931671142578,278.78521728515625
3529,42.05517578125,368.2249450683594,60.16376876831055,278.96475219726557
3530,54.34822463989258,380.0916442871094,59.53546905517578,306.27349853515625
3531,60.04035568237305,378.3338928222656,66.42062377929689,309.4673767089844
3532,50.22685623168945,362.8469543457031,59.82717895507813,295.6185302734375
3533,54.13131332397461,360.6815490722656,54.89051055908203,294.13751220703125
3534,65.15653991699219,368.6812133789063,57.75901412963867,310.6304931640625
3535,74.72694396972656,371.7928161621094,71.05809783935547,318.8432922363281
3536,69.64067840576172,360.7226867675781,64.44969940185547,300.46917724609375
3537,65.48564910888672,351.20465087890625,60.59759902954102,287.7909240722656
3538,88.56831359863281,362.1887512207031,68.64212036132811,297.11822509765625
3539,99.93760681152344,371.9872741699219,84.8508529663086,302.41766357421875
3540,88.28034210205078,361.88580322265625,81.61583709716797,288.3257141113281
3541,71.58916473388672,352.1097106933594,72.75601196289062,273.71017456054693
3542,83.55310821533203,372.7726440429688,79.89922332763672,289.3168029785156
3543,78.74732971191406,378.7340698242188,83.32122802734375,294.47412109375
3544,50.70182418823242,365.4087829589844,73.41797637939453,279.00213623046875
3545,44.56838607788086,364.9674987792969,64.27017974853516,275.62127685546875
3546,52.2950210571289,376.69580078125,63.24170684814453,286.83349609375
3547,56.18451690673828,385.9819946289063,69.52848052978516,296.6058654785156
3548,41.6737060546875,369.4030151367188,59.93937683105469,288.7296142578125
3549,34.156505584716804,363.5650329589844,48.81691360473633,282.2184753417969
3550,57.16810989379883,379.3922729492188,52.17160415649414,305.3160705566406
3551,58.3536605834961,387.5863952636719,61.809326171875,316.4048767089844
3552,51.573219299316406,366.8112487792969,53.83586120605469,301.58740234375
3553,48.76829528808594,358.19451904296875,48.67853927612305,298.8834533691406
3554,65.97183227539061,371.542236328125,62.23567581176758,309.6618347167969
3555,73.89668273925781,376.3517456054688,69.25547027587889,321.2181396484375
3556,64.29636383056639,362.3271179199219,63.04723358154297,299.7174377441406
3557,52.75128936767578,354.7874755859375,57.17932891845703,290.9511413574219
3558,69.88377380371094,369.35064697265625,66.48419952392578,299.7810363769531
3559,90.00443267822266,378.12445068359375,84.44693756103516,309.4112854003906
3560,81.08850860595703,363.490234375,81.60087585449219,293.4119873046875
3561,72.45682525634766,356.6462097167969,73.72838592529297,277.41268920898443
3562,86.0999755859375,376.8828125,78.73985290527344,287.7198486328125
