,T7,F8,Cz,P4
2000,-65.08734893798828,-227.34103393554688,69.42002105712889,313.5176696777344
2001,-69.09278106689453,-238.2540740966797,68.32423400878906,304.556884765625
2002,-70.11751556396484,-238.40740966796875,60.9940299987793,311.1129150390625
2003,-54.45855331420898,-218.47373962402344,63.88122940063477,331.9815673828125
2004,-61.17167282104492,-225.92361450195312,68.70196533203125,328.43988037109375
2005,-74.30245971679688,-237.00868225097656,65.91199493408203,311.8421936035156
2006,-66.66184997558594,-228.31341552734372,68.37659454345703,320.8441467285156
2007,-48.37373733520508,-216.36068725585938,72.52787780761719,339.311767578125
2008,-57.4542121887207,-220.09310913085938,73.73960876464844,335.2801513671875
2009,-72.36519622802734,-235.85679626464844,74.27815246582031,316.43853759765625
2010,-60.24791717529297,-228.89122009277344,69.77531433105469,322.81134033203125
2011,-51.49655151367188,-218.59527587890625,67.42665863037111,333.5261535644531
2012,-58.44528579711914,-225.962890625,69.85385131835939,324.1390075683594
2013,-75.74232482910156,-240.9224853515625,69.13204956054689,304.721435546875
2014,-72.03982543945312,-238.5214691162109,63.42870330810547,309.8077087402344
2015,-60.4236946105957,-225.50662231445312,64.98075866699219,326.58489990234375
2016,-67.82869720458984,-228.26666259765625,63.51098251342773,320.8441467285156
2017,-83.5774154663086,-237.571533203125,63.15943145751953,308.2444152832031
2018,-77.6197509765625,-233.3267517089844,53.4581298828125,309.2392272949219
2019,-62.21510696411133,-216.8450164794922,55.90776443481445,328.7540283203125
2020,-65.68947601318361,-220.9476776123047,61.0164680480957,328.11077880859375
2021,-77.58983612060547,-237.6762542724609,63.14073181152344,313.02777099609375
2022,-73.94343566894531,-230.53305053710938,60.77337265014648,319.3481750488281
2023,-63.99903869628906,-205.83474731445312,65.74369812011719,336.20391845703125
2024,-55.4645881652832,-214.5449676513672,69.93612670898439,334.5359191894531
2025,-71.63217163085938,-226.68093872070312,67.22843933105469,315.03607177734375
2026,-68.763671875,-224.82595825195312,74.86157989501953,324.71868896484375
2027,-52.67087936401367,-209.0809783935547,71.03192138671875,337.09027099609375
2028,-56.14898681640625,-221.0897979736328,76.11070251464844,332.4228820800781
2029,-65.85028839111328,-229.36993408203125,76.12566375732422,322.5458068847656
2030,-67.90723419189453,-223.56561279296875,76.06582641601562,326.4315490722656
2031,-50.46060180664063,-210.9920654296875,74.5549087524414,339.09112548828125
2032,-60.8463020324707,-219.97531127929688,74.0761947631836,330.9493713378906
2033,-70.5887451171875,-225.08775329589844,71.15533447265625,320.8067626953125
2034,-69.76222229003906,-226.4341125488281,65.20515441894531,323.1890563964844
2035,-57.31583786010742,-217.2676239013672,68.79171752929689,337.04913330078125
2036,-64.14863586425781,-217.6640472412109,72.88317108154297,329.40478515625
2037,-78.37521362304688,-231.2997283935547,70.74394989013672,308.8315734863281
2038,-79.68791961669922,-232.3955078125,60.21986770629883,312.3695373535156
2039,-66.19435882568361,-217.24517822265625,62.2207145690918,329.28509521484375
2040,-67.60056304931639,-225.1214141845703,63.55960083007813,323.4059753417969
2041,-76.27339172363281,-238.73464965820312,62.21697616577149,309.63568115234375
2042,-74.8447494506836,-237.4555969238281,62.280555725097656,310.0545349121094
2043,-57.98527908325195,-224.2986297607422,62.13469696044922,327.4899597167969
2044,-62.24128341674805,-221.9649353027344,66.97039031982422,325.53399658203125
2045,-63.55025100708008,-238.5551300048828,65.02564239501953,314.20208740234375
2046,-56.470619201660156,-230.18148803710938,67.74080657958984,319.6735534667969
2047,-45.78198623657226,-219.9491271972656,66.24858856201172,330.3397521972656
2048,-57.693565368652344,-216.9571990966797,66.19996643066406,321.4313049316406
2049,-60.35263442993164,-239.23953247070312,65.26499176025389,312.5639953613281
2050,-59.32416152954102,-234.343994140625,65.52304840087889,316.7302551269531
2051,-48.40365600585938,-216.43736267089844,66.37574768066406,330.59405517578125
2052,-49.29749298095703,-223.5843048095703,71.98185729980469,331.9479064941406
2053,-65.88021087646484,-238.10260009765625,66.99656677246094,316.6330261230469
2054,-68.71878814697266,-228.53219604492188,67.26583862304689,319.1424865722656
2055,-57.59259033203125,-217.7164001464844,60.80329513549805,330.74365234375
2056,-57.77958297729492,-217.8921813964844,66.49168395996094,327.774169921875
2057,-73.41236877441406,-235.364990234375,58.63788986206055,310.3238220214844
2058,-75.42069244384766,-236.33737182617188,56.84647750854492,315.6307373046875
2059,-59.30546188354492,-219.5863494873047,52.50071716308594,323.7650146484375
2060,-64.66474151611328,-222.75405883789062,61.86542510986328,317.1379089355469
2061,-66.88623809814453,-237.81088256835938,60.74719619750977,304.3212585449219
2062,-71.50127410888672,-237.58274841308597,55.197181701660156,309.9610290527344
2063,-58.5986213684082,-227.96746826171875,58.20032501220703,327.0187072753906
2064,-54.41741561889648,-227.18209838867188,64.63294982910156,327.8489685058594
2065,-72.91496276855469,-246.386474609375,70.5195541381836,306.6512145996094
2066,-67.57064056396484,-241.1842803955078,61.24834060668945,312.5191345214844
2067,-55.99565124511719,-217.8585205078125,64.27017974853516,330.6127624511719
2068,-61.20907211303711,-219.62750244140625,71.66022491455078,318.51043701171875
2069,-69.95295715332031,-240.57467651367188,65.36597442626953,306.38568115234375
2070,-70.07637786865234,-232.0215301513672,66.08029174804689,314.19085693359375
2071,-59.26432418823242,-219.601318359375,71.54054260253906,332.0414123535156
2072,-56.96802520751953,-220.4914093017578,72.99163055419922,335.3549499511719
2073,-65.34914398193361,-234.4412384033203,76.06208801269531,317.6689758300781
2074,-67.51454162597656,-225.89930725097656,68.70944213867189,320.1186218261719
2075,-50.31100463867188,-215.8763732910156,65.49312591552734,338.22344970703125
2076,-56.53419876098633,-220.2109222412109,69.27790832519531,329.70770263671875
2077,-67.320068359375,-242.79991149902344,62.43762969970703,310.2714538574219
2078,-67.74267578125,-236.1279296875,60.42556381225586,312.03668212890625
2079,-57.764625549316406,-220.1623077392578,61.637290954589844,330.8446350097656
2080,-62.192665100097656,-228.47984313964844,63.48480224609375,326.7456970214844
2081,-67.40608978271484,-240.7093048095703,62.00380325317383,311.28497314453125
2082,-64.66847991943361,-236.80859375,59.18017578125,318.64508056640625
2083,-59.66449356079102,-219.15626525878903,58.06194686889648,331.53277587890625
2084,-60.4723129272461,-230.705078125,61.92526245117188,332.3817443847656
2085,-75.52540588378906,-240.9561462402344,62.57974624633789,309.5159912109375
2086,-71.8790054321289,-237.10031127929688,60.61629867553711,314.0487365722656
2087,-65.59597778320311,-230.0767822265625,60.52654266357422,327.0448913574219
2088,-60.25913619995117,-226.53509521484372,60.836952209472656,320.1111145019531
2089,-67.42852783203125,-242.2613677978516,63.33146667480469,308.5810241699219
2090,-63.32585525512695,-235.7950897216797,65.52678680419922,315.1071472167969
2091,-51.18614196777344,-223.06072998046875,57.41120529174805,328.7353210449219
2092,-53.729270935058594,-220.90280151367188,64.99198150634766,327.34783935546875
2093,-68.37097930908203,-235.78759765625,64.15050506591797,311.3223571777344
2094,-62.72747039794922,-230.1590576171875,63.51098251342773,313.042724609375
2095,-46.212074279785156,-220.89532470703125,63.275367736816406,334.6742858886719
2096,-45.97645950317383,-222.08087158203125,67.26583862304689,330.7249755859375
2097,-61.66160202026367,-243.18885803222656,63.81017303466797,312.0703430175781
2098,-60.13572311401367,-236.6477813720703,62.280555725097656,316.8088073730469
2099,-59.821571350097656,-230.34979248046875,59.1913948059082,328.4623107910156
2100,-60.25165939331055,-226.9763946533203,61.78314590454102,327.08978271484375
2101,-68.75618743896484,-235.1892242431641,65.45572662353516,313.6672668457031
2102,-70.85801696777344,-238.48406982421875,64.79002380371094,308.99615478515625
2103,-58.01893615722656,-224.2724456787109,62.76300048828125,323.95947265625
2104,-59.23440551757813,-227.6570587158203,59.27741241455078,319.65484619140625
2105,-69.11521911621094,-240.82150268554688,60.40312576293945,308.89141845703125
2106,-73.22537231445312,-232.68348693847656,57.88617324829102,309.6992492675781
2107,-56.930625915527344,-216.82257080078125,56.86517715454102,321.8988037109375
2108,-51.60126876831055,-237.1115264892578,61.71208953857422,323.1741027832031
2109,-69.01424407958984,-235.9820709228516,62.31047439575195,303.50970458984375
2110,-62.39836120605469,-234.3065948486328,59.88701629638672,313.700927734375
2111,-49.92205429077149,-218.8047180175781,61.88038635253906,322.43359375
2112,-44.47676086425781,-220.5063781738281,73.50399017333984,328.8288269042969
2113,-60.71540451049805,-237.1077880859375,66.92550659179689,308.5137023925781
2114,-54.68294906616211,-234.37391662597656,66.19996643066406,316.4871520996094
2115,-45.39677429199219,-223.6030120849609,65.21637725830078,327.3403625488281
2116,-52.33055114746094,-215.7529602050781,72.1688461303711,335.2876281738281
2117,-63.73724365234375,-235.1593017578125,70.42979431152344,319.2509460449219
2118,-66.78900146484375,-227.68698120117188,63.51098251342773,320.9114685058594
2119,-52.45770645141602,-217.6154327392578,63.47358322143555,333.2830505371094
2120,-55.12799453735352,-221.807861328125,64.02334594726561,331.0877380371094
2121,-73.09073638916016,-236.57298278808597,62.68446350097656,314.1422424316406
2122,-72.9000015258789,-235.3275909423828,61.255821228027344,318.11029052734375
2123,-58.90155410766602,-220.59239196777344,60.89678955078125,330.8670654296875
2124,-62.72747039794922,-228.81268310546875,57.72535705566406,326.76068115234375
2125,-70.59248352050781,-234.9535980224609,68.03626251220703,307.8180847167969
2126,-65.34165954589844,-241.49468994140625,61.7569694519043,311.16156005859375
2127,-48.7701644897461,-228.30780029296875,58.23772048950195,321.7679138183594
2128,-46.95631408691406,-233.6708221435547,63.24544906616211,319.6211853027344
2129,-62.97430419921875,-244.3519744873047,59.1091194152832,301.83050537109375
2130,-60.031005859375,-243.005615234375,59.26619338989258,308.6072082519531
2131,-52.07997512817383,-226.9876251220703,65.13409423828125,324.81591796875
2132,-48.78512573242188,-226.9502258300781,66.77217102050781,320.3392639160156
2133,-59.83652877807617,-240.2380828857422,68.76927947998047,307.432861328125
2134,-60.11328125,-246.70437622070312,62.512428283691406,309.22802734375
2135,-50.48303985595703,-224.77359008789062,63.06593322753906,326.5923767089844
2136,-48.83000564575195,-221.8751678466797,68.53740692138672,327.1645812988281
2137,-61.08939743041992,-243.53668212890625,73.99018096923828,308.0536804199219
2138,-54.63806915283203,-239.45269775390625,71.40216827392578,317.8858947753906
2139,-46.170936584472656,-223.6553649902344,68.76180267333984,332.62109375
2140,-54.26781845092773,-221.50119018554688,74.7605972290039,328.9223327636719
2141,-62.54047775268555,-233.0986175537109,65.55296325683594,311.98431396484375
2142,-60.476051330566406,-230.1440887451172,66.60013580322266,310.58184814453125
2143,-50.85702896118164,-216.9759063720703,59.98425674438477,326.83172607421875
2144,-57.90299987792969,-223.3262634277344,64.71522521972656,318.83209228515625
2145,-73.98082733154297,-234.36643981933597,65.36971282958984,305.7947998046875
2146,-67.14803314208984,-236.1503753662109,58.888465881347656,306.13885498046875
2147,-64.84051513671875,-218.7635803222656,57.33640670776367,325.3544616699219
2148,-64.66474151611328,-217.6116943359375,60.85191345214844,323.0132751464844
2149,-69.35083770751953,-232.97894287109372,57.83007431030274,308.09857177734375
2150,-68.89456939697266,-223.56187438964844,60.48914337158203,314.1684265136719
2151,-50.76727294921875,-215.5061187744141,59.72246170043945,330.2873840332031
2152,-56.77355194091797,-215.89508056640625,58.39105987548828,326.9476623535156
2153,-68.84968566894531,-233.9999237060547,56.9025764465332,307.06634521484375
2154,-60.09832382202149,-225.39816284179688,59.63270568847656,311.28497314453125
2155,-48.42609405517578,-210.00099182128903,65.03685760498047,332.8753967285156
2156,-49.64904022216797,-216.3663024902344,66.65623474121094,326.0762634277344
2157,-59.34660339355469,-231.9280242919922,65.33605194091797,309.7815246582031
2158,-59.04740905761719,-229.8897857666016,62.80788040161133,316.30389404296875
2159,-45.41173553466797,-217.25265502929688,61.52135467529297,329.85357666015625
2160,-50.39702224731445,-217.20030212402344,63.82139205932617,324.7635498046875
2161,-66.07094573974611,-233.8017120361328,69.42375946044922,310.2565002441406
2162,-63.52033233642578,-240.18572998046875,65.53426361083984,314.14599609375
2163,-56.126548767089844,-217.8547821044922,64.48709869384766,327.1271667480469
2164,-56.6800537109375,-216.11572265625,63.6867561340332,326.3193664550781
2165,-72.14453887939453,-229.75140380859372,65.6240234375,310.21160888671875
2166,-67.89601135253906,-229.3998565673828,59.352210998535156,313.0726318359375
2167,-56.01809310913086,-216.29898071289062,58.3873176574707,326.341796875
2168,-57.73470687866211,-225.97784423828125,61.55501174926758,325.6686096191406
2169,-59.75425338745117,-236.44956970214844,60.20491027832031,309.7516174316406
2170,-60.97719955444336,-232.8256072998047,58.7874870300293,314.73687744140625
2171,-53.43008041381836,-223.56935119628903,58.67903137207031,328.5109558105469
2172,-55.43466567993164,-224.8633575439453,60.73597717285156,328.7989196777344
2173,-57.74966430664063,-239.1572570800781,61.43159484863281,311.3186340332031
2174,-58.29195022583008,-243.0841522216797,58.00210952758789,313.2783203125
2175,-56.01061248779297,-228.1956024169922,60.35076522827149,326.8803405761719
2176,-54.93352127075195,-224.5118103027344,62.81161880493164,325.425537109375
2177,-62.42454147338867,-236.35232543945312,66.52533721923828,309.5197448730469
2178,-67.0208740234375,-239.6509246826172,66.55899810791016,316.56195068359375
2179,-55.87971496582031,-223.6703338623047,58.80618667602539,328.5782470703125
2180,-57.0091667175293,-215.8277587890625,69.93238830566406,330.90447998046875
2181,-69.15261840820311,-234.8376617431641,68.67578125,315.8326721191406
2182,-65.76801300048828,-230.82101440429688,65.02938079833984,321.517333984375
2183,-59.028709411621094,-220.6634521484375,61.71582794189453,335.3287658691406
2184,-57.51031112670898,-221.44134521484372,62.28803253173828,326.5400085449219
2185,-67.79129791259766,-233.6109771728516,67.30323791503906,313.3643493652344
2186,-65.74557495117189,-237.88568115234372,61.92152404785156,313.79443359375
2187,-52.37168884277344,-222.3164825439453,61.51013565063477,328.9185791015625
2188,-54.4622917175293,-225.611328125,59.28489303588867,320.3691711425781
2189,-64.20847320556639,-233.04624938964844,63.19308853149414,306.9354553222656
2190,-65.90264892578125,-236.6066436767578,52.93080520629883,311.3597717285156
2191,-54.23041915893555,-219.7060394287109,59.20261764526367,327.3927001953125
2192,-55.24019241333008,-223.1654357910156,62.92755508422852,324.6326599121094
2193,-60.18807983398438,-235.1555633544922,67.59495544433594,309.50103759765625
2194,-62.92568588256836,-244.70726013183597,66.58892059326172,312.4143981933594
2195,-49.66026306152344,-216.23541259765625,62.94999694824219,327.50115966796875
2196,-51.85932159423828,-224.25375366210938,58.51821517944336,326.91400146484375
2197,-64.83677673339844,-236.27378845214844,66.85819244384766,311.01568603515625
2198,-60.94353866577149,-231.1763000488281,65.87459564208984,315.4212951660156
2199,-46.99745178222656,-219.34326171875,71.03192138671875,334.5621032714844
2200,-57.28965759277344,-219.49659729003903,68.60098266601561,326.6185607910156
2201,-68.28122711181639,-228.2891082763672,70.29141998291016,319.88299560546875
2202,-50.9280891418457,-226.7744445800781,70.38491821289062,321.7005920410156
2203,-46.85159683227539,-215.46124267578125,66.41314697265625,334.3713684082031
2204,-49.491966247558594,-219.6948089599609,67.94276428222656,333.3241882324219
2205,-60.21051788330078,-232.59747314453125,69.95482635498047,318.1327209472656
2206,-67.07697296142578,-235.0695343017578,63.99342727661133,309.47857666015625
2207,-58.34804916381836,-218.8832550048828,64.943359375,332.82305908203125
2208,-66.24671936035156,-222.4174652099609,65.48938751220703,323.80987548828125
2209,-77.26072692871094,-234.50108337402344,64.45343780517578,304.4409484863281
2210,-75.52166748046875,-231.8943634033203,59.00440216064453,306.76715087890625
2211,-57.54771041870117,-221.95932006835938,56.96802520751953,323.9688415527344
2212,-69.59767150878906,-227.6028289794922,57.77584457397461,321.2985534667969
2213,-69.96417999267578,-236.7730712890625,64.69465637207031,305.55731201171875
2214,-68.48317718505861,-234.31968688964844,59.21570587158203,307.9882507324219
2215,-58.47894668579102,-221.61524963378903,60.02726364135742,324.0062255859375
2216,-58.91277313232422,-221.14028930664062,61.74013900756836,328.7671203613281
2217,-69.46303558349611,-239.4844970703125,61.9907112121582,309.8843688964844
2218,-65.59597778320311,-235.01531982421875,56.05548858642578,312.47613525390625
2219,-47.88006973266602,-220.60548400878903,62.09169006347656,328.9578552246094
2220,-50.640113830566406,-222.0229034423828,66.13825988769531,328.95037841796875
2221,-62.44324111938477,-236.4701385498047,69.84450531005861,315.28851318359375
2222,-64.23091125488281,-231.1931304931641,65.6707763671875,320.2139892578125
2223,-54.25285720825195,-211.73069763183597,64.61611938476561,334.84820556640625
2224,-52.78681945800781,-212.9873046875,74.17156219482422,333.7935485839844
2225,-64.51514434814453,-226.69776916503903,69.57522583007811,322.8506164550781
2226,-61.20907211303711,-222.6699066162109,72.06226348876953,321.8221435546875
2227,-49.40594863891602,-210.4516448974609,70.55134582519531,337.8102111816406
2228,-50.57279586791992,-219.6966857910156,65.30800628662111,331.781494140625
2229,-63.01544570922852,-232.08323669433597,67.41356658935547,319.739013671875
2230,-65.75679016113281,-228.61260986328125,64.50018310546875,319.727783203125
2231,-55.97321319580078,-218.7878875732422,67.38364410400389,335.5662536621094
2232,-57.26721954345703,-217.0525665283203,69.9903564453125,335.4091796875
2233,-63.15008163452149,-231.8513641357422,68.57293701171875,319.6230773925781
2234,-59.60839462280274,-234.5964508056641,65.49125671386719,317.0574951171875
2235,-43.74747848510742,-218.4475555419922,64.12245178222656,330.7156066894531
2236,-47.6070556640625,-222.5577087402344,62.62649536132813,326.6690368652344
2237,-65.03872680664061,-232.33380126953125,60.53589248657226,312.427490234375
2238,-60.76028442382813,-234.83580017089844,60.26287841796875,314.6751708984375
2239,-52.16973495483398,-218.72430419921875,61.77379608154297,330.1658630371094
2240,-47.44623947143555,-220.11181640625,64.35807037353516,330.0386962890625
2241,-62.82844924926758,-237.33030700683597,62.3908805847168,308.3323059082031
2242,-64.87791442871094,-234.0653839111328,58.25081253051758,314.8584289550781
2243,-56.00687026977539,-226.03207397460938,59.058631896972656,329.29071044921875
2244,-59.39522171020508,-226.1704559326172,59.42514038085938,330.1546325683594
2245,-69.50791168212889,-233.9868469238281,61.53444290161133,313.1717529296875
2246,-68.56545257568361,-238.06707763671875,65.46508026123047,317.0649719238281
2247,-49.05439758300781,-215.1901092529297,62.39836120605469,337.3913269042969
2248,-46.73566055297852,-219.45733642578125,67.42852783203125,331.28033447265625
2249,-60.22921752929688,-232.4497375488281,71.0711898803711,313.7140197753906
2250,-65.31548309326172,-236.42526245117188,64.41416931152344,314.0917663574219
2251,-54.17806243896485,-225.1905975341797,60.00108337402344,325.8238220214844
2252,-51.20109939575195,-218.5410614013672,67.77259826660156,324.4400634765625
2253,-68.85717010498047,-238.6617126464844,67.30885314941406,308.6053161621094
2254,-70.07637786865234,-236.50006103515625,63.65870666503906,311.71319580078125
2255,-52.1734733581543,-218.6532440185547,64.90409088134766,331.02227783203125
2256,-56.42200088500977,-222.63998413085938,65.84281158447266,326.37359619140625
2257,-65.18832397460939,-232.1056671142578,67.26770782470703,312.8538513183594
2258,-66.84136199951172,-234.2448883056641,66.73664855957031,315.9317932128906
2259,-49.491966247558594,-223.9339904785156,60.46857070922852,329.3393249511719
2260,-50.01181030273438,-237.0386047363281,70.64483642578125,335.0389404296875
2261,-65.92508697509766,-235.0714111328125,72.2978744506836,312.96978759765625
2262,-63.0939826965332,-235.1162872314453,66.99469757080078,316.5451354980469
2263,-45.89792251586914,-218.02120971679688,66.30281829833984,332.6678466796875
2264,-48.93471908569336,-218.21942138671875,69.71734619140625,330.64080810546875
2265,-55.2140121459961,-235.112548828125,71.56111907958984,318.25799560546875
2266,-55.1541748046875,-233.10047912597656,72.70926666259766,318.3589782714844
2267,-45.16864013671875,-212.42257690429688,71.34046173095703,333.61029052734375
2268,-44.487979888916016,-219.348876953125,71.14972686767578,335.4166564941406
2269,-58.16853332519531,-235.74459838867188,74.24262237548828,316.8218994140625
2270,-63.55773162841797,-238.92724609375,72.8588638305664,314.06182861328125
2271,-57.74592590332031,-223.5899200439453,67.49958801269531,330.6595153808594
2272,-54.29025650024414,-226.48460388183597,69.85572052001953,328.6811218261719
2273,-66.47111511230469,-244.3575897216797,68.06804656982422,317.0500183105469
2274,-68.35976409912111,-243.15707397460938,67.51454162597656,311.3952941894531
2275,-51.97151947021485,-228.2909698486328,71.4937973022461,329.60113525390625
2276,-52.99251174926758,-227.318603515625,70.27458953857422,328.2098693847656
2277,-59.42140197753906,-236.23452758789062,72.20811462402344,315.42315673828125
2278,-65.87272644042969,-245.5842742919922,64.23464965820311,314.3348388671875
2279,-49.29001235961914,-225.12327575683597,63.62878799438477,323.3405456542969
2280,-50.94304656982422,-225.3214874267578,68.53927612304689,322.2372741699219
2281,-55.62166213989258,-237.9586181640625,65.61093139648439,309.86566162109375
2282,-61.21281433105469,-243.70309448242188,63.77090454101562,310.9465026855469
2283,-47.09843063354492,-222.37445068359372,62.31234359741211,323.39288330078125
2284,-54.96343994140625,-222.6773834228516,67.70527648925781,330.12469482421875
2285,-68.40090179443361,-238.0782928466797,65.42394256591797,311.6570739746094
2286,-64.20473480224611,-230.875244140625,68.05683135986328,314.996826171875
2287,-50.50173950195313,-218.9113006591797,61.29883193969727,328.7820739746094
2288,-50.31848526000977,-211.2482452392578,69.41067504882811,334.4330749511719
2289,-63.0715446472168,-230.68077087402344,69.15261840820311,317.49505615234375
2290,-62.01689147949219,-230.40028381347656,67.48836517333984,314.05810546875
2291,-45.3070182800293,-220.1753845214844,65.96996307373047,333.2437744140625
2292,-53.415122985839844,-222.83819580078125,67.75389862060547,330.1994934082031
2293,-59.59343719482422,-235.73336791992188,72.16697692871094,313.63922119140625
2294,-63.527809143066406,-238.35130310058597,66.31029510498047,312.0572509765625
2295,-51.38435363769531,-224.9101104736328,62.49559783935547,324.9000549316406
2296,-50.71865463256836,-222.1388397216797,68.67765045166016,330.76422119140625
2297,-68.68887329101561,-237.85015869140625,67.25275421142578,314.90704345703125
2298,-66.29159545898439,-236.4215087890625,60.59198760986328,311.8739929199219
2299,-65.46508026123047,-223.72454833984372,61.32500839233398,325.47601318359375
2300,-64.29448699951172,-223.3318634033203,65.17337036132811,325.06463623046875
2301,-77.9825210571289,-243.5198516845703,69.64254760742189,310.5276184082031
2302,-73.55821990966797,-237.2218475341797,63.60634994506836,309.74224853515625
2303,-63.41935348510742,-222.5726623535156,65.02002716064453,321.7248840332031
2304,-60.98468017578125,-221.9293975830078,66.95355987548828,322.873046875
2305,-64.41790771484375,-234.53286743164062,72.56714630126953,309.2859802246094
2306,-66.91989898681639,-233.04812622070312,69.11148071289061,305.665771484375
2307,-55.21027374267578,-215.17514038085938,69.71360778808594,321.4107360839844
2308,-55.6067008972168,-208.8210601806641,72.88130187988281,326.4109802246094
2309,-60.92483901977539,-225.0148162841797,77.01763153076172,315.8831787109375
2310,-58.27325057983398,-226.3836212158203,69.99409484863281,313.8374328613281
2311,-53.62081527709961,-213.0621032714844,70.93655395507812,331.6954650878906
2312,-52.4539680480957,-215.51173400878903,71.51997375488281,331.4710693359375
2313,-65.94752502441406,-232.63673400878903,68.845947265625,311.2980651855469
2314,-69.186279296875,-233.6839141845703,58.9165153503418,318.5198059082031
2315,-50.79719161987305,-218.0660858154297,59.97490692138672,331.8151550292969
2316,-66.44866943359375,-217.9651031494141,60.65930557250977,327.24871826171875
2317,-84.46751403808594,-235.6361389160156,53.91252899169922,301.85107421875
2318,-74.8073501586914,-240.3895568847656,54.25285720825195,304.34930419921875
2319,-66.96852111816406,-231.82891845703125,50.2960433959961,317.0500183105469
2320,-67.33876800537111,-230.51622009277344,54.38375473022461,318.8227233886719
2321,-76.30330657958984,-241.638671875,52.95511245727539,304.2633056640625
2322,-70.09507751464844,-233.01446533203125,58.55000305175781,309.7796630859375
2323,-66.89372253417969,-225.4075164794922,54.563270568847656,322.42425537109375
2324,-60.876220703125,-227.2026672363281,55.98443222045898,316.4628601074219
2325,-61.2277717590332,-242.1847076416016,60.4423942565918,309.10272216796875
2326,-64.61238098144531,-233.4295959472656,62.64145278930664,306.37261962890625
2327,-56.6202163696289,-224.1845703125,65.07987213134766,326.1304931640625
2328,-47.80900955200195,-213.97837829589844,73.99952697753906,334.6986083984375
2329,-62.94064712524414,-231.7241973876953,72.85511779785156,316.7770080566406
2330,-53.51235961914063,-230.2394561767578,80.1666259765625,320.677734375
2331,-45.295799255371094,-214.4757843017578,78.54351043701172,343.0572814941406
2332,-45.531410217285156,-222.28843688964844,75.52166748046875,341.6959533691406
2333,-61.49330520629883,-237.319091796875,72.6793441772461,324.64202880859375
2334,-66.25045776367189,-236.3392333984375,67.68283843994139,319.9970703125
2335,-58.87911605834961,-222.50909423828125,66.70672607421875,335.9664306640625
2336,-63.1538200378418,-223.44032287597656,58.53130340576172,332.54815673828125
2337,-70.00157928466797,-238.4522857666016,60.554588317871094,315.13519287109375
2338,-71.392822265625,-240.3184967041016,57.93291854858398,304.8691711425781
2339,-59.13342666625977,-227.28868103027344,56.38833999633789,321.4070129394531
2340,-57.30461883544922,-227.59909057617188,65.87646484375,321.86328125
2341,-70.74581909179688,-238.7589569091797,62.10664749145508,304.5625
2342,-68.75993347167969,-233.79611206054688,60.203041076660156,304.3006896972656
2343,-56.66509246826172,-223.7469940185547,57.70104598999024,314.33111572265625
2344,-61.2464714050293,-223.81431579589844,63.24731826782226,323.0413513183594
2345,-67.31259155273439,-242.6185302734375,71.56859588623047,307.872314453125
2346,-66.84136199951172,-233.7699279785156,64.11497497558594,308.212646484375
2347,-48.12690353393555,-220.5755615234375,72.02860260009766,328.31085205078125
2348,-51.67606735229492,-212.4749298095703,71.07866668701172,332.03955078125
2349,-59.3204231262207,-223.8105773925781,77.42527770996094,315.47552490234375
2350,-58.033897399902344,-218.21942138671875,80.07686614990234,322.6374206542969
2351,-56.048011779785156,-202.5417633056641,74.32115936279297,338.8648681640625
2352,-46.88899612426758,-201.33750915527344,76.82689666748047,338.906005859375
2353,-59.18952560424805,-219.6480712890625,75.85452270507812,323.0039367675781
2354,-66.37013244628906,-217.8155059814453,75.58150482177734,319.4285888671875
2355,-58.1947135925293,-208.7126007080078,65.32295989990234,329.0887451171875
2356,-60.40499496459961,-216.6785888671875,65.86898803710939,326.6653137207031
2357,-81.14647674560547,-230.05995178222656,60.03474426269531,310.2957458496094
2358,-83.90652465820312,-237.6482086181641,54.95970153808594,304.8467102050781
2359,-73.10569763183594,-231.1931304931641,51.3693962097168,323.0600280761719
2360,-66.86380004882811,-235.93533325195312,57.573890686035156,321.93060302734375
2361,-71.96502685546875,-250.7490692138672,56.65387344360352,305.138427734375
2362,-78.04610443115234,-260.22970581054693,56.03679275512695,297.0527648925781
2363,-60.77898406982422,-240.9991607666016,56.29484558105469,315.7934265136719
2364,-57.44673156738281,-234.5440826416016,66.10459899902344,318.8376770019531
2365,-75.46931457519531,-246.83714294433597,67.6192626953125,299.00872802734375
2366,-65.02002716064453,-242.60357666015625,66.20558166503906,303.0291442871094
2367,-56.79598999023438,-231.63818359375,58.87911605834961,318.1944274902344
2368,-45.12376403808594,-220.11929321289062,69.76970672607422,325.25909423828125
2369,-54.61562728881836,-231.36517333984372,70.85801696777344,311.3878173828125
2370,-55.03823852539063,-232.71527099609372,70.28581237792969,320.5131530761719
2371,-41.858829498291016,-209.4231719970703,74.59417724609375,343.8052673339844
2372,-40.89019775390625,-205.7767791748047,81.25867462158203,347.556396484375
2373,-51.7022476196289,-223.17105102539062,83.1959457397461,331.8600158691406
2374,-52.45022583007813,-221.5928192138672,75.25988006591797,326.8710021972656
2375,-49.77245712280274,-214.0718688964844,65.55857849121094,335.4577941894531
2376,-58.5350456237793,-213.3575592041016,63.07528305053711,337.7578430175781
2377,-75.11775970458984,-234.8844146728516,59.79912948608398,311.7056884765625
2378,-84.30669403076172,-239.5144195556641,49.17033386230469,310.0152587890625
2379,-72.92243957519531,-232.71153259277344,51.92290115356445,322.944091796875
2380,-69.91181945800781,-234.6001892089844,50.95426559448242,327.0093688964844
2381,-75.58525085449219,-248.4939117431641,50.07913208007813,306.0846252441406
2382,-77.8778076171875,-251.7925109863281,48.04462432861328,300.59820556640625
2383,-68.62529754638672,-235.4902801513672,51.6910285949707,317.779296875
2384,-62.44324111938477,-232.1804656982422,55.71141815185547,317.603515625
2385,-76.02281951904297,-249.5784912109375,51.09638214111328,298.4365234375
2386,-75.28231811523438,-243.39268493652344,49.52936553955078,298.4888916015625
2387,-57.51405334472656,-223.5787048339844,50.09783172607422,318.2542724609375
2388,-56.95680618286133,-221.4207763671875,64.07009887695311,328.2323303222656
2389,-67.73146057128906,-225.97972106933597,64.3094482421875,313.82623291015625
2390,-66.49729156494139,-227.58413696289062,65.02002716064453,314.5555114746094
2391,-56.02556991577149,-206.23678588867188,68.52057647705078,337.3389892578125
2392,-47.44623947143555,-207.975830078125,77.20836639404297,344.6504821777344
2393,-56.16020584106445,-222.53152465820312,82.72097778320312,333.2138671875
2394,-59.18952560424805,-224.1471710205078,79.9272689819336,332.2003479003906
2395,-47.06103134155274,-207.1455841064453,79.25408935546875,347.45166015625
2396,-52.39038848876953,-206.2442626953125,73.10943603515625,349.400146484375
2397,-70.54759979248047,-222.47169494628903,71.08988952636719,330.079833984375
2398,-78.3639907836914,-224.1097717285156,66.54590606689453,324.06231689453125
2399,-56.38086318969727,-216.0240936279297,61.79623794555664,339.9456787109375
2400,-62.23754501342773,-213.04339599609372,61.45590591430664,337.8438720703125
2401,-74.41091918945312,-236.7955017089844,53.57593536376953,320.7001647949219
2402,-87.50057220458984,-238.6168365478516,51.68354797363281,313.6018371582031
2403,-72.61576843261719,-231.96356201171875,50.13522720336914,318.91998291015625
2404,-72.40259552001953,-231.3389892578125,53.6469955444336,322.12506103515625
2405,-84.35531616210938,-251.92713928222656,54.10700225830078,305.4413757324219
2406,-82.96781158447266,-249.04367065429688,50.50173950195313,299.5921630859375
2407,-70.80939483642578,-240.9168701171875,50.53539657592773,316.14495849609375
2408,-60.74158477783203,-240.76727294921875,61.02207946777344,319.7090759277344
2409,-72.58210754394531,-244.15936279296875,66.50102996826172,309.98907470703125
2410,-68.25130462646484,-238.53829956054688,66.05972290039061,313.4559631347656
2411,-57.0914421081543,-218.5971527099609,71.80795288085938,332.85858154296875
2412,-45.8997917175293,-212.7311248779297,80.1385726928711,340.93487548828125
2413,-50.02864074707031,-225.43182373046875,78.90067291259766,327.0523681640625
2414,-56.96989440917969,-221.8340301513672,81.37648010253906,330.1228332519531
2415,-35.170021057128906,-204.87733459472656,83.86351776123047,349.1963195800781
2416,-39.740177154541016,-208.1235656738281,82.24787902832031,350.1761779785156
2417,-54.13879013061523,-219.9266815185547,83.48204803466797,339.41650390625
2418,-66.22988891601561,-222.68673706054688,76.95217895507812,327.47125244140625
2419,-59.73742294311523,-211.4483337402344,68.90391540527344,333.713134765625
2420,-65.60158538818361,-208.64715576171875,59.71872329711914,336.18896484375
2421,-76.72779083251953,-226.3480987548828,61.72330856323242,317.03692626953125
2422,-85.71476745605469,-231.9803771972656,49.6434326171875,308.5885009765625
2423,-71.81356048583984,-221.0299530029297,50.0361213684082,316.05706787109375
2424,-60.2535285949707,-222.85128784179688,57.04095458984375,321.5921325683594
2425,-73.5750503540039,-237.9006500244141,62.46380996704102,307.0626220703125
2426,-74.15847778320312,-242.8186187744141,63.204307556152344,310.6791076660156
2427,-58.70146942138672,-233.6035003662109,62.07859802246094,322.1007385253906
2428,-57.572021484375,-227.9899139404297,61.94396209716797,330.4332580566406
2429,-66.62258148193361,-239.9351501464844,66.39070129394531,312.63507080078125
2430,-71.65274047851562,-239.4863586425781,66.25232696533203,312.0852966308594
2431,-55.44027709960938,-225.77215576171875,64.42725372314453,332.10498046875
2432,-50.765403747558594,-222.51095581054688,64.46091461181639,337.74102783203125
2433,-63.78773498535156,-234.9461212158203,63.14447021484375,314.8789978027344
2434,-61.981361389160156,-230.8359680175781,66.44306182861328,316.90228271484375
2435,-52.92332458496094,-217.58551025390625,73.73960876464844,337.6811828613281
2436,-43.14722442626953,-218.4531707763672,74.16595458984375,340.8039855957031
2437,-57.76275634765625,-230.05059814453125,73.9116439819336,324.64013671875
2438,-56.55476760864258,-233.12478637695312,70.3998794555664,321.3228454589844
2439,-46.05312728881836,-214.8965148925781,65.43328857421875,342.6290588378906
2440,-45.40612411499024,-216.4336242675781,70.8598861694336,342.2027282714844
2441,-63.19308853149414,-233.19210815429688,74.98873138427734,321.7679138183594
2442,-71.37599182128906,-236.07183837890625,64.87230682373047,314.9986877441406
2443,-57.2616081237793,-219.4779052734375,67.63609313964844,329.9620361328125
2444,-60.6349983215332,-216.9272918701172,68.39903259277344,329.4571228027344
2445,-70.05954742431639,-228.49853515625,69.37888336181639,312.58270263671875
2446,-66.9853515625,-230.6040954589844,65.28369140625,312.91180419921875
2447,-58.4471549987793,-219.68359375,64.11684417724611,330.8184509277344
2448,-52.56055450439453,-214.4552154541016,65.01068115234375,329.34869384765625
2449,-62.52738571166992,-231.41940307617188,65.34352874755861,313.8580017089844
2450,-66.07281494140625,-236.4271240234375,62.84153747558594,312.6126403808594
2451,-55.30937957763672,-222.75405883789062,62.03372192382813,327.0635986328125
2452,-51.03467559814453,-221.632080078125,64.76384735107422,335.0557556152344
2453,-63.73163604736328,-233.0387725830078,64.37863922119139,318.3945007324219
2454,-75.76289367675781,-234.78530883789062,67.03022766113281,313.49151611328125
2455,-58.48081588745117,-221.19825744628903,61.45403671264648,330.31732177734375
2456,-59.38212966918945,-217.83233642578125,68.61594390869139,332.58367919921875
2457,-68.14471435546875,-229.66912841796875,73.99018096923828,320.3654479980469
2458,-75.4001235961914,-230.81353759765625,71.5816879272461,316.2366027832031
2459,-63.05471420288086,-217.6715240478516,70.04458618164061,326.9700927734375
2460,-56.49493026733398,-214.343017578125,69.32652282714844,329.6217041015625
2461,-66.51412200927734,-233.0425109863281,67.08258819580078,312.8258056640625
2462,-77.73756408691406,-232.17111206054688,66.30094909667969,307.0738220214844
2463,-57.84129333496094,-221.26182556152344,66.56273651123047,320.8852844238281
2464,-60.79207229614258,-218.6251983642578,62.44511032104492,322.2615661621094
2465,-76.76892852783203,-240.0548248291016,65.04808044433594,305.8284606933594
2466,-74.49132537841797,-234.20188903808597,65.87459564208984,306.05657958984375
2467,-68.61594390869139,-227.6533203125,64.22904205322266,314.4002990722656
2468,-61.98510360717773,-222.6904754638672,62.07112121582031,326.5699462890625
2469,-68.40277099609375,-242.39601135253903,62.83406066894531,310.2340393066406
2470,-69.23302459716797,-244.7783203125,63.043495178222656,304.13800048828125
2471,-59.97677612304688,-226.0863037109375,67.34063720703125,328.1070251464844
2472,-58.75008773803711,-220.02392578125,67.86048126220703,331.846923828125
2473,-69.33400726318361,-236.45330810546875,69.42375946044922,316.4310607910156
2474,-75.69557189941406,-233.77178955078125,68.85155487060547,315.8663330078125
2475,-58.7388687133789,-216.4336242675781,62.172096252441406,329.5880432128906
2476,-57.81137466430664,-224.37342834472656,65.82971954345703,332.9128112792969
2477,-73.41423797607422,-233.18836975097656,70.69906616210938,311.57666015625
2478,-73.4478988647461,-233.2631683349609,68.79171752929689,314.5162353515625
2479,-60.93418884277344,-229.83741760253903,68.94131469726561,327.1346740722656
2480,-59.352210998535156,-233.09487915039062,66.21118927001953,331.1251220703125
2481,-62.41519165039063,-245.49264526367188,69.861328125,314.65087890625
2482,-70.95712280273438,-252.5498352050781,65.58662414550781,304.3437194824219
2483,-63.38756561279297,-239.2507476806641,67.85300445556639,321.25927734375
2484,-53.66382598876953,-230.2188873291016,68.95253753662111,326.1435852050781
2485,-66.70485687255861,-243.48431396484372,66.54029846191406,310.2153625488281
2486,-70.74394989013672,-243.850830078125,63.79147338867188,302.7093811035156
2487,-55.93394470214844,-232.7732391357422,61.61859130859375,321.1022033691406
2488,-62.29925155639648,-231.72607421875,60.032875061035156,321.58837890625
2489,-70.55321502685547,-244.8568572998047,64.87978363037111,310.62298583984375
2490,-74.60352325439453,-245.68711853027344,61.678428649902344,306.3894348144531
2491,-63.95228958129883,-225.2074279785156,62.94625473022461,326.588623046875
2492,-57.79267501831055,-220.4502716064453,67.00405120849611,330.26495361328125
2493,-74.02758026123047,-236.48696899414062,69.90621185302734,314.2469787597656
2494,-71.02069854736328,-240.13336181640625,68.05121612548828,308.5174255371094
2495,-62.27681350708008,-223.240234375,70.19044494628906,326.3866882324219
2496,-59.9131965637207,-219.57513427734372,73.13374328613281,336.271240234375
2497,-71.02069854736328,-230.80979919433597,69.24050903320311,322.1119689941406
2498,-69.74165344238281,-234.1270904541016,64.31131744384766,316.4871520996094
2499,-60.42930221557617,-225.31588745117188,63.2940673828125,333.26434326171875
2500,-50.45499038696289,-220.2782440185547,71.12541961669922,335.34747314453125
2501,-60.56019973754883,-233.68577575683597,75.89379119873047,320.42529296875
2502,-62.68446350097656,-243.91065979003903,70.68785095214844,313.9926452636719
2503,-53.24495697021485,-236.8871307373047,66.55899810791016,328.3089904785156
2504,-51.9846076965332,-227.7917022705078,68.92261505126953,327.26556396484375
2505,-61.95892333984375,-246.7155914306641,69.57335662841797,313.5550842285156
2506,-62.06737899780274,-251.37550354003903,60.64995574951172,305.2786865234375
2507,-60.06653213500977,-238.5813140869141,60.65743637084961,325.0403137207031
2508,-54.68855667114258,-230.1104278564453,65.25003814697266,317.71759033203125
2509,-65.92695617675781,-249.19140625,68.70570373535156,307.6834411621094
2510,-65.35475158691406,-250.9229736328125,62.08234024047852,313.0763854980469
2511,-54.41554260253906,-239.1048889160156,58.967002868652344,318.5403747558594
2512,-54.811973571777344,-232.94528198242188,65.69134521484375,327.6732177734375
2513,-71.86592102050781,-239.1048889160156,67.9539794921875,312.1825256347656
2514,-74.40904998779297,-243.0317840576172,63.28658676147461,306.2884521484375
2515,-58.53317260742188,-227.7842102050781,61.61111068725586,333.1184997558594
2516,-53.81341934204102,-223.13926696777344,63.73911666870117,336.5779113769531
2517,-57.2840461730957,-228.13951110839844,70.85614776611328,326.4053649902344
2518,-72.03795623779297,-235.2041778564453,69.20684814453125,319.0003662109375
2519,-57.2017707824707,-218.4531707763672,70.4821548461914,340.8077392578125
2520,-52.7251091003418,-222.1294860839844,75.23182678222656,341.5893859863281
2521,-61.32313919067383,-229.81124877929688,72.7709732055664,327.8751525878906
2522,-67.86796569824219,-231.32589721679688,68.85530090332031,320.07373046875
2523,-56.00874328613281,-224.69505310058597,65.30612945556639,331.02789306640625
2524,-54.49782180786133,-222.06216430664062,64.73018646240234,334.4012756347656
2525,-68.54488372802734,-235.8249969482422,73.62367248535156,319.9390869140625
2526,-68.21951293945311,-240.85142517089844,67.52389526367189,317.7138366699219
2527,-63.92237091064453,-224.32107543945312,68.98245239257811,333.5074462890625
2528,-62.25811386108398,-223.91342163085938,66.16256713867189,339.2781066894531
2529,-62.69194412231445,-235.5295562744141,67.09380340576172,321.3639831542969
2530,-67.232177734375,-238.8056945800781,64.49457550048828,319.2210388183594
2531,-58.42471694946289,-230.25628662109372,60.35076522827149,332.8305358886719
2532,-55.74320983886719,-225.3009185791016,64.88352203369139,334.2741394042969
2533,-70.35873413085939,-239.5723876953125,63.67927551269531,312.7098693847656
2534,-74.86905670166016,-237.24241638183597,64.73018646240234,312.8070983886719
2535,-64.84238433837889,-225.0166931152344,61.296958923339844,326.6036071777344
2536,-57.38128662109375,-224.2986297607422,59.62522506713867,330.90447998046875
2537,-71.08802032470703,-234.92369079589844,63.68301773071289,318.43939208984375
2538,-73.84806823730469,-233.8278961181641,63.60073852539063,314.70697021484375
2539,-61.027687072753906,-218.1128387451172,68.72440338134766,328.00604248046875
2540,-51.300209045410156,-217.08436584472656,68.12601470947266,334.0048522949219
2541,-63.38382339477539,-225.8170318603516,70.55695343017578,321.70806884765625
2542,-63.38382339477539,-232.4516143798828,64.44221496582031,320.167236328125
2543,-52.141685485839844,-225.09896850585938,62.75926208496094,335.1492614746094
2544,-42.23469161987305,-222.5221710205078,64.82742309570311,334.2105407714844
2545,-60.69857788085938,-232.62364196777344,73.97895812988281,319.6847839355469
2546,-57.24664688110352,-234.9872589111328,69.46864318847656,318.3533630371094
2547,-51.39744567871094,-227.0960693359375,61.18476486206055,328.4211730957031
2548,-45.68661880493164,-221.31793212890625,63.59325790405274,332.0713195800781
2549,-55.55247497558594,-228.44244384765625,65.57540893554689,320.2308044433594
2550,-65.06678009033203,-231.78216552734372,67.69966888427734,314.1796569824219
2551,-57.362586975097656,-222.17062377929688,62.83031845092773,329.81243896484375
2552,-47.395751953125,-217.6977081298828,69.88002777099611,333.982421875
2553,-68.79545593261719,-232.38803100585938,58.98944091796875,312.85198974609375
2554,-70.29515838623047,-230.46946716308597,61.72330856323242,310.74267578125
2555,-59.21757507324219,-229.7401885986328,58.50325393676758,322.34759521484375
2556,-49.99872207641602,-216.6355743408203,59.78604125976562,332.3106689453125
2557,-67.90536499023439,-229.8074951171875,63.85131072998047,314.92388916015625
2558,-70.77012634277344,-230.6602020263672,64.861083984375,314.0300598144531
2559,-58.64163208007813,-216.6280975341797,67.08632659912111,330.2836608886719
2560,-56.01248168945313,-214.9264373779297,67.76699066162111,339.93634033203125
2561,-69.87628936767578,-223.44967651367188,66.63379669189453,322.28399658203125
2562,-78.61643981933594,-222.8774719238281,65.60158538818361,313.55133056640625
2563,-62.75178146362305,-209.2567596435547,65.08921813964844,328.9298095703125
2564,-53.95927810668945,-205.27749633789062,70.0782470703125,330.3921203613281
2565,-71.37973022460938,-221.1309356689453,71.34980773925781,321.1246337890625
2566,-65.98305511474611,-225.9741058349609,71.25631713867188,314.3292541503906
2567,-54.5501823425293,-210.12440490722656,63.19308853149414,329.7376403808594
2568,-49.57611465454102,-208.7817840576172,66.32338714599611,338.7844543457031
2569,-61.831764221191406,-228.40130615234372,72.31470489501953,322.3550720214844
2570,-62.19453811645508,-236.7674560546875,68.1297607421875,312.0441589355469
2571,-53.69748306274414,-218.61024475097656,65.99427795410156,327.6619873046875
2572,-49.2507438659668,-217.18533325195312,71.00948333740234,330.3509826660156
2573,-64.87978363037111,-233.13601684570312,70.99826049804688,309.80023193359375
2574,-69.21807098388672,-231.0641021728516,62.74056243896485,307.95269775390625
2575,-58.417236328125,-224.0592803955078,60.642478942871094,321.13958740234375
2576,-59.61774444580078,-220.09124755859372,63.35016632080078,330.2088623046875
2577,-72.70365142822266,-231.55029296875,68.74684143066406,314.1833801269531
2578,-76.37249755859375,-239.0600128173828,69.32278442382811,313.3680725097656
2579,-63.78399276733398,-217.91087341308597,65.49312591552734,327.1496276855469
2580,-61.4502944946289,-216.3363800048828,66.14761352539061,331.4879150390625
2581,-67.14616394042969,-224.9792938232422,69.18067169189453,320.1372985839844
2582,-73.0477294921875,-232.2683563232422,67.13494110107422,309.9872131347656
2583,-62.56852722167969,-215.4836883544922,63.74285507202149,326.4689636230469
2584,-60.40686416625977,-211.87094116210938,66.10272979736328,327.4637756347656
2585,-71.87339782714844,-222.50347900390625,72.67373657226562,315.67559814453125
2586,-70.91972351074219,-226.4976959228516,65.0780029296875,310.2864074707031
2587,-62.11225891113281,-217.37982177734372,65.74369812011719,328.57452392578125
2588,-53.23747634887695,-207.66729736328125,67.87918090820311,333.7467956542969
2589,-71.76493835449219,-224.99050903320312,68.09236145019531,316.8985595703125
2590,-74.5923080444336,-223.44967651367188,64.85360717773439,315.4100646972656
2591,-59.78977966308594,-210.54327392578125,71.9631576538086,331.8244934082031
2592,-49.14602661132813,-210.3562774658203,68.77301788330078,345.15350341796875
2593,-67.70340728759766,-221.0037841796875,71.90705871582031,327.94622802734375
2594,-75.4001235961914,-230.1440887451172,65.03311920166016,316.35626220703125
2595,-64.9022216796875,-217.46209716796875,62.00006103515625,328.6904602050781
2596,-57.81137466430664,-206.64630126953125,63.81765365600586,337.9392395019531
2597,-72.78219604492188,-223.86480712890625,67.98390197753906,323.2264709472656
2598,-70.46719360351562,-228.66683959960938,66.53282165527344,319.7820129394531
2599,-65.38841247558594,-221.64703369140625,60.97906875610352,323.9220886230469
2600,-54.53522109985352,-217.3386688232422,60.7247543334961,333.8141174316406
2601,-58.00210952758789,-229.6205139160156,64.62173461914061,318.7872009277344
2602,-63.45862197875977,-236.35606384277344,57.93852996826172,310.8997497558594
2603,-54.33326721191406,-226.05638122558597,60.52654266357422,326.1734924316406
2604,-50.52978897094727,-218.48683166503903,64.89848327636719,332.26953125
2605,-57.08583450317383,-232.21600341796875,68.96375274658203,321.7454528808594
2606,-62.38901138305664,-233.56610107421875,68.91139984130861,314.0113525390625
2607,-47.15266036987305,-216.0895538330078,76.05460357666016,335.49334716796875
2608,-44.54220962524414,-216.1643524169922,70.6055679321289,341.2004089355469
2609,-58.69025039672852,-228.10958862304688,73.20106506347656,321.18072509765625
2610,-63.96350860595703,-231.7896423339844,70.93094635009766,321.47991943359375
2611,-64.82742309570311,-217.06939697265625,67.56503295898439,329.4982604980469
2612,-47.70990371704102,-215.8763732910156,70.459716796875,338.3094787597656
2613,-64.79563903808594,-230.2394561767578,72.37641143798828,321.4256896972656
2614,-65.41645812988281,-236.8553466796875,67.15925598144531,321.7772521972656
2615,-63.69984436035156,-226.2789001464844,62.51429748535156,331.1606750488281
2616,-53.67317581176758,-221.18890380859372,67.18543243408203,340.9966125488281
2617,-61.59428405761719,-231.8925018310547,69.00302124023439,326.5306701660156
2618,-69.74352264404297,-236.93014526367188,68.58041381835939,317.1435241699219
2619,-59.3092041015625,-226.4696350097656,66.97599792480469,329.0064697265625
2620,-54.63058853149414,-214.94700622558597,68.67017364501953,338.202880859375
2621,-67.67536163330078,-227.5878753662109,68.50187683105469,321.1078186035156
2622,-65.92508697509766,-237.4163360595703,68.96562194824219,317.2744140625
2623,-57.80950546264648,-228.1451110839844,63.61008834838867,329.234619140625
2624,-51.892982482910156,-224.14341735839844,66.32525634765625,339.79608154296875
2625,-67.09941864013672,-234.12521362304688,70.05393981933594,320.9021301269531
2626,-70.6298828125,-237.0647735595703,70.52890014648438,311.9001770019531
2627,-60.12076187133789,-222.8531646728516,65.93256378173828,328.2921447753906
2628,-51.69476699829102,-209.3259429931641,71.65460968017578,337.533447265625
2629,-64.07383728027344,-228.7173156738281,68.98806762695311,321.8221435546875
2630,-68.41211700439453,-233.53057861328125,70.14369201660156,315.9317932128906
2631,-63.44927215576172,-218.8290252685547,65.53987884521484,329.51885986328125
2632,-58.35552978515625,-209.4942321777344,68.74123382568361,335.1324462890625
2633,-66.91989898681639,-224.34164428710938,71.42647552490234,326.1940612792969
2634,-73.86863708496094,-226.4546813964844,67.25275421142578,319.7502136230469
2635,-63.17626190185547,-220.32872009277344,64.93401336669922,333.32232666015625
2636,-52.18843460083008,-211.3305206298828,66.56086730957031,336.3890380859375
2637,-63.59512710571289,-230.0075836181641,65.77922821044922,318.6581726074219
2638,-66.26915740966797,-236.1372833251953,59.6495361328125,309.18499755859375
2639,-62.60031509399414,-222.3968963623047,65.38654327392578,326.9682312011719
2640,-56.88200759887695,-217.1872100830078,63.39317321777344,334.8669128417969
2641,-67.36869049072266,-228.53407287597656,64.59741973876953,314.3011779785156
2642,-77.36170196533203,-234.2486267089844,63.60260772705078,312.262939453125
2643,-59.35782241821289,-217.92022705078125,60.22921752929688,329.5038757324219
2644,-58.01893615722656,-212.92372131347656,61.83363723754883,335.27081298828125
2645,-64.32814788818361,-223.21592712402344,68.165283203125,321.3135070800781
2646,-69.26481628417969,-231.81396484375,68.0830078125,314.821044921875
2647,-63.39691543579102,-217.0974578857422,70.00905609130861,329.8554382324219
2648,-53.2580451965332,-211.9289093017578,72.48860931396484,337.2978515625
2649,-59.91132736206055,-220.863525390625,81.80844116210938,326.45587158203125
2650,-73.23658752441406,-229.3269195556641,73.37496948242188,316.94903564453125
2651,-60.0123062133789,-217.83795166015625,70.23719024658203,328.96533203125
2652,-53.9985466003418,-210.28335571289062,75.6488265991211,338.06451416015625
2653,-66.20183563232422,-221.0318298339844,73.3824462890625,321.4107360839844
2654,-71.0936279296875,-227.20640563964844,72.06600189208984,314.151611328125
2655,-60.80142211914063,-214.05691528320312,73.87611389160156,331.33270263671875
2656,-57.38689422607422,-210.0066070556641,72.39884948730469,336.9537658691406
2657,-62.70503234863281,-225.4299468994141,71.86404418945312,320.3486022949219
2658,-71.36289978027344,-230.76304626464844,68.1241455078125,309.3233947753906
2659,-65.86898803710939,-219.15440368652344,62.7835693359375,323.3816833496094
2660,-57.05778503417969,-215.24246215820312,68.98432159423828,333.7411804199219
2661,-64.01399993896484,-231.13330078125,68.36350250244139,322.6748352050781
2662,-67.56690216064453,-238.19422912597656,64.59368133544922,310.5762634277344
2663,-65.06491088867189,-224.5248870849609,65.92508697509766,321.9418029785156
2664,-54.49969100952149,-221.36468505859372,65.54735565185547,327.28985595703125
2665,-68.19146728515625,-230.710693359375,73.26651000976562,316.5526123046875
2666,-67.41356658935547,-233.9756164550781,69.81832122802734,310.8829345703125
2667,-59.39896011352539,-219.1656188964844,67.16673278808594,321.0928649902344
2668,-49.48822784423828,-214.73757934570312,72.11087799072266,329.5824279785156
2669,-66.80770111083984,-232.3375396728516,70.42418670654297,318.9049987792969
2670,-70.51394653320312,-235.7221527099609,65.55857849121094,310.03021240234375
2671,-57.12884140014648,-222.98031616210938,69.68742370605469,326.078125
2672,-48.44479370117188,-213.9521942138672,69.19375610351561,342.3280029296875
2673,-58.44154739379883,-226.3798828125,73.62928009033203,327.4731140136719
2674,-61.36614990234375,-233.0406494140625,70.7532958984375,315.325927734375
2675,-60.4311752319336,-220.5381622314453,64.69840240478516,326.52691650390625
2676,-51.97151947021485,-218.2119445800781,62.35722351074219,336.7518005371094
2677,-64.26083374023439,-229.24090576171875,65.113525390625,321.43316650390625
2678,-73.46098327636719,-234.50294494628903,58.94269180297852,311.9712219238281
2679,-64.17107391357422,-224.28927612304688,59.7430305480957,323.8341979980469
2680,-55.62166213989258,-218.2007293701172,63.05658340454102,330.95123291015625
2681,-66.33647918701172,-236.0624847412109,61.69525909423828,322.1288146972656
2682,-70.59248352050781,-237.4163360595703,62.17770767211914,313.1717529296875
2683,-65.59223175048828,-219.66302490234372,59.40270233154297,327.8433837890625
2684,-58.92025375366211,-214.0756072998047,61.55314254760742,334.1114501953125
2685,-67.89601135253906,-228.8893585205078,61.97575378417969,320.1316833496094
2686,-67.75016021728516,-234.2149810791016,60.29279708862305,307.2851257324219
2687,-59.42140197753906,-218.25308227539062,63.1351203918457,321.5752868652344
2688,-55.1429557800293,-208.46202087402344,68.93570709228516,328.4828796386719
2689,-70.30451202392578,-222.8232421875,63.58016967773438,313.66168212890625
2690,-68.87960815429689,-218.73553466796875,68.17276763916016,313.53076171875
2691,-57.1325798034668,-205.6945037841797,68.46073913574219,325.5769958496094
2692,-47.57339859008789,-206.4649200439453,69.56027221679689,333.7935485839844
2693,-63.07902145385742,-215.20132446289062,71.60973358154297,320.8908996582031
2694,-60.45361328125,-227.3036346435547,69.46677398681639,319.5445251464844
2695,-54.98962020874024,-213.83251953125,67.10689544677734,330.05364990234375
2696,-45.88670349121094,-211.5848388671875,68.11666870117189,343.24053955078125
2697,-60.745323181152344,-228.58642578125,67.26023101806639,324.9898376464844
2698,-63.15008163452149,-230.44142150878903,72.18193817138672,317.8316650390625
2699,-51.54143142700195,-218.35032653808597,67.00592041015625,340.585205078125
2700,-51.46289443969727,-211.7980194091797,70.4728012084961,341.45660400390625
2701,-66.82640075683594,-226.6229705810547,73.97335052490234,323.3031311035156
2702,-70.18857574462889,-233.63902282714844,67.33876800537111,315.830810546875
2703,-68.02317047119139,-218.38771057128903,67.35746765136719,328.95037841796875
2704,-56.2574462890625,-214.0045623779297,65.57727813720703,334.152587890625
2705,-72.63446807861328,-219.13943481445312,65.29304504394531,322.285888671875
2706,-77.58235168457031,-223.3393402099609,64.65725708007811,308.7773742675781
2707,-68.67017364501953,-210.6536102294922,64.15611267089844,327.368408203125
2708,-60.71914672851562,-207.2652587890625,65.6707763671875,330.46502685546875
2709,-75.10279846191406,-218.9300079345703,62.742431640625,318.5085754394531
2710,-78.48741149902344,-225.48231506347656,62.08047103881836,308.4071044921875
2711,-65.93256378173828,-217.8641357421875,58.40414810180664,314.8285217285156
2712,-56.43696212768555,-211.6409454345703,61.9383544921875,328.77459716796875
2713,-64.75823974609375,-223.82179260253903,71.38533782958984,313.6018371582031
2714,-72.04356384277344,-227.647705078125,70.16239166259766,309.29345703125
2715,-56.79973220825195,-221.6040344238281,62.4133186340332,320.7263488769531
2716,-55.09807586669922,-209.8495330810547,68.27000427246094,337.6680908203125
2717,-61.77753829956055,-224.5996856689453,64.86295318603516,323.8192443847656
2718,-63.00422286987305,-231.0136260986328,66.63192749023439,317.9027099609375
2719,-57.955360412597656,-223.9751281738281,63.082763671875,325.8350524902344
2720,-54.99709701538086,-219.38253784179688,64.45904541015625,332.3611755371094
2721,-64.01399993896484,-231.7167205810547,66.5159912109375,318.3327941894531
2722,-74.9307632446289,-239.8584899902344,60.68548583984375,306.87750244140625
2723,-63.27723693847656,-227.8721008300781,58.32934951782226,320.3299255371094
2724,-66.31029510498047,-219.62188720703125,59.69441223144531,337.3876037597656
2725,-70.2484130859375,-234.6488037109375,62.13656616210938,316.2048034667969
2726,-76.33696746826172,-235.4902801513672,62.49933624267578,309.6936340332031
2727,-73.59561920166016,-220.12677001953125,54.34635543823242,321.6575622558594
2728,-67.84739685058594,-211.43898010253903,60.41621398925781,326.0594482421875
2729,-73.26651000976562,-222.4268035888672,60.14694213867188,313.70654296875
2730,-78.39391326904297,-229.71961975097656,65.85402679443361,311.933837890625
2731,-60.54336929321289,-212.53851318359372,62.611534118652344,331.29156494140625
2732,-57.19990158081055,-203.89935302734372,69.91929626464844,337.5820617675781
2733,-63.55773162841797,-209.0417022705078,77.5150375366211,324.92999267578125
2734,-71.50875854492188,-220.89718627929688,75.25988006591797,317.6783142089844
2735,-53.01495361328125,-207.87860107421875,66.95355987548828,328.37445068359375
2736,-48.27649688720703,-196.625244140625,72.76536560058594,339.9344787597656
2737,-62.63023376464844,-217.4415283203125,70.92906951904297,322.285888671875
2738,-75.81338500976562,-221.0954132080078,69.01050567626953,316.3282165527344
2739,-64.35433197021484,-214.54684448242188,63.58016967773438,328.82696533203125
2740,-56.930625915527344,-211.8728179931641,65.02751159667969,338.9583435058594
2741,-67.86235809326172,-228.7509765625,69.4854736328125,327.4880676269531
2742,-78.81652069091797,-239.45831298828125,63.01544570922852,313.0744934082031
2743,-65.20328521728516,-222.4791717529297,58.45276641845703,326.5194396972656
2744,-60.30775833129883,-217.09371948242188,63.46797180175781,336.6396179199219
2745,-65.62215423583984,-230.4713287353516,62.49933624267578,320.3336486816406
2746,-70.44662475585938,-240.0903625488281,52.45022583007813,306.8101806640625
2747,-63.05658340454102,-224.84278869628903,55.9395523071289,326.0407409667969
2748,-59.91506576538086,-221.34971618652344,63.89057922363281,328.7783508300781
2749,-69.05912017822266,-231.82144165039062,67.29763031005861,312.2704162597656
2750,-66.14199829101561,-232.47218322753903,68.38594055175781,308.2088928222656
2751,-57.15127944946289,-221.1589813232422,64.53384399414061,321.96051025390625
2752,-52.352989196777344,-212.25054931640625,67.45470428466797,332.67156982421875
2753,-66.08964538574219,-218.7130889892578,66.42996978759766,317.2669372558594
2754,-70.65605926513672,-227.1839599609375,72.84764099121094,304.7644348144531
2755,-55.65158081054688,-217.3554992675781,66.33647918701172,329.57867431640625
2756,-44.233665466308594,-200.83636474609372,76.27713012695312,340.91058349609375
2757,-59.57847595214844,-210.93035888671875,76.43794250488281,328.5315246582031
2758,-66.41501617431639,-218.73927307128903,72.95610046386719,321.17138671875
2759,-54.23041915893555,-207.5307922363281,71.134765625,328.8493957519531
2760,-47.737953186035156,-205.68701171875,72.81024169921875,337.1557312011719
2761,-59.96368408203125,-225.2915802001953,76.34070587158203,322.614990234375
2762,-69.54531097412111,-234.40945434570312,70.3306884765625,311.922607421875
2763,-69.91181945800781,-230.13848876953125,64.51514434814453,322.2447509765625
2764,-58.800575256347656,-211.6671142578125,60.33019638061523,333.3971252441406
2765,-69.02172088623047,-237.1994171142578,60.79020309448242,315.17633056640625
2766,-75.62265014648438,-246.84835815429688,57.51405334472656,310.17608642578125
2767,-68.39716339111328,-230.4189758300781,59.25684356689453,319.6006164550781
2768,-59.26058578491211,-221.12905883789062,61.44468688964844,327.3871154785156
2769,-71.34046173095703,-236.93014526367188,65.96248626708984,313.0184020996094
2770,-68.84968566894531,-240.2848358154297,67.28266906738281,311.33544921875
2771,-61.9907112121582,-228.31341552734372,64.02147674560547,316.57879638671875
2772,-55.53564453125,-221.66012573242188,65.65955352783203,336.04498291015625
2773,-64.32067108154297,-232.30014038085938,67.82869720458984,315.68121337890625
2774,-81.40453338623047,-238.45602416992188,68.90578460693361,313.3175964355469
2775,-67.7015380859375,-225.4449157714844,62.02811050415039,320.1391906738281
2776,-59.69441223144531,-214.4757843017578,70.65605926513672,337.99346923828125
2777,-66.94233703613281,-222.1089172363281,76.3743667602539,324.4288330078125
2778,-67.53697967529297,-227.15777587890625,73.30764770507812,316.1187744140625
2779,-61.07443618774414,-211.68955993652344,70.53638458251953,329.7357482910156
2780,-55.09807586669922,-204.7557830810547,71.7742919921875,339.7437438964844
2781,-59.28302383422852,-214.7151336669922,71.21330261230469,331.26910400390625
2782,-65.31548309326172,-218.01373291015625,75.15142059326172,324.7055969238281
2783,-56.96054458618164,-211.4651641845703,69.91181945800781,329.38421630859375
2784,-54.98962020874024,-212.1046905517578,74.05188751220703,336.0561828613281
2785,-64.38424682617189,-227.3634796142578,72.26421356201172,324.8589172363281
2786,-73.24407196044922,-231.5372009277344,75.76850128173828,314.3124084472656
2787,-67.18543243408203,-227.89080810546875,61.6167221069336,320.8946228027344
2788,-53.57219696044922,-214.14666748046875,68.02317047119139,334.3096618652344
2789,-64.47774505615234,-231.62696838378903,64.09627532958984,317.2781677246094
2790,-80.00955200195312,-236.44021606445312,62.110389709472656,311.8889465332031
2791,-72.1370620727539,-230.80044555664062,57.31957626342773,324.9935607910156
2792,-56.77729034423828,-215.80345153808597,60.90240097045898,338.565673828125
2793,-63.9578971862793,-227.4382781982422,64.81807708740234,322.45416259765625
2794,-66.216796875,-232.8349456787109,66.16069793701172,314.33111572265625
2795,-60.63686752319336,-221.0318298339844,61.2277717590332,324.21942138671875
2796,-57.92918014526367,-214.5318756103516,57.66738891601562,329.29071044921875
2797,-63.41561508178711,-227.6364898681641,63.845703125,315.25860595703125
2798,-71.4115219116211,-232.3973846435547,70.37556457519531,314.645263671875
2799,-60.26287841796875,-218.3316192626953,63.03414535522461,327.1477355957031
2800,-51.28711700439453,-211.5063018798828,65.65207672119139,337.5035400390625
2801,-66.93112182617189,-222.57640075683597,71.99494171142578,334.3395690917969
2802,-70.06889343261719,-227.6103057861328,74.81482696533203,321.2237548828125
2803,-58.98383331298828,-222.92047119140625,76.69973754882812,332.73516845703125
2804,-48.90480041503906,-211.79052734375,71.32176208496094,344.6392517089844
2805,-58.82301712036133,-228.94171142578125,73.14309692382812,330.8951416015625
2806,-70.50272369384766,-236.28314208984372,74.16034698486328,322.2222900390625
2807,-63.58765029907226,-222.16876220703125,64.54506683349611,326.2464294433594
2808,-61.13053512573242,-222.92047119140625,62.28616333007813,334.38818359375
2809,-66.56460571289061,-239.62286376953125,61.18289184570313,317.2781677246094
2810,-74.87466430664062,-245.1317443847656,57.846900939941406,307.5394592285156
2811,-66.66184997558594,-228.9566802978516,57.34575653076172,318.3477783203125
2812,-61.36614990234375,-222.1014404296875,60.8874397277832,328.8606262207031
2813,-69.66498565673828,-232.25900268554688,62.33478164672852,315.2099914550781
2814,-75.03548431396484,-238.69537353515625,62.79291915893555,309.9554138183594
2815,-65.90264892578125,-229.30075073242188,59.98051452636719,322.1437683105469
2816,-58.800575256347656,-217.39663696289062,61.899085998535156,331.7328796386719
2817,-61.44094467163086,-224.48748779296875,67.89788055419922,318.2654724121094
2818,-67.07323455810547,-230.50872802734372,69.36766815185547,313.9571228027344
2819,-61.66534042358398,-224.7754669189453,66.17005157470703,322.7384033203125
2820,-54.72782516479492,-212.29916381835938,71.45452880859375,340.7273254394531
2821,-65.01255035400389,-226.78005981445312,68.6346435546875,324.8963317871094
2822,-66.92738342285156,-228.7173156738281,71.21517181396484,320.326171875
2823,-60.35637664794922,-221.7685852050781,70.5606918334961,330.64080810546875
2824,-60.68922805786133,-216.637451171875,68.66082000732422,337.00238037109375
2825,-67.51454162597656,-227.3111267089844,71.31241607666016,326.84857177734375
2826,-75.7311019897461,-234.1962738037109,70.88606262207031,316.6012268066406
2827,-65.48751831054689,-222.5539703369141,69.15074920654297,327.9518127441406
2828,-59.09228897094727,-215.6052398681641,70.25028228759766,336.3067626953125
2829,-67.64917755126953,-228.8519592285156,74.50254821777344,324.9262390136719
2830,-72.85137939453125,-232.6703948974609,69.64441680908203,310.0227355957031
2831,-68.04934692382811,-231.74290466308597,66.00175476074219,317.7044982910156
2832,-51.77704620361328,-222.0415954589844,66.97412872314453,328.5202941894531
2833,-61.34370803833008,-232.12811279296875,67.33316040039061,313.5419921875
2834,-68.65147399902344,-243.9237518310547,63.3950424194336,308.69134521484375
2835,-62.13282775878906,-230.5536193847656,61.21468353271485,323.976318359375
2836,-51.66858673095703,-217.84542846679688,63.07715225219727,332.8511047363281
2837,-69.66872406005861,-225.2055511474609,65.13035583496094,322.5514221191406
2838,-67.36869049072266,-235.34068298339844,71.6677017211914,315.7971496582031
2839,-61.47086715698242,-224.9961242675781,66.26728820800781,326.65032958984375
2840,-54.94847869873047,-219.02349853515625,70.32134246826172,335.255859375
2841,-65.47629547119139,-229.1661071777344,65.39588928222656,321.5640869140625
2842,-75.97793579101562,-234.5104217529297,67.73332977294922,309.4093933105469
2843,-62.61901473999024,-225.3813323974609,61.49143600463867,323.460205078125
2844,-49.33115005493164,-210.863037109375,69.32652282714844,340.9779052734375
2845,-64.40668487548828,-230.7518310546875,69.56587982177734,318.8190002441406
2846,-65.70442962646484,-235.86801147460938,64.13180541992189,314.4395751953125
2847,-67.26770782470703,-226.78379821777344,62.572265625,323.7930603027344
2848,-55.08685684204102,-220.08937072753903,67.74080657958984,339.246337890625
2849,-58.48268508911133,-225.0335235595703,62.84901809692383,329.67218017578125
2850,-73.80131530761719,-240.4194641113281,68.84033966064453,316.0552062988281
2851,-69.76222229003906,-232.41233825683597,63.87749099731445,320.1915283203125
2852,-55.30751037597656,-216.26345825195312,64.38985443115234,331.0372314453125
2853,-67.37242889404297,-229.36431884765625,65.77735900878906,317.41278076171875
2854,-73.25528717041016,-244.772705078125,68.18211364746094,310.77447509765625
2855,-65.25564575195311,-235.1050720214844,64.15050506591797,315.92803955078125
2856,-52.8653564453125,-220.6615753173828,67.35186004638672,333.4195556640625
2857,-62.94812774658203,-231.2641906738281,67.77072906494139,319.0994873046875
2858,-68.52057647705078,-239.70140075683597,63.09585189819336,306.2342224121094
2859,-63.946678161621094,-227.7075500488281,67.16860198974611,324.6046142578125
2860,-55.04571914672852,-214.0269927978516,65.04434204101561,335.9327697753906
2861,-56.05923080444336,-218.152099609375,65.26125335693361,324.6981201171875
2862,-70.43540954589844,-231.4698944091797,61.60737228393555,309.20745849609375
2863,-62.21510696411133,-221.1963806152344,59.04928207397461,322.71221923828125
2864,-60.38255310058594,-214.9320526123047,65.59036254882811,324.9150390625
2865,-65.02377319335939,-229.41294860839844,59.1689567565918,317.46514892578125
2866,-80.1441879272461,-231.50729370117188,60.40686416625977,307.0869140625
2867,-68.65895080566406,-216.9291534423828,58.14796447753906,320.079345703125
2868,-62.12534713745117,-209.6812286376953,59.44197082519531,334.2049255371094
2869,-64.89661407470703,-222.29591369628903,63.22674942016602,321.2050476074219
2870,-76.68477630615234,-226.14427185058597,61.03890609741211,312.0647277832031
2871,-64.66474151611328,-219.8088836669922,58.79122543334961,323.4938659667969
2872,-52.32680892944336,-216.285888671875,62.26185607910156,334.13763427734375
2873,-75.03922271728516,-225.51971435546875,63.17813110351562,319.9559326171875
2874,-70.15865325927734,-236.3018341064453,60.99776840209961,305.84527587890625
2875,-62.66389465332031,-226.3424835205078,63.3052864074707,322.28961181640625
2876,-59.03619003295898,-224.7305908203125,62.46754837036133,332.17791748046875
2877,-65.06491088867189,-229.5513153076172,65.119140625,317.861572265625
2878,-68.62155151367189,-236.90396118164062,64.21781921386719,313.0146789550781
2879,-60.16938018798828,-225.51596069335938,66.02419281005861,324.1184387207031
2880,-50.47182083129883,-215.96800231933597,70.72898864746094,335.0726013183594
2881,-63.17251968383789,-225.4037628173828,65.24629211425781,327.3758850097656
2882,-69.72482299804689,-233.19024658203125,66.52908325195311,317.7830505371094
2883,-66.67306518554689,-224.53985595703125,62.362831115722656,326.9270935058594
2884,-56.57533645629883,-216.8805389404297,62.76674270629883,332.7426452636719
2885,-70.71589660644531,-221.51052856445312,67.69219207763672,328.73345947265625
2886,-75.73858642578125,-229.42416381835938,66.72355651855469,315.8794250488281
2887,-64.29074859619139,-224.0050506591797,63.7054557800293,321.6800231933594
2888,-57.43551254272461,-211.5923156738281,63.96350860595703,331.1793518066406
2889,-65.32295989990234,-226.73516845703125,71.28997039794922,323.6958312988281
2890,-68.92448425292969,-236.0774383544922,64.48335266113281,312.5658874511719
2891,-56.63517379760742,-229.1922912597656,64.06074523925781,324.3802185058594
2892,-55.99565124511719,-220.78872680664062,63.12951278686523,340.66375732421875
2893,-56.11906814575195,-234.5291290283203,69.50230407714844,325.02349853515625
2894,-61.14923477172852,-240.85704040527344,69.78652954101561,317.03131103515625
2895,-56.78477096557617,-230.80044555664062,62.52738571166992,317.3529357910156
2896,-50.61767578125,-211.99249267578125,60.07775115966797,333.1390686035156
2897,-67.82495880126953,-227.05307006835938,64.61051177978516,320.31121826171875
2898,-71.4563980102539,-238.22789001464844,60.86313247680664,307.53570556640625
2899,-61.47834396362305,-227.04933166503903,54.03033447265625,318.2206115722656
2900,-63.65496826171875,-216.0689849853516,58.83610534667969,324.8664245605469
2901,-62.73869323730469,-223.1822662353516,66.06159210205078,319.70159912109375
2902,-71.03752899169922,-231.87005615234372,59.22879409790039,306.21551513671875
2903,-67.58186340332031,-221.4170379638672,55.17100524902344,322.3606872558594
2904,-53.74797058105469,-212.2729797363281,58.544395446777344,332.29010009765625
2905,-55.75255966186523,-225.4935302734375,60.24979019165039,319.8138122558594
2906,-72.6195068359375,-236.61599731445312,63.204307556152344,311.8739929199219
2907,-63.12016296386719,-229.11749267578125,58.37983703613281,315.56903076171875
2908,-50.84207153320313,-214.6739959716797,63.503501892089844,333.6140441894531
2909,-60.06466293334961,-227.50933837890625,61.22964096069336,317.5100402832031
2910,-62.93690490722656,-234.97792053222656,62.69194412231445,310.8492736816406
2911,-55.86475372314453,-228.2049560546875,63.16691207885742,319.5707092285156
2912,-48.87114334106445,-217.03387451171875,63.05845260620117,337.7690734863281
2913,-54.07708358764648,-230.04498291015625,66.86193084716797,323.86785888671875
2914,-67.44348907470703,-243.14959716796875,66.16256713867189,305.1833190917969
2915,-62.06550979614258,-232.46470642089844,61.786888122558594,318.377685546875
2916,-55.2252311706543,-223.0438995361328,60.18621063232422,330.91009521484375
2917,-63.40813446044922,-232.917236328125,61.10996627807617,317.4015808105469
2918,-73.11317443847656,-239.4807586669922,64.87604522705078,311.3990173339844
2919,-63.92050170898438,-228.98284912109372,61.27078247070313,316.1636657714844
2920,-53.49365997314453,-217.8267364501953,65.56792449951172,329.0064697265625
2921,-64.82181549072266,-228.17877197265625,66.86940765380861,316.22723388671875
2922,-73.83871459960938,-240.85704040527344,62.31047439575195,307.509521484375
2923,-60.85004043579102,-225.957275390625,57.69169616699219,316.85552978515625
2924,-58.609840393066406,-218.07730102539062,63.20056915283203,332.0507507324219
2925,-61.29883193969727,-222.92796325683597,73.9527816772461,325.73779296875
2926,-78.09845733642578,-234.2037506103516,68.61220550537111,313.7402038574219
2927,-70.17735290527344,-215.51173400878903,66.27102661132811,322.3681640625
2928,-53.93122863769531,-212.482421875,62.84527969360352,335.1212158203125
2929,-62.65641403198242,-225.1943359375,71.31989288330078,329.75445556640625
2930,-77.00640869140625,-232.20664978027344,68.32049560546875,311.5336608886719
2931,-56.80347061157226,-230.84158325195312,66.22988891601561,324.82525634765625
2932,-47.928688049316406,-221.91444396972656,69.77157592773439,334.76593017578125
2933,-60.67052841186523,-225.8787384033203,68.36163330078125,323.2507629394531
2934,-72.60828399658203,-239.4022216796875,68.47383117675781,305.1907958984375
2935,-72.88877868652344,-233.2874755859375,59.78977966308594,316.1300048828125
2936,-59.13342666625977,-222.4455108642578,60.3545036315918,333.06427001953125
2937,-65.33792114257811,-230.51995849609372,65.98305511474611,319.74273681640625
2938,-74.28376007080078,-243.6806640625,66.23362731933594,309.84698486328125
2939,-67.79129791259766,-225.63938903808597,64.5618896484375,321.089111328125
2940,-53.57219696044922,-218.997314453125,62.172096252441406,330.6482849121094
2941,-62.60031509399414,-229.009033203125,66.12516784667969,321.5528564453125
2942,-72.00616455078125,-229.2147216796875,68.90017700195311,314.2712707519531
2943,-74.68767547607422,-219.3974914550781,62.52364730834961,325.10577392578125
2944,-58.98383331298828,-208.91455078125,66.47298431396484,338.7937927246094
2945,-62.55169677734375,-222.3557586669922,71.39842987060547,329.4776916503906
2946,-63.58390808105469,-232.63299560546875,69.54344177246094,317.3641662597656
2947,-64.07383728027344,-219.58074951171875,69.16944885253906,331.32147216796875
2948,-44.87318801879883,-211.82418823242188,74.779296875,344.2016906738281
2949,-54.97840118408203,-224.2107391357422,74.2931137084961,333.22882080078125
2950,-64.69465637207031,-234.92181396484372,75.74793243408203,323.03759765625
2951,-56.25370407104492,-228.99407958984372,72.46056365966797,334.7173156738281
2952,-48.687889099121094,-218.92626953125,76.222900390625,343.6706237792969
2953,-57.49909210205078,-231.8102264404297,71.47696685791016,328.718505859375
2954,-61.6167221069336,-238.5869140625,73.02154541015625,321.1377258300781
2955,-60.0833625793457,-230.9163818359375,68.05496215820311,327.5142517089844
2956,-49.63408279418945,-224.1396789550781,68.06243896484375,338.4197998046875
2957,-61.33996963500977,-234.79840087890625,72.02299499511719,324.6906433105469
2958,-64.84799194335939,-243.4413146972656,66.55525970458984,311.1260070800781
2959,-54.985877990722656,-229.5513153076172,63.49228286743164,322.6561279296875
2960,-51.739646911621094,-215.75108337402344,62.935035705566406,331.78521728515625
2961,-60.49849319458008,-224.5884704589844,64.41230010986328,324.1820068359375
2962,-68.35976409912111,-240.9318389892578,59.37465286254883,310.0077819824219
2963,-62.27494430541992,-231.65313720703125,60.2946662902832,320.1803283691406
2964,-54.86994171142578,-217.7668914794922,62.5834846496582,334.986572265625
2965,-62.570396423339844,-227.9431610107422,68.13349914550781,322.8281555175781
2966,-69.25360107421875,-238.1717834472656,62.97991561889648,313.89727783203125
2967,-63.65870666503906,-230.1347503662109,67.62487030029297,324.39892578125
2968,-41.97102737426758,-215.8296203613281,71.03565979003906,338.730224609375
2969,-54.52960968017578,-225.2055511474609,70.33629608154297,326.22772216796875
2970,-62.55169677734375,-231.0959014892578,69.13578796386719,317.9625549316406
2971,-61.07817459106445,-226.5182647705078,68.91887664794922,328.3968811035156
2972,-43.88585662841797,-216.51402282714844,73.15991973876953,342.5935363769531
2973,-51.31703567504883,-226.2340240478516,75.30662536621094,334.45550537109375
2974,-59.98612594604492,-233.78488159179688,67.67723083496094,320.501953125
2975,-57.71600723266602,-232.08697509765625,64.25521850585939,329.410400390625
2976,-50.9991455078125,-214.4084625244141,66.94046783447266,336.4077453613281
2977,-68.07926940917969,-228.1563415527344,64.18416595458984,324.3577880859375
2978,-74.76246643066406,-241.4928131103516,66.65997314453125,309.0690612792969
2979,-66.69176483154297,-229.2633514404297,60.16003036499024,318.6133117675781
2980,-66.79273986816406,-220.6466217041016,53.37959289550781,325.9846496582031
2981,-66.76282501220703,-231.4848480224609,56.48370742797852,314.316162109375
2982,-76.56884002685547,-238.0782928466797,61.54753494262695,306.7615661621094
2983,-66.474853515625,-227.999267578125,53.63390350341797,313.3475036621094
2984,-56.90444946289063,-220.863525390625,56.491188049316406,325.5919494628906
2985,-66.33273315429689,-234.4842529296875,56.09476089477539,316.2571716308594
2986,-74.07058715820312,-244.16685485839844,60.67987823486328,304.7607116699219
2987,-66.57956695556639,-231.8251800537109,58.53691482543945,318.56842041015625
2988,-61.73639678955078,-216.297119140625,65.59036254882811,334.0703125
2989,-63.61008834838867,-224.4912414550781,70.08572387695311,327.2786560058594
2990,-68.90204620361328,-237.55470275878903,74.15099334716797,315.3483581542969
2991,-59.87018966674805,-228.0852813720703,67.407958984375,325.35260009765625
2992,-53.16828918457031,-218.6756896972656,67.25087738037111,335.2670593261719
2993,-51.36565780639648,-227.96934509277344,74.86905670166016,327.7162170410156
2994,-56.95680618286133,-241.96031188964844,71.22639465332031,309.6637268066406
2995,-55.04945755004883,-234.4468536376953,69.28164672851561,321.5079650878906
2996,-47.737953186035156,-219.71163940429688,74.7605972290039,333.9955139160156
2997,-49.91083526611328,-238.28024291992188,69.27042388916016,321.8333435058594
2998,-59.290504455566406,-246.78103637695312,67.90162658691406,305.26934814453125
2999,-64.35433197021484,-246.4369659423828,59.03432083129883,309.1064758300781
3000,-55.65532302856445,-226.66412353515625,54.662376403808594,322.4317321777344
3001,-69.87815856933594,-237.7716217041016,54.41180419921875,309.56646728515625
3002,-82.64617919921875,-249.701904296875,51.93973159790039,299.49493408203125
3003,-77.1148681640625,-239.87718200683597,48.753334045410156,311.4476623535156
3004,-63.636268615722656,-220.36985778808597,48.68601608276367,327.09539794921875
3005,-75.0093002319336,-229.65603637695312,55.82922744750977,315.0977783203125
3006,-81.22501373291016,-237.80902099609372,57.93852996826172,312.2405090332031
3007,-71.3741226196289,-232.6891021728516,55.50759506225586,317.603515625
3008,-58.49016571044922,-218.7804107666016,57.08209228515625,328.4417419433594
3009,-56.15272903442383,-229.0277404785156,62.84527969360352,315.819580078125
3010,-75.48052978515625,-240.96176147460938,65.08547973632811,305.32916259765625
3011,-69.93425750732422,-230.76678466796875,64.20286560058594,315.1127624511719
3012,-45.37059783935547,-218.38023376464844,69.03481292724611,331.0185546875
3013,-52.45770645141602,-222.65493774414062,74.47636413574219,323.9164733886719
3014,-63.26601791381836,-234.51416015625,75.46743774414062,314.2600402832031
3015,-47.85015106201172,-223.58804321289062,79.05587768554688,323.899658203125
3016,-43.91203689575195,-212.4805450439453,72.5970687866211,334.5321960449219
3017,-44.97416687011719,-226.0227203369141,78.21440124511719,327.6545104980469
3018,-59.77669143676758,-233.86529541015625,78.13211822509766,311.24755859375
3019,-53.55349731445313,-226.8043670654297,70.92906951904297,319.54638671875
3020,-40.08985900878906,-216.8936309814453,71.5386734008789,329.2701416015625
3021,-59.69441223144531,-231.8868865966797,68.56171417236328,321.1994323730469
3022,-62.3721809387207,-245.94517517089844,60.68174743652344,310.8997497558594
3023,-62.3721809387207,-238.54391479492188,60.13946151733398,316.4011535644531
3024,-61.9794921875,-219.84066772460938,56.71745300292969,325.34326171875
3025,-63.56895065307617,-227.71690368652344,65.61841583251953,317.98687744140625
3026,-73.63301849365234,-237.3920135498047,64.7320556640625,309.41876220703125
3027,-65.39028167724611,-229.99449157714844,58.374229431152344,318.2486572265625
3028,-54.301475524902344,-214.41407775878903,63.082763671875,331.1475830078125
3029,-60.58824920654297,-233.5436553955078,69.03668212890625,319.35565185546875
3030,-68.35976409912111,-237.18258666992188,70.74208068847656,304.32501220703125
3031,-60.53963088989258,-230.9257354736328,67.39112854003906,321.22186279296875
3032,-47.988525390625,-211.455810546875,72.45121002197266,333.4176940917969
3033,-49.5031852722168,-221.8527374267578,74.8671875,328.24542236328125
3034,-60.666786193847656,-234.7254638671875,74.9270248413086,313.80938720703125
3035,-52.11737442016602,-230.880859375,66.8563232421875,318.1626281738281
3036,-41.89997100830078,-217.5481109619141,69.16010284423828,331.82073974609375
3037,-45.72588729858398,-224.10415649414062,73.55821990966797,328.0023193359375
3038,-63.09024047851562,-244.84190368652344,68.84968566894531,312.0292053222656
3039,-56.848350524902344,-233.61471557617188,64.88539123535156,323.27880859375
3040,-52.58112335205078,-225.024169921875,66.01110076904297,331.1475830078125
3041,-51.171180725097656,-233.7568359375,66.74412536621094,323.68646240234375
3042,-65.10604858398439,-241.6330718994141,65.79792785644531,312.2498474121094
3043,-56.76233291625977,-239.0338287353516,57.37941360473633,313.6784973144531
3044,-50.5765380859375,-224.859619140625,67.10689544677734,331.012939453125
3045,-59.39522171020508,-228.3788604736328,67.02835845947266,321.42010498046875
3046,-78.65570831298828,-249.19140625,64.07383728027344,301.2956848144531
3047,-66.51225280761719,-238.36813354492188,65.6707763671875,313.2409362792969
3048,-53.83024978637695,-226.62484741210938,57.843162536621094,326.2669982910156
3049,-62.914466857910156,-234.71798706054688,69.47798919677734,318.959228515625
3050,-71.20208740234375,-251.2371368408203,67.79129791259766,299.638916015625
3051,-56.6800537109375,-239.6584014892578,63.86066055297852,312.93798828125
3052,-44.5852165222168,-223.73390197753903,72.9822769165039,336.1590270996094
3053,-49.60042190551758,-236.4794769287109,77.02510833740234,325.2310485839844
3054,-58.49764633178711,-248.4097595214844,72.9374008178711,314.3741149902344
3055,-58.2358512878418,-239.9052276611328,66.76282501220703,318.03173828125
3056,-41.9448471069336,-225.33831787109372,70.06515502929689,332.4116516113281
3057,-57.89926147460938,-234.8975067138672,71.88648986816406,325.8369140625
3058,-69.06660461425781,-244.6997833251953,68.25504302978516,308.68572998046875
3059,-62.55543518066406,-240.35775756835938,61.64664077758789,317.0518798828125
3060,-53.38520050048828,-232.993896484375,63.946678161621094,332.2882385253906
3061,-60.1245002746582,-238.90293884277344,66.20183563232422,324.53167724609375
3062,-69.10400390625,-243.0467529296875,67.01713562011719,314.8154296875
3063,-72.06226348876953,-237.2499084472656,63.87936019897461,312.6575012207031
3064,-61.1978530883789,-222.3613586425781,58.68090057373047,329.4833068847656
3065,-56.79973220825195,-228.04974365234372,64.91157531738281,321.1732482910156
3066,-71.88648986816406,-239.96881103515625,63.5352897644043,310.7613830566406
3067,-73.0196762084961,-231.7971343994141,62.32730102539063,316.9209899902344
3068,-56.21630477905274,-219.4816436767578,63.24357986450195,329.8760070800781
3069,-58.2358512878418,-226.045166015625,72.07347869873047,320.2906494140625
3070,-67.58560180664061,-237.8333282470703,68.33731842041016,303.887451171875
3071,-52.40908813476562,-230.93695068359372,61.33622741699219,315.5185241699219
3072,-47.48738098144531,-217.28631591796875,66.02980041503906,333.4588317871094
3073,-54.3613166809082,-229.35498046875,69.15635681152344,320.26446533203125
3074,-61.88973617553711,-242.1977844238281,71.35542297363281,312.8332824707031
3075,-55.62166213989258,-230.0393829345703,66.61322784423828,321.79034423828125
3076,-43.69512176513672,-212.03549194335938,71.68453216552734,336.353515625
3077,-50.71865463256836,-224.37716674804688,73.06829833984375,325.10015869140625
3078,-56.17890548706055,-230.33482360839844,69.44058990478516,314.3180236816406
3079,-50.82337188720703,-225.44677734375,67.94837188720703,324.3858337402344
3080,-46.65338134765625,-217.12924194335938,66.14948272705078,341.42108154296875
3081,-49.43960571289063,-227.3167266845703,70.32321166992189,328.62689208984375
3082,-58.20219421386719,-235.68289184570312,70.65979766845703,316.094482421875
3083,-58.66593933105469,-232.5750274658203,61.32126998901367,319.9839782714844
3084,-45.299537658691406,-221.9649353027344,65.63711547851561,331.49163818359375
3085,-52.07997512817383,-235.5370330810547,63.61382675170898,323.1628723144531
3086,-60.1319808959961,-241.75274658203125,65.64085388183594,316.7153015136719
3087,-55.98443222045898,-234.14952087402344,62.3310432434082,315.54095458984375
3088,-42.40485382080078,-218.8757781982422,60.65182876586914,331.0914611816406
3089,-53.2281265258789,-228.4125213623047,66.92738342285156,322.9534606933594
3090,-62.28242492675781,-239.0936737060547,65.81288909912111,312.878173828125
3091,-61.79623794555664,-236.19525146484372,65.36784362792969,316.259033203125
3092,-45.3369369506836,-219.69854736328125,67.34999084472656,330.321044921875
3093,-51.22727966308594,-227.6196594238281,73.42732238769531,327.7629699707031
3094,-64.64230346679689,-237.0142822265625,77.50007629394531,310.9483642578125
3095,-55.135475158691406,-229.11561584472656,73.67790222167969,318.30474853515625
3096,-55.43466567993164,-214.15228271484372,71.392822265625,333.5560607910156
3097,-55.38604736328125,-220.8990631103516,74.444580078125,331.3644714355469
3098,-69.38075256347656,-233.27813720703125,70.25588989257811,317.2613220214844
3099,-55.71516036987305,-229.8187255859375,68.27374267578125,325.67236328125
3100,-45.011566162109375,-216.72532653808597,68.87960815429689,340.4599304199219
3101,-57.63746643066406,-223.5394287109375,70.33442687988281,328.28656005859375
3102,-69.60140991210939,-240.3614959716797,69.01798248291016,307.8966064453125
3103,-71.30680084228516,-230.3273468017578,60.46857070922852,314.1759033203125
3104,-50.31848526000977,-215.6669464111328,64.63481903076172,327.9312438964844
3105,-61.766319274902344,-224.859619140625,69.50417327880861,318.74981689453125
3106,-73.73773956298828,-239.2806701660156,60.96223831176758,303.1469421386719
3107,-60.98841857910156,-235.0732879638672,59.7617301940918,306.2959289550781
3108,-54.98962020874024,-218.97674560546875,55.54312515258789,323.4433898925781
3109,-59.61961364746094,-226.01524353027344,61.85981369018555,318.7460632324219
3110,-68.58415222167969,-231.5128936767578,63.65870666503906,310.18170166015625
3111,-69.21245574951172,-231.1763000488281,59.57847595214844,316.90228271484375
3112,-52.60730361938477,-222.3501434326172,67.15550994873047,327.7480163574219
3113,-55.92085266113281,-226.23963928222656,73.09073638916016,326.5474853515625
3114,-65.58849334716797,-235.1779937744141,71.34046173095703,318.65631103515625
3115,-60.1544189453125,-225.5028839111328,67.13307189941406,327.1645812988281
3116,-52.71950149536133,-206.7584991455078,72.04356384277344,340.519775390625
3117,-52.77185821533203,-204.6865997314453,77.63471221923828,332.4453125
3118,-65.79045104980469,-223.51324462890625,75.55906677246094,313.4877624511719
3119,-54.23415756225586,-222.67550659179688,72.97480010986328,318.34588623046875
3120,-47.06851196289063,-209.54098510742188,72.47364807128906,336.58538818359375
3121,-59.64205551147461,-221.73306274414062,74.88214874267578,323.7313537597656
3122,-64.53758239746094,-238.02032470703125,74.31368255615234,307.33563232421875
3123,-54.46603393554688,-232.06640625,66.815185546875,317.093017578125
3124,-53.246826171875,-221.5610198974609,65.94004821777344,326.1323547363281
3125,-54.68294906616211,-225.0428771972656,66.80396270751953,320.3654479980469
3126,-63.99155807495117,-237.6089324951172,65.54735565185547,304.1978454589844
3127,-63.63252639770508,-235.2939300537109,57.94414138793945,312.1900329589844
3128,-50.2661247253418,-218.6775665283203,57.19990158081055,327.4114074707031
3129,-55.12799453735352,-221.48248291015625,63.98033905029297,318.2262268066406
3130,-71.04875183105469,-241.87242126464844,57.82820129394531,305.25250244140625
3131,-64.81059265136719,-238.01284790039062,51.12630081176758,309.474853515625
3132,-49.09927749633789,-216.3663024902344,58.68090057373047,329.40850830078125
3133,-61.85233688354492,-223.46836853027344,61.30257034301758,323.7874450683594
3134,-68.85717010498047,-237.2760772705078,63.146339416503906,314.9425964355469
3135,-61.81867599487305,-231.3820037841797,59.3316421508789,317.033203125
3136,-57.16997909545898,-212.57778930664062,67.13681030273439,333.806640625
3137,-58.85667419433594,-217.06565856933597,72.48113250732422,330.0256042480469
3138,-80.38728332519531,-231.10899353027344,72.26421356201172,318.8395690917969
3139,-69.87068176269531,-229.5232696533203,65.66329193115234,316.6479797363281
3140,-53.71805191040039,-214.36170959472656,66.44119262695311,333.06988525390625
3141,-48.05210494995117,-214.63473510742188,73.80879211425781,323.9407958984375
3142,-58.6285400390625,-226.4341125488281,72.45121002197266,306.6886291503906
3143,-55.52068328857422,-227.92259216308597,64.42912292480469,314.91265869140625
3144,-36.10686492919922,-210.97711181640625,74.30994415283203,334.74908447265625
3145,-43.11917495727539,-213.0190887451172,76.0115966796875,327.55352783203125
3146,-61.34370803833008,-237.2835693359375,69.28351593017578,313.4541015625
3147,-58.9800910949707,-229.0857086181641,67.63422393798828,319.3855895996094
3148,-51.88924026489258,-220.56246948242188,62.7947883605957,329.2589111328125
3149,-57.06900405883789,-224.0069122314453,64.53384399414061,326.36798095703125
3150,-69.27603912353516,-234.04107666015625,64.97515106201172,314.0337829589844
3151,-65.74557495117189,-229.3138427734375,58.2470703125,313.4578552246094
3152,-56.92688751220703,-220.34555053710938,60.49101257324219,325.2684631347656
3153,-65.20328521728516,-223.36740112304688,67.97454833984375,323.6490783691406
3154,-79.03717803955078,-236.7749328613281,66.45615386962889,311.1428527832031
3155,-74.69141387939453,-229.1006622314453,59.58969497680664,312.4667663574219
3156,-62.42827987670898,-212.0728912353516,62.54795837402344,330.3023681640625
3157,-65.03498840332031,-218.5990295410156,66.54216766357422,327.115966796875
3158,-73.55448150634766,-225.0615692138672,64.39546966552734,310.56317138671875
3159,-64.80685424804689,-222.07339477539062,63.8569221496582,316.66668701171875
3160,-63.70732498168945,-207.6635589599609,60.21051788330078,322.98712158203125
3161,-61.31753158569336,-212.44314575195312,65.58101654052734,319.9017028808594
3162,-71.04500579833984,-228.88748168945312,65.12474822998047,308.3940124511719
3163,-65.56979370117189,-220.24832153320312,70.54386138916016,318.6899719238281
3164,-48.16804122924805,-201.68345642089844,71.0113525390625,333.16339111328125
3165,-56.3509407043457,-213.92041015625,74.57547760009766,333.1035461425781
3166,-71.65835571289062,-232.88917541503903,69.60514831542969,318.9480285644531
3167,-62.80601119995117,-221.4039459228516,72.14827728271484,329.5356750488281
3168,-53.31414413452149,-211.1341857910156,66.75534057617189,338.50396728515625
3169,-56.07418823242188,-219.71725463867188,74.03692626953125,330.3135681152344
3170,-73.88733673095703,-235.6604461669922,67.61552429199219,311.4682312011719
3171,-71.93510437011719,-228.2479705810547,60.0422248840332,321.5659484863281
3172,-63.4829330444336,-215.9175109863281,59.08855056762695,331.83197021484375
3173,-59.81409072875977,-219.84814453125,63.88310241699219,331.74969482421875
3174,-74.65027618408203,-235.68289184570312,66.79648590087889,315.9785461425781
3175,-79.57572174072266,-225.9105224609375,57.52153015136719,322.96466064453125
3176,-60.97719955444336,-212.3571319580078,59.290504455566406,334.0160827636719
3177,-69.26481628417969,-216.05963134765625,64.61238098144531,329.3935546875
3178,-74.76246643066406,-235.8848419189453,64.25708770751953,312.5901794433594
3179,-67.42104339599611,-226.0937805175781,57.15127944946289,316.3226013183594
3180,-59.42140197753906,-216.6355743408203,62.80601119995117,330.8296813964844
3181,-63.82326126098633,-221.0112609863281,69.13018035888672,323.38726806640625
3182,-76.20606994628906,-234.8526306152344,67.68657684326172,303.45361328125
3183,-70.91036987304688,-227.0624084472656,62.67885208129883,311.505615234375
3184,-52.52128601074219,-213.39682006835938,72.98601531982422,332.17230224609375
3185,-60.1544189453125,-218.09413146972656,70.48776245117188,329.2663879394531
3186,-65.11727142333984,-230.69012451171875,69.21620178222656,317.16033935546875
3187,-69.78466033935547,-225.42059326171875,61.63542175292969,319.55389404296875
3188,-52.05379867553711,-217.9482727050781,61.83363723754883,334.9996643066406
3189,-59.39896011352539,-226.99136352539062,67.06575775146484,323.8435363769531
3190,-75.55906677246094,-239.24327087402344,65.01628875732422,308.8315734863281
3191,-69.07781982421875,-234.54595947265625,60.97719955444336,314.5087585449219
3192,-49.93327331542969,-219.90798950195312,58.71455764770508,328.6343688964844
3193,-53.60211563110352,-222.5670623779297,71.4563980102539,327.3964538574219
3194,-65.03498840332031,-234.4001007080078,72.60454559326172,309.8114318847656
3195,-61.085655212402344,-225.97784423828125,65.66703033447266,314.310546875
3196,-57.85812377929688,-216.5570373535156,69.64628601074219,332.40045166015625
3197,-54.30521774291992,-222.16314697265625,74.87466430664062,325.1151123046875
3198,-61.24273300170898,-239.5162811279297,62.07672882080078,311.9693603515625
3199,-52.15851593017578,-236.9469757080078,62.09917068481445,313.22222900390625
3200,-51.058982849121094,-220.53628540039062,58.85293579101562,328.9185791015625
3201,-52.76811981201172,-223.85731506347656,65.46881866455078,324.064208984375
3202,-58.73325729370117,-237.44064331054688,60.41995239257813,312.3283996582031
3203,-53.456260681152344,-232.33567810058597,59.87766647338867,317.0556335449219
3204,-42.77136611938477,-220.0276641845703,59.63831329345703,326.693359375
3205,-48.67292785644531,-227.0287628173828,65.22198486328125,322.2765197753906
3206,-65.64085388183594,-236.8123321533203,62.27120590209961,307.10748291015625
3207,-58.6061019897461,-230.8397216796875,63.77090454101562,315.7503967285156
3208,-46.44768905639648,-220.79808044433597,63.59138870239258,332.97265625
3209,-53.82651138305664,-222.21176147460938,66.74038696289061,327.5049133300781
3210,-63.31837463378906,-236.8198089599609,68.60285186767578,314.6845397949219
3211,-73.05707550048828,-234.3140869140625,59.14838790893555,317.3847351074219
3212,-56.14151000976562,-226.2022399902344,58.9688720703125,334.3339538574219
3213,-63.41187286376953,-231.0865478515625,57.56641006469727,325.9004821777344
3214,-68.09796905517578,-243.7685546875,61.9084358215332,313.9178466796875
3215,-66.49729156494139,-237.98666381835938,61.11557388305664,316.16180419921875
3216,-56.450050354003906,-219.63124084472656,61.2053337097168,329.71331787109375
3217,-55.14482498168945,-222.9223480224609,67.83617401123047,328.7671203613281
3218,-64.98450469970703,-238.51773071289062,63.66992568969727,311.5074768066406
3219,-60.53776168823242,-234.8675842285156,64.46652221679689,322.18115234375
3220,-44.90871810913086,-220.4839324951172,69.81832122802734,342.8403625488281
3221,-49.93140411376953,-221.8377685546875,76.47908782958984,333.65142822265625
3222,-61.73078918457031,-237.82958984375,68.47943878173828,318.90875244140625
3223,-65.85589599609375,-227.5598297119141,72.31283569335938,323.3405456542969
3224,-51.99956893920898,-216.26905822753903,60.72288513183594,338.2328186035156
3225,-54.94287109375,-225.8843536376953,70.55134582519531,329.9489440917969
3226,-67.65479278564453,-241.9920959472656,63.53903198242188,313.7776184082031
3227,-66.42436218261719,-234.25050354003903,61.425987243652344,316.7882385253906
3228,-54.49034118652344,-214.69830322265625,61.01085662841797,334.1712951660156
3229,-52.74007034301758,-222.4324188232422,64.78067779541016,327.9518127441406
3230,-66.15135192871094,-235.4510040283203,64.42538452148439,311.9936828613281
3231,-64.5618896484375,-233.44268798828125,59.25310516357422,310.9988708496094
3232,-50.39141082763672,-219.3806610107422,59.57473754882813,331.9535217285156
3233,-54.57635879516602,-220.97760009765625,66.23923492431639,325.56951904296875
3234,-65.69882202148439,-234.0074157714844,65.11727142333984,311.8852233886719
3235,-65.10044097900389,-227.85153198242188,60.29279708862305,316.9303283691406
3236,-50.38019180297852,-217.80990600585938,63.40813446044922,332.3985595703125
3237,-50.4288101196289,-221.53109741210938,67.14055633544922,329.6385192871094
3238,-60.52654266357422,-232.1972961425781,67.01713562011719,315.41943359375
3239,-65.56044769287111,-234.6544189453125,60.96223831176758,319.3500671386719
3240,-53.97423553466797,-215.07977294921875,61.73265838623047,333.89453125
3241,-57.362586975097656,-217.45086669921875,64.54880523681639,326.0818786621094
3242,-70.50833129882812,-234.93490600585938,63.16878128051758,314.8995666503906
3243,-67.95024108886719,-229.12684631347656,59.372779846191406,312.8314208984375
3244,-49.97628402709961,-213.41552734375,66.51972961425781,333.9020080566406
3245,-54.92790985107422,-219.99774169921875,69.84450531005861,332.39483642578125
3246,-65.52304840087889,-227.2381896972656,66.56835174560547,314.6265563964844
3247,-64.02708435058594,-230.4619903564453,62.34600067138672,314.304931640625
3248,-47.09281921386719,-211.7849273681641,66.10834503173828,331.8824768066406
3249,-45.5407600402832,-214.8516387939453,67.79129791259766,332.81744384765625
3250,-65.82598114013672,-226.4864654541016,67.86983489990234,315.55780029296875
3251,-60.47792053222656,-228.5883026123047,73.76765441894531,319.2453308105469
3252,-48.85431289672852,-210.21417236328125,69.45555114746094,339.8858337402344
3253,-54.10887145996094,-214.5000915527344,71.41899871826172,328.2435302734375
3254,-68.02503967285156,-233.251953125,72.9822769165039,318.1233825683594
3255,-67.067626953125,-230.9444274902344,69.25733947753906,321.0367431640625
3256,-58.28634262084961,-212.57778930664062,65.44638061523439,338.63671875
3257,-64.60677337646484,-213.8306427001953,66.34021759033203,331.5458679199219
3258,-76.85494232177734,-233.18836975097656,68.74871063232422,313.7289733886719
3259,-72.7073974609375,-229.17172241210938,65.98866271972656,316.6386413574219
3260,-54.21358871459961,-211.5156555175781,67.66787719726561,330.83154296875
3261,-58.95578384399414,-220.6634521484375,66.83762359619139,327.9892272949219
3262,-69.51725769042969,-227.25314331054688,69.23863983154297,314.8808898925781
3263,-64.44595336914061,-227.3503875732422,69.186279296875,316.7994384765625
3264,-61.55501174926758,-211.80735778808597,69.88564300537111,336.2581481933594
3265,-61.4502944946289,-217.50323486328125,69.35457611083984,329.5412902832031
3266,-67.50145721435547,-233.25942993164062,67.76511383056639,314.1628112792969
3267,-68.39529418945311,-227.11851501464844,60.87996292114258,318.5198059082031
3268,-61.48021697998047,-213.64739990234372,59.52985763549805,334.53778076171875
3269,-58.08064651489258,-215.59962463378903,70.7719955444336,329.17852783203125
3270,-72.17259216308594,-227.0511932373047,72.57089233398438,322.1325378417969
3271,-70.78882598876953,-227.38031005859372,64.93401336669922,322.285888671875
3272,-55.79930877685547,-206.373291015625,66.80396270751953,338.09442138671875
3273,-61.831764221191406,-209.5035858154297,70.6074447631836,332.57061767578125
3274,-73.29081726074219,-231.1426544189453,70.79443359375,313.2353210449219
3275,-62.63958358764648,-222.5820159912109,68.06804656982422,320.5804748535156
3276,-55.97134399414063,-210.2627868652344,65.69695281982422,333.4681701660156
3277,-57.88991165161133,-213.9578094482422,68.12040710449219,330.7156066894531
3278,-70.07076263427734,-230.0543365478516,70.15865325927734,314.8846130371094
3279,-69.90995025634766,-225.7983245849609,63.39317321777344,319.5856628417969
3280,-56.65948486328125,-213.46414184570312,60.00108337402344,333.9169616699219
3281,-54.45294189453125,-214.4813995361328,61.52696228027344,330.9212951660156
3282,-71.55176544189453,-225.44677734375,68.34854125976561,317.9214172363281
3283,-65.54548645019531,-224.4744110107422,64.3094482421875,317.41278076171875
3284,-56.21069717407226,-216.0371856689453,61.97201156616211,333.45697021484375
3285,-54.52025985717773,-217.570556640625,66.25419616699219,323.4826354980469
3286,-73.0701675415039,-236.95819091796875,65.42394256591797,309.28973388671875
3287,-67.38552093505861,-232.1337127685547,62.87706756591797,318.531005859375
3288,-47.98291778564453,-215.76417541503903,64.69091796875,328.3332824707031
3289,-52.17160415649414,-217.46583557128903,64.24961090087889,331.48602294921875
3290,-68.80294036865234,-236.5131378173828,71.0113525390625,315.2623596191406
3291,-64.99945831298828,-224.1340789794922,67.85861206054689,317.9363708496094
3292,-57.58697891235352,-210.54327392578125,66.29159545898439,331.100830078125
3293,-55.75442886352539,-211.6727294921875,72.14080047607422,332.03955078125
3294,-66.41688537597656,-227.96372985839844,68.82724761962889,314.58917236328125
3295,-63.91115188598633,-231.3820037841797,60.01978302001953,314.9107971191406
3296,-56.218177795410156,-216.8711853027344,59.88514709472656,334.7173156738281
3297,-59.56912612915039,-216.5532989501953,64.43286895751953,331.2055358886719
3298,-76.6043701171875,-234.9423828125,69.60888671875,314.8547058105469
3299,-73.15618133544922,-225.81329345703125,65.50247955322266,320.0082702636719
3300,-59.460670471191406,-215.96987915039062,63.41561508178711,330.8614807128906
3301,-64.42725372314453,-218.5354461669922,59.372779846191406,332.1629638671875
3302,-68.43643188476561,-226.7669677734375,61.9794921875,313.0146789550781
3303,-71.79486083984375,-227.9487762451172,61.69152069091797,312.943603515625
3304,-53.87326049804688,-217.14419555664062,61.83737564086914,325.9996032714844
3305,-60.69109725952149,-218.68878173828125,69.87815856933594,328.13134765625
3306,-69.58831787109375,-226.0937805175781,66.58330535888672,312.9922180175781
3307,-65.32857513427734,-223.12429809570312,62.17022705078125,314.08428955078125
3308,-56.85770034790039,-210.17303466796875,63.69984436035156,329.0663146972656
3309,-55.44775772094727,-221.2954864501953,67.83991241455078,324.70184326171875
3310,-64.17294311523439,-233.7530975341797,70.59996032714844,312.4162902832031
3311,-66.3458251953125,-230.38345336914062,62.74991226196289,315.6325988769531
3312,-42.4890022277832,-208.2769012451172,65.19954681396484,332.5294494628906
3313,-51.43484497070313,-216.7552490234375,68.30740356445311,329.00274658203125
3314,-72.98788452148438,-229.37741088867188,68.8048095703125,318.531005859375
3315,-71.07679748535156,-223.17291259765625,64.09253692626953,320.52813720703125
3316,-52.96072387695313,-213.7109680175781,67.14055633544922,337.84759521484375
3317,-50.41385269165039,-218.2998352050781,68.89830780029297,331.9984130859375
3318,-64.19164276123047,-226.96517944335938,68.99928283691406,318.6694030761719
3319,-70.68411254882812,-234.75164794921875,60.68548583984375,315.1539001464844
3320,-53.40203094482422,-211.04067993164062,59.62709426879883,330.6146240234375
3321,-46.79736709594727,-214.6609039306641,63.4754524230957,329.4066467285156
3322,-67.35559844970703,-229.437255859375,66.70298767089844,310.32940673828125
3323,-56.87639999389648,-226.27330017089844,60.69670486450195,313.6728820800781
3324,-49.624732971191406,-214.18968200683597,63.86066055297852,333.86834716796875
3325,-48.79821395874024,-217.4022521972656,68.32236480712889,333.0193786621094
3326,-65.41832733154297,-232.20477294921875,63.68488693237305,313.9833068847656
3327,-62.80788040161133,-232.7882080078125,61.9495735168457,318.048583984375
3328,-47.395751953125,-219.50033569335938,62.43576049804688,332.71270751953125
3329,-47.736083984375,-224.24627685546875,66.79648590087889,331.3551330566406
3330,-66.63753509521484,-238.7757873535156,71.93510437011719,309.5851745605469
3331,-60.00669479370117,-237.2461700439453,69.54157257080078,313.3736877441406
3332,-44.56464767456055,-221.26931762695312,66.94233703613281,333.28118896484375
3333,-45.548240661621094,-224.45196533203125,69.56401062011719,326.1304931640625
3334,-58.66781234741211,-238.45040893554688,67.46592712402344,314.821044921875
3335,-55.82922744750977,-233.9326171875,61.75509643554688,320.3673095703125
3336,-51.67793655395508,-222.5146942138672,65.33792114257811,332.4434509277344
3337,-55.8067855834961,-220.8354797363281,70.10629272460939,327.203857421875
3338,-60.36572647094727,-239.1348114013672,70.06141662597656,316.5713195800781
3339,-56.72680282592773,-238.74212646484372,66.08216094970703,314.9631652832031
3340,-47.25363540649414,-223.25894165039062,62.66015243530274,329.4814453125
3341,-42.41420364379883,-225.8880920410156,70.35686492919922,328.5614318847656
3342,-57.9721908569336,-237.26486206054688,64.61985778808594,314.316162109375
3343,-58.0133285522461,-237.5677947998047,63.02292251586914,309.3533020019531
3344,-50.35027313232422,-229.07073974609372,60.04596328735352,327.58905029296875
3345,-46.49817657470703,-225.95166015625,68.19146728515625,327.544189453125
3346,-60.32084655761719,-242.1529083251953,67.83991241455078,311.3578796386719
3347,-59.14277648925781,-246.5061492919922,59.45505905151367,310.737060546875
3348,-47.227455139160156,-223.60675048828125,60.76776504516602,330.95123291015625
3349,-46.2700424194336,-222.0696563720703,69.20124053955078,334.4405517578125
3350,-62.321693420410156,-238.4691162109375,72.86634063720703,315.99163818359375
3351,-65.37345123291016,-231.52037048339844,67.01339721679689,317.3529357910156
3352,-46.95818328857422,-217.82485961914062,69.71734619140625,338.1767272949219
3353,-46.5617561340332,-225.4056396484375,76.23599243164062,331.0035705566406
3354,-59.29237365722656,-237.13771057128903,76.46786499023438,320.2401428222656
3355,-58.18910217285156,-227.32794189453125,68.24008178710939,328.06402587890625
3356,-51.341346740722656,-225.83572387695312,67.89975738525389,334.6537170410156
3357,-51.95843124389648,-223.90220642089844,71.4937973022461,332.3162841796875
3358,-63.675537109375,-235.51458740234372,71.09736633300781,323.4078369140625
3359,-58.735130310058594,-240.94866943359372,67.48088836669922,321.86700439453125
3360,-52.74007034301758,-226.27330017089844,69.49295043945311,333.3372802734375
3361,-55.86288452148438,-222.96722412109372,74.3436050415039,331.94976806640625
3362,-68.30179595947266,-237.66128540039062,67.24153137207031,319.32012939453125
3363,-67.19852447509766,-234.41879272460938,64.32814788818361,322.7608337402344
3364,-54.71847534179688,-217.76502990722656,64.86669158935547,335.4091796875
3365,-51.55826187133789,-219.2048797607422,70.29328918457031,333.3709411621094
3366,-68.44017028808594,-226.1237030029297,72.57089233398438,319.50714111328125
3367,-66.48793792724611,-220.4353179931641,64.16733551025389,319.047119140625
3368,-59.01188278198242,-209.929931640625,63.8756217956543,337.0884094238281
3369,-57.02973556518555,-208.26193237304688,70.57378387451172,335.2259216308594
3370,-64.95084381103516,-228.1357727050781,69.46677398681639,315.8233337402344
3371,-67.43413543701172,-227.88145446777344,62.82096862792969,315.93927001953125
3372,-48.16242980957031,-207.24842834472656,62.23754501342773,332.9632873535156
3373,-59.771080017089844,-209.52227783203125,67.72771453857422,330.1209716796875
3374,-67.05640411376953,-220.01644897460938,72.75414276123047,313.63922119140625
3375,-61.46151733398438,-222.33143615722656,66.216796875,316.8929443359375
3376,-49.47887802124024,-214.5449676513672,68.07179260253906,333.0979309082031
3377,-52.826087951660156,-216.8749237060547,63.55025100708008,334.1226501464844
3378,-66.15882873535156,-231.4455718994141,65.26686096191406,313.10443115234375
3379,-67.29576110839844,-228.9622802734375,63.28845596313477,319.4697265625
3380,-56.09476089477539,-214.2121124267578,63.86066055297852,330.1022644042969
3381,-61.15110397338867,-217.19656372070312,67.79503631591797,327.1103515625
3382,-74.955078125,-238.17739868164062,71.12728881835938,311.2980651855469
3383,-68.23073577880861,-232.9490203857422,66.69550323486328,313.6429748535156
3384,-58.96326446533203,-220.5699462890625,62.54421615600586,328.2659912109375
3385,-56.94745635986328,-226.62110900878903,67.54072570800781,327.0579833984375
3386,-67.45283508300781,-240.7953338623047,72.31657409667969,311.2905578613281
3387,-64.15050506591797,-235.5370330810547,64.20847320556639,316.5488586425781
3388,-53.39081192016602,-220.8280029296875,65.59597778320311,332.5294494628906
3389,-45.81751251220703,-220.22213745117188,68.11293029785156,326.1080627441406
3390,-64.14302062988281,-232.1299743652344,69.11148071289061,311.6832580566406
3391,-66.60762023925781,-233.3791046142578,70.15491485595703,313.06329345703125
3392,-51.913551330566406,-222.8213653564453,67.31259155273439,328.6885986328125
3393,-53.80220031738281,-225.7534484863281,69.42563629150389,327.0243225097656
3394,-65.03685760498047,-241.3899688720703,72.76536560058594,320.9469909667969
3395,-60.85191345214844,-235.1368560791016,69.42563629150389,315.4717712402344
3396,-56.34533309936523,-222.9148712158203,65.15840911865234,332.05450439453125
3397,-53.90317916870117,-227.26437377929688,72.26795959472656,330.4912109375
3398,-66.57022094726561,-234.355224609375,75.99663543701172,313.8860778808594
3399,-64.40481567382811,-234.6581573486328,64.74327850341797,308.9942626953125
3400,-50.28295516967773,-224.13034057617188,66.42623138427734,322.84686279296875
3401,-59.8907585144043,-221.5049285888672,63.62504959106445,324.38397216796875
3402,-67.16486358642578,-235.5295562744141,65.25564575195311,309.20745849609375
3403,-62.62088394165039,-230.85093688964844,62.65641403198242,311.5523681640625
3404,-58.68276977539063,-215.3415679931641,61.56436157226562,332.5855712890625
3405,-60.52280044555664,-216.5981750488281,65.26312255859375,330.6333312988281
3406,-64.69278717041016,-230.01319885253903,72.2155990600586,313.26898193359375
3407,-71.45452880859375,-228.94732666015625,73.30390930175781,315.0491638183594
3408,-58.06942749023438,-215.3602752685547,65.77548980712889,328.51654052734375
3409,-58.31999969482422,-217.11802673339844,66.47859191894531,332.01708984375
3410,-68.44390869140625,-234.7030334472656,66.40005493164061,315.6064147949219
3411,-68.87025451660156,-234.2579803466797,69.93799591064453,317.83538818359375
3412,-53.90317916870117,-220.48019409179688,65.96248626708984,327.1589660644531
3413,-53.65260314941406,-217.3723297119141,75.40573120117188,328.3407897949219
3414,-60.51531982421875,-227.5598297119141,73.67415618896484,308.60906982421875
3415,-56.88761901855469,-227.93006896972656,71.96502685546875,316.0589599609375
3416,-52.45957565307617,-218.93560791015625,65.91761016845703,325.88739013671875
3417,-55.40100860595703,-219.20301818847656,73.50586700439453,328.58575439453125
3418,-65.96622467041016,-230.26564025878903,67.85113525390625,312.5340881347656
3419,-68.763671875,-236.04379272460938,63.52033233642578,311.3335876464844
3420,-52.63348388671875,-222.61753845214844,68.81603240966797,331.1176452636719
3421,-61.06695556640625,-216.81695556640625,69.60514831542969,329.7974548339844
3422,-68.71878814697266,-231.4399719238281,65.95874786376953,313.46533203125
3423,-72.61203002929688,-226.4247589111328,62.80974960327149,315.08843994140625
3424,-63.68114471435547,-212.08224487304688,59.79912948608398,329.3187561035156
3425,-60.98093795776367,-215.02554321289062,69.27977752685547,326.9738464355469
3426,-66.04476165771484,-234.79840087890625,67.72397613525389,315.64569091796875
3427,-68.61033630371094,-228.4966735839844,65.10604858398439,318.0018310546875
3428,-61.47086715698242,-220.0744171142578,63.04162216186523,326.24456787109375
3429,-52.85039520263672,-222.8980407714844,63.37073516845703,329.0233154296875
3430,-66.11582183837889,-232.75267028808597,66.83762359619139,315.25299072265625
3431,-61.68030166625977,-234.947998046875,64.608642578125,314.28436279296875
3432,-54.4435920715332,-220.8111724853516,59.49619674682617,328.6530456542969
3433,-57.11762237548828,-225.48231506347656,69.07408142089844,328.454833984375
3434,-65.91012573242189,-236.48509216308597,69.38075256347656,312.2760314941406
3435,-73.34504699707031,-234.38327026367188,69.39571380615234,313.1175231933594
3436,-67.15925598144531,-220.88970947265625,64.84051513671875,327.5572814941406
3437,-61.72517776489258,-218.5784454345703,69.17131805419922,331.2298583984375
3438,-69.22367858886719,-237.16575622558597,68.90952301025389,313.2558898925781
3439,-72.78406524658203,-232.17672729492188,63.28097534179688,314.2469787597656
3440,-57.22233963012695,-221.82843017578125,66.18688201904297,331.27471923828125
3441,-58.23959350585938,-224.03497314453125,66.83762359619139,331.0653076171875
3442,-75.96297454833984,-239.47702026367188,69.73230743408203,311.06805419921875
3443,-71.89396667480469,-238.164306640625,63.0528450012207,314.4788513183594
3444,-64.29823303222656,-228.7135772705078,60.23295974731445,324.1651916503906
3445,-58.800575256347656,-229.9365234375,65.46881866455078,324.2811279296875
3446,-64.18229675292969,-238.73651123046875,69.83702087402344,304.94207763671875
3447,-70.48402404785156,-238.5009002685547,67.76511383056639,308.7455749511719
3448,-56.90818786621094,-221.79476928710938,63.35951614379883,324.8458251953125
3449,-63.15756225585938,-228.13389587402344,69.38449096679689,328.01727294921875
3450,-70.88419342041016,-249.08106994628903,73.32634735107422,320.4626770019531
3451,-72.06600189208984,-227.9468994140625,69.86319732666016,312.30596923828125
3452,-53.65447616577149,-218.8290252685547,62.66763305664063,326.7270202636719
3453,-59.12968826293945,-223.99757385253903,65.42394256591797,329.0719299316406
3454,-65.61093139648439,-238.51959228515625,71.66209411621094,320.3504943847656
3455,-66.95355987548828,-237.9099884033203,65.73809051513672,314.205810546875
3456,-51.87428283691406,-225.5720672607422,67.59682464599611,331.09521484375
3457,-57.79080581665039,-222.48291015625,74.00701141357422,328.8662414550781
3458,-64.19351196289061,-233.6315460205078,74.54181671142578,312.6425476074219
3459,-68.49813842773439,-237.6145477294922,68.61033630371094,314.0337829589844
3460,-53.991065979003906,-223.60861206054688,67.43974304199219,325.6536560058594
3461,-51.07768249511719,-226.4098052978516,68.57667541503906,332.30694580078125
3462,-68.98432159423828,-236.3579406738281,68.96188354492189,316.67041015625
3463,-61.68777847290039,-239.3535919189453,66.01858520507811,315.731689453125
3464,-51.12256240844727,-224.99986267089844,64.53384399414061,326.79058837890625
3465,-52.22957229614258,-226.4771270751953,64.3505859375,330.8895263671875
3466,-66.90119934082031,-235.86427307128903,67.34999084472656,318.05792236328125
3467,-68.27374267578125,-238.5121154785156,62.11412811279297,314.5985107421875
3468,-57.96284103393555,-217.7332305908203,66.95355987548828,332.4228820800781
3469,-57.58137130737305,-217.7257537841797,67.57064056396484,328.8961486816406
3470,-72.46990966796875,-235.9727325439453,77.22332763671875,315.5148010253906
3471,-66.82640075683594,-238.41114807128903,67.85113525390625,309.2355041503906
3472,-56.86705017089844,-227.0717620849609,70.70841979980469,327.1907653808594
3473,-54.46977233886719,-226.73892211914062,73.3824462890625,326.5549621582031
3474,-61.6092414855957,-238.4672393798828,70.76078033447266,312.6425476074219
3475,-64.61985778808594,-237.23681640625,65.47629547119139,313.0090637207031
3476,-46.96379470825195,-223.48146057128903,67.11063385009766,327.4674987792969
3477,-51.05524444580078,-217.9501495361328,71.32176208496094,328.94476318359375
3478,-61.41476821899414,-232.76014709472656,72.22681427001953,316.05706787109375
3479,-59.87018966674805,-234.8208312988281,71.88648986816406,315.52227783203125
3480,-52.22957229614258,-220.1866149902344,66.86753845214844,329.22900390625
3481,-60.79020309448242,-217.28819274902344,67.40982818603516,334.51348876953125
3482,-68.51309967041016,-227.11663818359372,70.25215148925781,319.8081970214844
3483,-69.82205963134766,-232.1991729736328,65.72312927246094,314.40777587890625
3484,-54.96343994140625,-215.29855346679688,65.37158203125,332.5612487792969
3485,-53.16080856323242,-217.0974578857422,68.32610321044922,329.0868835449219
3486,-65.40149688720703,-229.9028625488281,66.01858520507811,318.2598876953125
3487,-64.99758911132811,-236.6272125244141,66.63192749023439,311.3111572265625
3488,-54.72408676147461,-224.82781982421875,65.27434539794922,328.114501953125
3489,-51.48159408569336,-218.46250915527344,67.6192626953125,329.4646301269531
3490,-65.97744750976561,-236.6945343017578,72.45494842529297,311.1839904785156
3491,-63.31463623046875,-228.99034118652344,70.26711273193361,311.3186340332031
3492,-55.55060577392578,-213.98585510253903,66.11582183837889,327.59466552734375
3493,-51.42923355102539,-218.85520935058597,64.45904541015625,330.6913146972656
3494,-65.44264221191406,-238.3363494873047,71.25444030761719,318.85076904296875
3495,-68.07926940917969,-238.7739105224609,71.8341293334961,317.04815673828125
3496,-55.38978958129883,-221.9443664550781,73.91725158691406,341.694091796875
3497,-66.45241546630861,-223.4178771972656,69.33961486816406,334.075927734375
3498,-67.34624481201172,-227.2624969482422,75.2486572265625,322.9796447753906
3499,-78.71554565429688,-231.66436767578125,64.28701019287111,316.072021484375
3500,-63.20991897583008,-219.7266082763672,63.59886932373047,330.67633056640625
3501,-61.15297317504883,-216.09141540527344,77.5150375366211,332.6734619140625
3502,-77.76934814453125,-236.7244415283203,75.01678466796875,311.4644775390625
3503,-73.64424133300781,-239.92579650878903,65.00132751464844,308.3902893066406
3504,-52.05005645751953,-221.86582946777344,66.24298095703125,322.8188171386719
3505,-62.36844253540039,-217.6060791015625,72.61203002929688,320.9713134765625
3506,-69.08530426025389,-234.7759552001953,71.69949340820312,307.4515686035156
3507,-64.79937744140625,-237.7042999267578,68.25504302978516,304.710205078125
3508,-55.47206497192383,-221.27491760253903,66.80396270751953,323.8435363769531
3509,-49.50692749023438,-222.71478271484372,69.97914123535156,322.22418212890625
3510,-69.88938140869139,-236.57110595703125,64.58994293212889,309.81890869140625
3511,-66.4337158203125,-239.81735229492188,71.47883605957031,313.72711181640625
3512,-52.56242370605469,-223.0251922607422,73.83497619628906,331.177490234375
3513,-54.110740661621094,-220.25767517089844,74.26880645751953,337.4530334472656
3514,-58.50886535644531,-235.7483367919922,71.06745147705078,323.5406188964844
3515,-58.19845199584961,-228.27227783203125,70.32695007324219,320.44024658203125
3516,-53.459999084472656,-221.3272857666016,68.78984832763672,338.6610412597656
