,T7,F8,Cz,P4
2000,-71.4526596069336,-290.67999267578125,62.37592315673828,330.7193603515625
2001,-65.32670593261719,-280.83657836914057,61.54192352294922,343.54345703125
2002,-68.77863311767578,-289.198974609375,73.15057373046875,334.4330749511719
2003,-72.39884948730469,-295.8410339355469,70.37556457519531,323.7220153808594
2004,-68.73374938964844,-287.9947509765625,60.87248229980469,330.82781982421875
2005,-61.78501892089844,-277.37716674804693,62.42827987670898,343.3302917480469
2006,-61.13801574707031,-283.8583984375,73.21788787841797,339.54925537109375
2007,-68.87586975097656,-292.5798645019531,73.96587371826172,326.25390625
2008,-65.11727142333984,-279.64352416992193,64.51888275146484,333.20263671875
2009,-59.00253295898438,-270.34988403320307,59.06237030029297,348.7008056640625
2010,-58.62480163574219,-275.7353515625,82.08145141601562,341.7333679199219
2011,-67.13681030273439,-285.0102844238281,83.52505493164062,331.429931640625
2012,-60.54711151123047,-281.4854431152344,68.36537170410156,338.6385803222656
2013,-50.39702224731445,-274.98175048828125,64.20660400390625,344.80194091796875
2014,-58.77439880371094,-286.60162353515625,74.4576644897461,329.5281982421875
2015,-60.29279708862305,-298.804931640625,67.13494110107422,315.7354431152344
2016,-66.69924926757811,-298.67401123046875,52.08558654785156,320.59356689453125
2017,-54.58197021484375,-276.83673095703125,54.68481826782226,337.6961364746094
2018,-61.194114685058594,-289.6758117675781,58.70146942138672,318.0018310546875
2019,-80.1441879272461,-298.3074951171875,62.23567581176758,312.350830078125
2020,-69.14888000488281,-290.4125671386719,46.98810195922852,319.07891845703125
2021,-58.9389533996582,-281.7060852050781,49.41903686523438,333.4962158203125
2022,-59.93750762939453,-291.08203125,61.24085998535156,325.76959228515625
2023,-78.7230224609375,-295.81298828125,66.02419281005861,315.04730224609375
2024,-72.30535888671875,-285.4759216308594,56.84647750854492,325.8967590332031
2025,-57.57762908935547,-277.38650512695307,58.18162536621094,338.92657470703125
2026,-57.824462890625,-278.63189697265625,68.70944213867189,333.6794738769531
2027,-73.80131530761719,-288.9951477050781,68.12227630615234,321.01617431640625
2028,-70.51768493652344,-280.17648315429693,59.8309211730957,329.7750244140625
2029,-55.33742904663086,-269.01287841796875,59.74864196777344,349.55535888671875
2030,-63.16878128051758,-275.77462768554693,73.13374328613281,340.5683898925781
2031,-65.53614044189453,-287.02423095703125,76.76144409179688,329.5281982421875
2032,-67.62300109863281,-275.42678833007807,69.32652282714844,333.11474609375
2033,-62.14030838012695,-265.54598999023443,74.69328308105469,352.8988342285156
2034,-60.8238639831543,-275.80078125,80.88282012939453,336.97808837890625
2035,-67.98203277587889,-286.4707336425781,79.04652404785156,322.8150634765625
2036,-70.11377716064453,-287.70489501953125,56.75672149658203,327.81158447265625
2037,-63.08650207519531,-281.29843139648443,59.307334899902344,345.6322021484375
2038,-64.39173126220703,-294.369384765625,64.44221496582031,334.6556091308594
2039,-72.80276489257812,-300.6112976074219,68.64212036132811,323.2975158691406
2040,-78.22935485839844,-293.5017395019531,60.52654266357422,324.4382019042969
2041,-69.51165008544922,-280.24752807617193,51.69663619995117,336.0057067871094
2042,-63.09772109985352,-285.7227478027344,70.964599609375,330.4332580566406
2043,-69.67246246337889,-296.1607971191406,74.85409545898438,318.46929931640625
2044,-73.75643920898438,-293.0679016113281,56.11346054077149,330.1340637207031
2045,-61.85607528686523,-276.35055541992193,65.13035583496094,345.2843933105469
2046,-60.63686752319336,-279.7875366210937,72.18006896972656,332.8043518066406
2047,-70.35686492919922,-291.9609069824219,69.68555450439453,321.8800964355469
2048,-72.78032684326172,-286.7287902832031,63.95602798461914,333.7056579589844
2049,-56.78103256225586,-274.28988647460943,66.31216430664061,347.7639465332031
2050,-65.07612609863281,-276.9003295898437,84.18888854980469,337.6961364746094
2051,-62.86584854125977,-288.18359375,82.71537017822266,319.4229736328125
2052,-64.17481231689453,-277.9213256835937,74.10985565185547,333.4476013183594
2053,-47.19192886352539,-269.41677856445307,66.03915405273439,341.2191162109375
2054,-55.15043640136719,-278.39254760742193,76.40241241455078,333.5822448730469
2055,-65.02377319335939,-292.66400146484375,74.64092254638672,320.3429870605469
2056,-57.58884811401367,-287.5740051269531,64.47587585449219,331.1064453125
2057,-51.27215957641602,-276.99383544921875,62.5610466003418,346.3839111328125
2058,-56.76607131958008,-285.2552490234375,69.87255096435547,331.3495178222656
2059,-59.85522842407226,-298.0494689941406,69.39010620117189,320.156005859375
2060,-71.58729553222656,-292.009521484375,60.78085327148438,325.3507385253906
2061,-58.44528579711914,-281.10769653320307,62.27307510375977,337.9429626464844
2062,-67.81373596191406,-289.8403625488281,70.22035980224611,330.1864318847656
2063,-70.85053253173828,-299.57159423828125,71.85469818115234,316.1468200683594
2064,-73.96961212158203,-285.62176513671875,61.23712158203125,320.320556640625
2065,-63.28097534179688,-277.595947265625,58.49203491210938,336.8771057128906
2066,-67.33502960205078,-282.09503173828125,72.21372985839844,329.146728515625
2067,-66.87502288818361,-294.3619079589844,70.90850067138672,321.7940673828125
2068,-68.51683807373047,-292.25634765625,60.12263107299805,325.8967590332031
2069,-55.01953887939453,-277.2967529296875,59.14277648925781,340.1644592285156
2070,-60.51719284057617,-277.55105590820307,75.97606658935547,341.75018310546875
2071,-73.0009765625,-288.6398620605469,82.40495300292969,325.403076171875
2072,-65.25938415527344,-283.8677673339844,74.43522644042969,333.0399475097656
2073,-60.63686752319336,-277.99237060546875,73.49651336669922,344.58502197265625
2074,-56.59403610229492,-286.6091003417969,76.83250427246094,333.26434326171875
2075,-60.31897735595703,-299.54541015625,81.79534912109375,325.7957763671875
2076,-58.62106323242188,-297.6268615722656,66.79461669921875,329.84234619140625
2077,-48.669189453125,-292.2638244628906,63.49228286743164,339.37908935546875
2078,-57.25599670410156,-297.6305847167969,75.037353515625,330.3771667480469
2079,-68.61781311035156,-304.7139587402344,73.68350982666016,318.0130310058594
2080,-74.4258804321289,-301.2470703125,61.54753494262695,323.6490783691406
2081,-69.16384124755861,-289.4327392578125,54.32578659057617,341.1256103515625
2082,-64.74701690673828,-293.1315002441406,71.85469818115234,330.76611328125
2083,-67.03957366943361,-304.33624267578125,67.1087646484375,317.32489013671875
2084,-73.96212768554688,-294.3394775390625,59.56912612915039,322.89361572265625
2085,-60.10954284667969,-284.1220703125,57.1905517578125,335.2577209472656
2086,-66.16443634033203,-288.265869140625,68.87025451660156,331.5589599609375
2087,-77.64219665527344,-298.1766052246094,68.08113861083984,321.09844970703125
2088,-76.98023223876953,-290.296630859375,58.27138137817383,328.9522399902344
2089,-59.24188613891602,-277.09854125976557,58.929603576660156,341.2415466308594
2090,-57.0914421081543,-285.06451416015625,71.01696014404297,337.4156494140625
2091,-64.85173797607422,-299.979248046875,72.90187072753906,321.4275817871094
2092,-61.9907112121582,-297.0135192871094,60.22734832763672,329.1691589355469
2093,-54.98962020874024,-285.07574462890625,64.21408081054689,345.3853759765625
2094,-59.39522171020508,-290.8052673339844,76.73900604248047,332.7108459472656
2095,-66.11582183837889,-299.4257507324219,80.1385726928711,318.7610168457031
2096,-65.86898803710939,-297.02099609375,67.18356323242189,323.7350769042969
2097,-62.29738235473633,-285.9808044433594,62.83031845092773,334.9024353027344
2098,-60.90240097045898,-290.9511413574219,73.41423797607422,328.5670471191406
2099,-67.97829437255861,-302.2156982421875,79.54393005371094,319.55389404296875
2100,-76.21729278564453,-297.37628173828125,60.51531982421875,325.8818054199219
2101,-67.05079650878906,-290.5696716308594,53.057960510253906,333.3765563964844
2102,-64.55254364013672,-300.91796875,63.82513427734375,325.4217834472656
2103,-74.04814910888672,-303.0721435546875,69.97726440429689,319.1537170410156
2104,-76.50152587890625,-298.99566650390625,60.37320327758789,323.51068115234375
2105,-64.56376647949219,-287.18878173828125,48.5177230834961,338.9340515136719
2106,-66.46736907958984,-297.926025390625,58.88472366333008,330.78106689453125
2107,-80.57801818847656,-301.68463134765625,62.56852722167969,313.3680725097656
2108,-80.01702880859375,-303.5433654785156,57.09331130981445,323.3199462890625
2109,-61.77379608154297,-289.76556396484375,55.88158416748047,337.8158264160156
2110,-61.91217422485352,-293.9355773925781,68.33171081542969,331.0540771484375
2111,-74.9083251953125,-305.0430603027344,70.33255767822266,319.49029541015625
2112,-73.03837585449219,-296.4974060058594,65.35848999023439,329.7039794921875
2113,-63.4829330444336,-286.1116943359375,62.31047439575195,337.44183349609375
2114,-57.87308120727539,-290.5360107421875,78.96798706054688,338.0065612792969
2115,-71.36289978027344,-298.5169372558594,77.56926727294922,327.115966796875
2116,-68.05309295654297,-289.68328857421875,71.69762420654297,328.7764892578125
2117,-55.95077514648438,-278.4935302734375,67.32942199707031,339.2107849121094
2118,-55.77499771118164,-286.3772277832031,72.09405517578125,336.58538818359375
2119,-60.77898406982422,-299.98297119140625,76.41737365722656,323.4732971191406
2120,-64.39920806884766,-293.4643249511719,67.65853118896484,333.8664855957031
2121,-54.0808219909668,-286.0368957519531,64.89848327636719,345.7032470703125
2122,-62.99674606323242,-289.6571350097656,74.56612396240234,340.3140563964844
2123,-70.8542709350586,-298.2551574707031,72.63259887695312,328.00604248046875
2124,-78.92871856689453,-296.9087829589844,62.9238166809082,331.6412353515625
2125,-68.29244232177734,-283.83782958984375,61.19972229003906,342.65899658203125
2126,-66.74786376953125,-288.8941955566406,69.06847381591797,332.8492126464844
2127,-70.62614440917969,-296.39642333984375,76.30892181396484,324.9318542480469
2128,-78.01618194580078,-298.2252197265625,60.18246841430664,326.0874938964844
2129,-66.85258483886719,-286.33984375,57.26908874511719,344.4578857421875
2130,-69.30595397949219,-288.18359375,69.45742034912111,336.16650390625
2131,-75.76476287841797,-301.9464416503906,75.0560531616211,327.4226379394531
2132,-81.61396789550781,-295.1098937988281,61.558753967285156,335.3026123046875
2133,-67.93341064453125,-273.78872680664057,61.599891662597656,352.8389892578125
2134,-73.56196594238281,-284.2679138183594,81.52981567382812,340.0821838378906
2135,-74.66897583007812,-294.39556884765625,80.71452331542969,327.24310302734375
2136,-70.87671661376953,-292.5779724121094,75.40760040283203,335.9271545410156
2137,-65.14344787597656,-276.96389770507807,69.09465026855469,343.82208251953125
2138,-64.04391479492189,-280.4420166015625,79.2559585571289,338.7582702636719
2139,-69.66872406005861,-289.4289855957031,82.68170928955078,327.14215087890625
2140,-69.39945220947266,-284.2791442871094,66.37948608398439,334.9585266113281
2141,-60.34889602661133,-268.66879272460943,67.60617065429689,345.3105773925781
2142,-65.36784362792969,-273.36984252929693,78.1489486694336,339.135986328125
2143,-69.60514831542969,-293.4344177246094,81.22314453125,327.9985656738281
2144,-79.9085693359375,-289.0063781738281,66.93299102783203,333.5934753417969
2145,-65.36035919189453,-281.8033447265625,63.95228958129883,344.31201171875
2146,-67.17047119140625,-287.5777282714844,75.81525421142578,335.414794921875
2147,-75.01678466796875,-297.6829528808594,76.97087860107422,323.9669494628906
2148,-73.68537902832031,-291.9085388183594,66.3046875,328.89990234375
2149,-72.77284240722656,-281.3807373046875,60.59011840820313,344.2185363769531
2150,-73.33757019042969,-288.2322082519531,66.92176818847656,333.4139404296875
2151,-80.53687286376953,-294.64990234375,73.11504364013672,326.1884765625
2152,-78.6183090209961,-292.32366943359375,66.046630859375,332.0526123046875
2153,-63.01170349121094,-278.9161376953125,62.77796173095703,343.0516662597656
2154,-65.59971618652344,-279.0806884765625,78.5752944946289,343.3246765136719
2155,-75.06914520263672,-293.73736572265625,79.48409271240234,326.0650329589844
2156,-74.92328643798828,-291.0520935058594,64.36741638183594,329.2252502441406
2157,-63.9578971862793,-276.76943969726557,62.26559448242188,342.2475891113281
2158,-65.82785034179689,-287.77593994140625,76.48469543457031,335.2053527832031
2159,-72.2193374633789,-299.79974365234375,83.77375793457031,321.012451171875
2160,-66.80396270751953,-291.7103271484375,73.37310028076172,329.29632568359375
2161,-56.69501495361328,-280.5654296875,63.95977020263672,343.38079833984375
2162,-57.50657272338867,-278.53091430664057,79.24848175048828,333.2830505371094
2163,-76.64737701416016,-296.9910583496094,74.7979965209961,322.010986328125
2164,-73.10943603515625,-291.7477111816406,65.17897796630861,332.48272705078125
2165,-56.18638610839844,-279.63418579101557,57.69169616699219,346.5709228515625
2166,-65.74557495117189,-283.5722961425781,66.11395263671875,343.01800537109375
2167,-75.06914520263672,-297.2640686035156,72.93927001953125,325.99774169921875
2168,-74.104248046875,-292.7425537109375,64.42351531982422,335.11187744140625
2169,-71.72940826416016,-275.9241943359375,60.78833389282226,347.44232177734375
2170,-65.61093139648439,-286.5978698730469,69.68181610107422,332.7370300292969
2171,-75.98542022705078,-295.3305358886719,74.6558837890625,321.7865905761719
2172,-77.8591079711914,-289.6159973144531,66.25980377197266,328.3912658691406
2173,-62.761131286621094,-278.21676635742193,59.19513702392578,342.5580139160156
2174,-70.3942642211914,-282.513916015625,67.73706817626953,335.35870361328125
2175,-73.67790222167969,-297.7914123535156,73.58253479003906,324.0193176269531
2176,-70.00905609130861,-294.874267578125,61.91404342651367,331.2672424316406
2177,-69.70238494873047,-278.18310546875,60.04035568237305,343.47802734375
2178,-66.79273986816406,-289.23077392578125,67.03396606445311,336.24505615234375
2179,-74.32115936279297,-297.91107177734375,73.32821655273438,321.76043701171875
2180,-74.9906005859375,-289.5037841796875,60.05531311035156,329.5394287109375
2181,-66.29907989501953,-273.32870483398443,58.98196029663086,348.2501220703125
2182,-68.22512817382811,-274.38711547851557,72.8495101928711,337.1501159667969
2183,-84.53108978271484,-290.33404541015625,75.9237060546875,328.1481628417969
2184,-86.90592193603516,-285.6890869140625,66.21118927001953,330.65765380859375
2185,-74.90084838867188,-278.71044921875,60.86687088012695,343.04046630859375
2186,-78.86514282226562,-280.53176879882807,72.830810546875,335.5307312011719
2187,-80.28256225585938,-289.0998840332031,72.150146484375,325.16748046875
2188,-75.59646606445312,-285.0009460449219,62.893898010253906,327.6021423339844
2189,-65.33418273925781,-275.6998291015625,60.29840850830078,339.311767578125
2190,-58.30691146850586,-282.6597595214844,70.80378723144531,337.3857116699219
2191,-73.31138610839844,-291.3251037597656,70.68785095214844,323.38726806640625
2192,-68.92822265625,-284.7167053222656,62.09729766845703,326.87286376953125
2193,-63.31837463378906,-275.98779296875,56.40517044067383,342.2214050292969
2194,-65.90264892578125,-282.55877685546875,68.58602905273439,336.4769287109375
2195,-72.87007904052734,-290.6182861328125,70.74020385742188,320.68707275390625
2196,-76.7745361328125,-288.4491271972656,64.15798187255861,323.7463073730469
2197,-62.92194747924805,-277.6370849609375,56.76420211791992,343.291015625
2198,-62.21136474609375,-278.51220703125,73.5713119506836,336.0244140625
2199,-76.4940414428711,-288.4827880859375,71.94071197509766,323.4209289550781
2200,-78.55472564697266,-286.904541015625,65.96809387207031,328.0097961425781
2201,-65.40898132324219,-270.31808471679693,62.2094955444336,349.08038330078125
2202,-63.71106719970703,-276.58242797851557,75.52728271484375,339.1098327636719
2203,-70.31198883056639,-294.040283203125,81.66445922851562,327.3515625
2204,-67.89227294921875,-288.5276794433594,70.02962493896484,327.86767578125
2205,-60.87248229980469,-278.13449096679693,62.15339660644531,343.3246765136719
2206,-64.78067779541016,-285.038330078125,75.08222961425781,334.2890930175781
2207,-66.10834503173828,-295.7008056640625,74.15473937988281,318.15142822265625
2208,-63.565208435058594,-291.8786315917969,61.96640396118164,326.1847229003906
2209,-57.81698226928711,-275.27346801757807,60.24604797363281,342.48321533203125
2210,-62.529258728027344,-283.512451171875,62.32543182373047,335.61676025390625
2211,-70.30451202392578,-290.977294921875,76.1219253540039,327.13092041015625
2212,-70.86923217773438,-289.0587463378906,67.69593048095703,330.87457275390625
2213,-60.29279708862305,-272.39373779296875,67.81747436523439,343.1040344238281
2214,-62.26746368408203,-282.22967529296875,74.73255157470703,337.3445739746094
2215,-69.85572052001953,-290.7117614746094,80.07312774658203,327.26556396484375
2216,-74.02944946289062,-296.1346130371094,69.21245574951172,332.8267822265625
2217,-62.25998306274414,-285.3824157714844,63.81952285766602,341.1031799316406
2218,-59.41765975952149,-286.50439453125,71.29932403564453,336.69757080078125
2219,-73.4048843383789,-294.5526428222656,67.08819580078125,321.1321105957031
2220,-64.44034576416016,-289.69451904296875,61.29883193969727,330.4893493652344
2221,-52.36046981811523,-280.34475708007807,57.0390853881836,341.7127990722656
2222,-59.24188613891602,-283.54986572265625,70.59248352050781,339.13226318359375
2223,-65.68572998046875,-293.9168701171875,68.65895080566406,323.5967102050781
2224,-68.82350921630861,-288.2958068847656,66.89372253417969,328.69793701171875
2225,-56.3285026550293,-272.7191162109375,64.31693267822266,338.1860656738281
2226,-55.76751708984375,-281.45553588867193,69.24237823486328,335.87481689453125
2227,-70.08759307861328,-290.9249572753906,79.84125518798828,324.9056701660156
2228,-71.8341293334961,-286.76617431640625,63.30715560913086,331.88433837890625
2229,-67.12933349609375,-274.1627197265625,61.06695556640625,346.1146545410156
2230,-73.7414779663086,-283.8228759765625,71.00012969970703,336.2787170410156
2231,-73.65171813964844,-289.91143798828125,76.42672729492188,329.8236389160156
2232,-73.39366912841797,-286.1229248046875,60.513450622558594,330.1228332519531
2233,-54.10326385498047,-276.41412353515625,55.113037109375,343.3359069824219
2234,-53.5983772277832,-281.63128662109375,69.81832122802734,335.6279602050781
2235,-66.96477508544922,-296.9087829589844,73.97335052490234,325.4891052246094
2236,-66.24671936035156,-294.3469543457031,66.87128448486328,328.1070251464844
2237,-64.65725708007811,-280.04559326171875,58.677162170410156,343.466796875
2238,-60.55833053588867,-278.97970581054693,72.93366241455078,336.83221435546875
2239,-61.57184219360352,-291.1231689453125,74.8896255493164,324.87200927734375
2240,-68.91326904296875,-285.97705078125,63.02666473388672,332.2770080566406
2241,-66.12704467773439,-280.26248168945307,58.23959350585938,338.9490051269531
2242,-60.9061393737793,-277.4164428710937,68.54301452636719,338.0364685058594
2243,-79.39994812011719,-290.7229919433594,64.96767425537111,322.78515625
2244,-77.48511505126953,-285.554443359375,58.10869598388672,326.4988708496094
2245,-67.15177154541016,-273.24642944335943,54.61562728881836,341.3126220703125
2246,-64.16733551025389,-285.8162536621094,67.69779968261719,337.4493103027344
2247,-61.620460510253906,-299.7249450683594,69.50791168212889,321.248046875
2248,-65.20328521728516,-299.309814453125,59.982383728027344,325.6274719238281
2249,-58.34056854248047,-285.1019287109375,59.6794548034668,343.12646484375
2250,-55.9881706237793,-280.81600952148443,74.05188751220703,337.4530334472656
2251,-66.29159545898439,-292.36480712890625,73.26651000976562,325.33203125
2252,-70.6897201538086,-290.9286804199219,60.72288513183594,328.1668701171875
2253,-55.15791320800781,-275.58013916015625,59.440101623535156,342.7898864746094
2254,-57.11014175415039,-285.7751159667969,64.68717956542969,339.0163269042969
2255,-62.88828659057617,-300.24102783203125,75.88069915771484,322.9272766113281
2256,-60.87996292114258,-293.4643249511719,63.63252639770508,331.8880615234375
2257,-56.19386672973633,-284.08465576171875,58.52008438110352,339.89520263671875
2258,-49.94449234008789,-285.9396667480469,69.40693664550781,339.1023254394531
2259,-66.48606872558594,-294.3282470703125,75.89566040039062,326.27447509765625
2260,-67.06201934814453,-293.7448425292969,68.53179931640625,328.5670471191406
2261,-56.88948822021485,-277.66326904296875,67.08819580078125,343.560302734375
2262,-57.79080581665039,-286.29119873046875,70.53638458251953,339.4538879394531
2263,-68.64773559570311,-299.23126220703125,77.10738372802734,326.3605041503906
2264,-71.12355041503906,-298.7039489746094,67.84739685058594,323.30499267578125
2265,-58.69585800170898,-279.43972778320307,62.3385238647461,339.8316345214844
2266,-58.90155410766602,-286.9643859863281,72.43251037597656,336.8771057128906
2267,-64.05139923095703,-300.1849365234375,74.76995086669922,318.8432922363281
2268,-69.67994689941406,-296.01495361328125,61.29883193969727,322.5570068359375
2269,-61.10809707641602,-283.9949035644531,62.47689819335938,340.5309753417969
2270,-56.61647415161133,-286.50439453125,70.01654052734375,331.5926208496094
2271,-72.24177551269531,-297.2453918457031,78.24805450439453,318.5777587890625
2272,-76.48282623291016,-293.4905090332031,66.60575103759766,320.5673828125
2273,-65.69321441650389,-288.67352294921875,63.12016296386719,340.2878723144531
2274,-64.82181549072266,-285.8611145019531,73.54326629638672,336.51806640625
2275,-73.71903991699219,-301.1311340332031,71.56111907958984,321.7043151855469
2276,-75.95923614501953,-295.0799865722656,64.51514434814453,323.28631591796875
2277,-64.90409088134766,-281.29843139648443,59.11472702026367,345.2208251953125
2278,-64.34684753417969,-288.60247802734375,71.23948669433594,333.16339111328125
2279,-69.16757965087889,-300.484130859375,77.03633117675781,324.6887512207031
2280,-74.56425476074219,-293.41571044921875,63.97285842895508,327.291748046875
2281,-60.8238639831543,-278.51971435546875,60.87248229980469,345.7481384277344
2282,-65.18458557128906,-284.99346923828125,66.88998413085939,338.8405456542969
2283,-76.2509536743164,-291.6205749511719,72.37641143798828,326.611083984375
2284,-71.51997375488281,-288.16864013671875,63.41935348510742,327.29547119140625
2285,-64.57124328613281,-273.80368041992193,64.09627532958984,342.0007629394531
2286,-63.10894012451172,-277.162109375,77.04380798339844,340.7778015136719
2287,-72.17072296142578,-290.0086669921875,80.24516296386719,323.8023986816406
2288,-69.59767150878906,-283.4825439453125,68.83847045898439,332.7482604980469
2289,-57.8356819152832,-271.40267944335943,66.64315032958984,342.3672790527344
2290,-57.4130744934082,-275.72225952148443,71.23200225830078,340.52349853515625
2291,-67.34250640869139,-289.8777770996094,76.97274780273438,325.1076354980469
2292,-73.16927337646484,-292.8323059082031,70.40922546386719,329.41973876953125
2293,-65.86151123046875,-278.265380859375,61.01085662841797,338.8143615722656
2294,-66.40379333496094,-282.27081298828125,68.05309295654297,334.25543212890625
2295,-72.87007904052734,-296.2543029785156,67.53324127197266,317.2725524902344
2296,-74.70637512207031,-294.02532958984375,61.12305450439453,322.1792907714844
2297,-68.78237152099611,-284.9373779296875,55.49076461791992,338.6498107910156
2298,-60.02726364135742,-288.1611633300781,70.87671661376953,337.7335205078125
2299,-67.27519226074219,-301.2171630859375,70.40548706054688,318.6899719238281
2300,-71.55363464355469,-295.47265625,63.27723693847656,325.4629211425781
2301,-65.00507354736328,-286.3884582519531,60.96223831176758,340.8152160644531
2302,-62.10290908813477,-284.3389892578125,69.64628601074219,336.91448974609375
2303,-64.15985107421875,-298.7637634277344,75.81712341308594,315.5185241699219
2304,-68.15406799316406,-299.01434326171875,65.38279724121094,321.84271240234375
2305,-55.75629806518555,-280.09793090820307,62.188926696777344,340.78155517578125
2306,-54.58945083618164,-280.52053833007807,69.58271026611328,338.313232421875
2307,-70.96646881103516,-290.6893310546875,78.1957015991211,323.8360595703125
2308,-69.71360778808594,-283.62841796875,69.39571380615234,334.1357421875
2309,-54.54830932617188,-271.91876220703125,69.70612335205078,352.31915283203125
2310,-52.11737442016602,-276.410400390625,75.1663818359375,350.2285461425781
2311,-64.12245178222656,-293.7448425292969,74.78116607666016,330.44073486328125
2312,-65.30800628662111,-289.462646484375,64.73954010009766,331.28594970703125
2313,-61.388587951660156,-276.89657592773443,52.37542724609375,340.1233215332031
2314,-67.20039367675781,-285.060791015625,62.40584182739258,332.4041748046875
2315,-72.02860260009766,-301.1872253417969,65.38279724121094,318.52166748046875
2316,-74.18278503417969,-300.0839538574219,56.60525512695313,323.80987548828125
2317,-65.91012573242189,-285.9247131347656,51.67232894897461,336.50311279296875
2318,-57.33827590942383,-290.50982666015625,62.3609619140625,334.1282653808594
2319,-71.59103393554688,-300.4130859375,71.59103393554688,318.2524108886719
2320,-67.21909332275389,-295.2071228027344,63.09772109985352,323.3536071777344
2321,-65.18832397460939,-282.83929443359375,57.30087661743164,333.6645202636719
2322,-52.81673812866211,-283.03375244140625,68.07926940917969,331.6487121582031
2323,-68.94318389892578,-293.5765380859375,69.21994018554689,311.96563720703125
2324,-65.33792114257811,-290.5472106933594,60.80142211914063,318.79095458984375
2325,-59.92254638671875,-272.06088256835943,59.50367736816406,333.1072692871094
2326,-58.97635269165039,-278.47854614257807,68.32984161376953,328.62689208984375
2327,-72.38015747070312,-291.5345458984375,72.2155990600586,320.2046203613281
2328,-74.87466430664062,-286.8409729003906,62.67511367797852,325.48162841796875
2329,-67.21535491943361,-272.677978515625,60.79768371582031,339.56610107421875
2330,-69.91929626464844,-277.68569946289057,68.32610321044922,340.1981201171875
2331,-80.6715087890625,-284.9448547363281,71.69575500488281,328.5072021484375
2332,-82.16747283935547,-287.7684631347656,58.82675552368164,332.5088806152344
2333,-75.9106216430664,-276.44778442382807,53.91626739501953,347.8873596191406
2334,-64.14115142822266,-279.80996704101557,63.16130065917969,340.93115234375
2335,-81.23997497558594,-296.3627624511719,67.08071899414061,317.3810119628906
2336,-77.02136993408203,-288.7034606933594,63.74098587036133,326.2109069824219
2337,-66.78152465820311,-276.0999755859375,55.09807586669922,344.416748046875
2338,-60.02726364135742,-278.4000244140625,65.43889617919922,335.6391906738281
2339,-66.66932678222656,-294.24224853515625,70.56629943847656,318.7236328125
2340,-63.101463317871094,-291.8000793457031,66.09712219238281,325.9004821777344
2341,-55.46084594726562,-282.94775390625,58.27325057983398,337.9803771972656
2342,-56.78103256225586,-285.154296875,67.43226623535156,335.8673400878906
2343,-58.92399215698242,-295.03509521484375,81.09412384033203,320.4439697265625
2344,-65.50247955322266,-291.02593994140625,67.85487365722656,326.1174011230469
2345,-60.60694885253906,-281.6761779785156,59.54107666015625,338.46282958984375
2346,-65.11727142333984,-281.27227783203125,71.74063110351562,338.73583984375
2347,-65.29678344726561,-292.05438232421875,73.49838256835938,322.175537109375
2348,-80.09556579589844,-291.57196044921875,66.47859191894531,327.3328857421875
2349,-63.64374923706055,-275.78582763671875,60.18434143066406,340.6506652832031
2350,-61.85233688354492,-271.90008544921875,73.71903991699219,342.6552429199219
2351,-73.34878540039062,-288.441650390625,79.8038558959961,331.2784729003906
2352,-78.9623794555664,-286.68017578125,69.25733947753906,334.79022216796875
2353,-65.96248626708984,-271.55975341796875,61.31753158569336,348.560546875
2354,-63.53155136108398,-278.16067504882807,66.64688873291016,345.7855529785156
2355,-73.99578857421875,-293.0903625488281,72.68682861328125,326.06878662109375
2356,-77.87032318115234,-293.3521423339844,58.41162872314453,328.3800354003906
2357,-68.81603240966797,-282.184814453125,57.79080581665039,340.94610595703125
2358,-57.76088333129883,-282.6747131347656,69.66498565673828,336.2936706542969
2359,-63.04536437988281,-297.15936279296875,74.99808502197266,318.14019775390625
2360,-57.12510299682617,-288.1349792480469,61.61298370361328,321.7230224609375
2361,-61.1978530883789,-283.5274353027344,56.64265441894531,336.1403503417969
2362,-54.24538040161133,-285.9808044433594,62.87706756591797,335.1604919433594
2363,-50.49425888061523,-300.5028381347656,75.30475616455078,325.8967590332031
2364,-52.10989761352539,-301.1984558105469,64.94523620605469,329.475830078125
2365,-48.26527786254883,-287.6562805175781,60.79768371582031,341.95587158203125
2366,-45.92036056518555,-290.1657409667969,66.19435882568361,342.27001953125
2367,-61.579322814941406,-299.9306335449219,74.04814910888672,329.44964599609375
2368,-67.40608978271484,-303.9397888183594,64.2271728515625,329.9582824707031
2369,-58.31064987182617,-282.3680419921875,53.13836669921875,345.87530517578125
2370,-58.83423614501953,-284.4324951171875,68.89830780029297,340.1195983886719
2371,-68.505615234375,-293.6475830078125,73.61058044433594,322.6018981933594
2372,-72.76536560058594,-284.9747619628906,65.21450805664061,328.9933776855469
2373,-57.49161148071289,-269.50653076171875,64.63855743408203,347.3562927246094
2374,-68.86838531494139,-272.853759765625,69.10400390625,348.22021484375
2375,-76.60997772216797,-284.61572265625,70.83183288574219,333.0923156738281
2376,-83.81676483154297,-286.94195556640625,60.05718231201172,334.82763671875
2377,-67.58186340332031,-275.7821044921875,47.02737045288086,342.1503601074219
2378,-67.64917755126953,-280.5654296875,58.87537384033203,337.2323913574219
2379,-76.38932800292969,-295.64471435546875,63.827003479003906,321.2368469238281
2380,-89.0414047241211,-297.7539978027344,57.57014846801758,322.9684143066406
2381,-71.46762084960938,-281.03289794921875,49.16659545898438,337.1575927734375
2382,-62.70503234863281,-285.67413330078125,60.79768371582031,331.16253662109375
2383,-75.95923614501953,-299.6090087890625,63.74846649169922,316.6592102050781
2384,-68.12788391113281,-294.0215759277344,58.08251571655274,316.9471740722656
2385,-67.05827331542969,-280.2699584960937,49.073097229003906,334.12078857421875
2386,-63.38943481445313,-285.225341796875,57.90674209594727,333.208251953125
2387,-74.99434661865234,-299.2536926269531,66.45241546630861,319.8119201660156
2388,-79.4223861694336,-298.7450866699219,53.02243041992188,322.7440185546875
2389,-69.49668884277344,-284.70550537109375,47.2031478881836,339.7942199707031
2390,-75.49175262451172,-284.8438720703125,63.565208435058594,333.395263671875
2391,-83.03887176513672,-300.28216552734375,64.85173797607422,318.73858642578125
2392,-72.58210754394531,-295.4502258300781,61.81493759155274,325.52276611328125
2393,-65.88394927978516,-281.61260986328125,54.53709030151367,337.7784118652344
2394,-63.42309188842773,-277.56228637695307,68.30740356445311,342.40093994140625
2395,-69.09651947021484,-294.0589904785156,73.21041107177734,324.48681640625
2396,-70.91785430908203,-293.03424072265625,66.90868377685547,327.4974365234375
2397,-64.23464965820311,-281.23861694335943,56.49305725097656,336.2076416015625
2398,-61.51574325561523,-278.99465942382807,65.71565246582031,332.9015808105469
2399,-73.71903991699219,-297.7390441894531,72.14453887939453,321.54351806640625
2400,-74.28376007080078,-303.0609130859375,59.53359603881836,322.9384765625
2401,-59.75799179077149,-285.0158996582031,58.377967834472656,340.4038391113281
2402,-62.955604553222656,-286.3510437011719,69.02546691894531,335.27642822265625
2403,-78.39765167236328,-298.7637634277344,74.4258804321289,318.8545227050781
2404,-74.81856536865234,-298.3074951171875,64.75450134277344,318.2524108886719
2405,-70.96646881103516,-291.3326110839844,56.43321990966797,335.826171875
2406,-58.75195693969727,-289.69451904296875,65.67825317382811,333.45135498046875
2407,-69.67246246337889,-303.73785400390625,69.21620178222656,319.9503173828125
2408,-80.59671020507812,-304.8074645996094,59.64579391479492,316.7003479003906
2409,-65.91386413574219,-290.4013671875,52.53998565673828,334.3863220214844
2410,-66.02980041503906,-290.3826599121094,60.71166610717773,333.7168884277344
2411,-72.56340789794922,-299.3621520996094,65.69695281982422,318.97418212890625
2412,-68.07926940917969,-299.8670349121094,59.10725021362305,322.2877502441406
2413,-62.77609252929688,-282.2259521484375,52.55120468139648,338.8816833496094
2414,-61.91030502319336,-283.0206604003906,63.83261108398438,334.71917724609375
2415,-72.77845001220703,-294.2029724121094,65.87459564208984,325.1861572265625
2416,-83.65034484863281,-296.5067443847656,62.69194412231445,316.51708984375
2417,-68.42147064208984,-281.82763671875,57.92731094360352,335.4073181152344
2418,-65.94565582275389,-285.8218688964844,62.6021842956543,328.3351745605469
2419,-77.55430603027344,-300.5383605957031,71.99681091308594,314.2694091796875
2420,-75.05231475830078,-302.49432373046875,62.92007827758789,317.5605163574219
2421,-66.63005828857422,-288.40985107421875,52.17534255981445,333.6794738769531
2422,-64.60677337646484,-282.096923828125,68.23821258544922,335.5830993652344
2423,-72.62511444091797,-297.9765319824219,69.78652954101561,320.8591003417969
2424,-75.75541687011719,-299.5173645019531,59.08293914794922,321.9698486328125
2425,-78.88197326660156,-285.302001953125,56.03491973876953,337.8345031738281
2426,-70.90850067138672,-283.4395446777344,67.23966217041016,340.2055969238281
2427,-73.70594787597656,-293.5634460449219,75.49736022949219,326.7419738769531
2428,-81.48493957519531,-295.12298583984375,62.07859802246094,324.38958740234375
2429,-72.4680404663086,-283.33856201171875,54.68107604980469,341.5407409667969
2430,-69.42002105712889,-279.64352416992193,65.40337371826172,336.27496337890625
2431,-77.63284301757812,-294.6779479980469,72.63633728027344,327.86395263671875
2432,-75.84516906738281,-296.4768371582031,64.31505584716797,324.041748046875
2433,-71.05435943603516,-280.5336303710937,51.07207489013672,341.5669250488281
2434,-70.34004211425781,-277.82968139648443,59.24749374389648,333.87396240234375
2435,-80.11239624023438,-291.1661682128906,72.0267333984375,322.2765197753906
2436,-77.2850341796875,-298.2644958496094,58.16292572021485,320.35797119140625
2437,-69.53221893310547,-286.6558532714844,49.44147872924805,336.1328430175781
2438,-68.36911010742189,-283.0767822265625,57.171852111816406,340.2729187011719
2439,-73.59375,-298.0588073730469,62.15713882446289,322.4747314453125
2440,-78.20504760742188,-296.3272399902344,49.55741500854492,318.8694763183594
2441,-73.28334045410156,-287.40008544921875,48.59626007080078,338.64605712890625
2442,-61.641029357910156,-292.9762878417969,56.12467956542969,335.8860168457031
2443,-71.95941162109375,-302.1614685058594,61.068824768066406,319.5277099609375
2444,-74.12481689453125,-301.4658508300781,62.66576385498047,326.0201721191406
2445,-64.22904205322266,-289.4346008300781,50.58214569091797,343.713623046875
2446,-61.4577751159668,-282.49334716796875,61.4577751159668,345.04876708984375
2447,-73.1487045288086,-296.0542297363281,65.11165618896484,327.5572814941406
2448,-81.4213638305664,-294.468505859375,58.4471549987793,329.7563171386719
2449,-66.43558502197266,-280.9525146484375,55.59361267089844,343.0666198730469
2450,-69.88377380371094,-277.71749877929693,59.05675888061523,342.363525390625
2451,-77.8123550415039,-288.24530029296875,68.26813507080078,328.8475341796875
2452,-73.4478988647461,-291.1362609863281,64.70401000976561,328.2005310058594
2453,-69.49855804443361,-282.3362731933594,47.97917556762695,337.63629150390625
2454,-60.47418212890625,-277.42202758789057,60.10019302368164,338.88543701171875
2455,-69.84637451171875,-293.4026184082031,66.19248962402344,319.7633056640625
2456,-74.68579864501953,-289.80859375,58.77252960205078,318.9367980957031
2457,-60.19742965698242,-279.0750732421875,51.34508514404297,340.7478942871094
2458,-60.032875061035156,-282.30633544921875,63.45114135742188,337.2286376953125
2459,-65.94191741943361,-296.42071533203125,68.07740020751953,327.4899597167969
2460,-70.87858581542969,-298.7394714355469,56.30419540405274,324.4382019042969
2461,-64.73018646240234,-289.5019226074219,45.44352340698242,341.96710205078125
2462,-64.84238433837889,-289.1054992675781,57.9834098815918,344.00909423828125
2463,-76.46973419189453,-299.4276123046875,65.39962768554689,324.9206237792969
2464,-73.85554504394531,-298.9862976074219,62.2020149230957,328.1481628417969
2465,-64.22530364990234,-284.65875244140625,56.14337921142578,343.45184326171875
2466,-63.21553039550781,-286.674560546875,63.806434631347656,345.2058410644531
2467,-74.74189758300781,-299.9437255859375,71.07305908203125,330.1864318847656
2468,-74.16221618652344,-298.10369873046875,63.01731491088867,327.5161437988281
2469,-66.09525299072266,-284.9205322265625,53.56658554077149,340.5422058105469
2470,-64.19164276123047,-285.0514221191406,64.63668823242189,342.28125
2471,-66.26728820800781,-299.18450927734375,74.36417388916016,326.8466796875
2472,-67.66226959228516,-298.76190185546875,67.69593048095703,325.6387023925781
2473,-58.29756164550781,-283.0879821777344,61.32313919067383,341.1144104003906
2474,-46.32614135742188,-275.76901245117193,75.1009292602539,339.6221923828125
2475,-60.36572647094727,-294.6031494140625,78.96798706054688,324.4232177734375
2476,-66.87315368652344,-292.4788818359375,64.38237762451172,324.20257568359375
2477,-51.41614532470703,-281.4573974609375,61.07256698608398,335.3960876464844
2478,-56.0760612487793,-282.1754455566406,72.4306411743164,336.6227722167969
2479,-61.10996627807617,-293.5933532714844,71.14037322998047,320.7095031738281
2480,-64.58058929443361,-299.1620788574219,64.60677337646484,322.3139343261719
2481,-61.7906265258789,-289.35980224609375,55.31686019897461,334.63690185546875
2482,-54.00041580200195,-283.8658752441406,70.67662811279297,338.642333984375
2483,-66.04289245605469,-298.44775390625,69.53595733642578,320.33551025390625
2484,-64.7376708984375,-300.0260009765625,63.27910614013672,321.45001220703125
2485,-58.40975570678711,-286.5735778808594,53.55536651611328,341.7352294921875
2486,-60.91175079345703,-283.1365966796875,63.60821914672852,340.7478942871094
2487,-66.046630859375,-292.1310729980469,72.23616790771484,328.5520935058594
2488,-65.50434875488281,-298.56744384765625,61.21094131469727,325.4778747558594
2489,-57.2840461730957,-284.621337890625,57.23917007446289,346.8626403808594
2490,-64.50205230712889,-279.60614013671875,71.21517181396484,342.04937744140625
2491,-70.99078369140625,-294.4647521972656,71.90705871582031,325.4367370605469
2492,-75.32532501220703,-298.5113220214844,61.43159484863281,324.4382019042969
2493,-69.81271362304689,-284.4792175292969,58.15170288085938,338.54510498046875
2494,-64.99571990966797,-284.78216552734375,61.4502944946289,333.19329833984375
2495,-69.02359008789061,-302.5616455078125,73.44415283203125,321.2630310058594
2496,-69.61824035644531,-301.60797119140625,67.32942199707031,326.15106201171875
2497,-55.58239364624024,-284.2698059082031,55.54873275756836,338.10003662109375
2498,-56.22939682006836,-279.04141235351557,67.13868713378906,345.98748779296875
2499,-64.40855407714844,-294.8499755859375,72.61016082763672,325.0814514160156
2500,-68.47756958007811,-292.83416748046875,65.119140625,324.8346252441406
2501,-63.49975967407226,-286.18463134765625,56.8614387512207,341.0470886230469
2502,-59.77482223510742,-282.777587890625,69.30034637451172,340.7853088378906
2503,-71.35355377197266,-298.30938720703125,77.12796020507812,322.70660400390625
2504,-67.10502624511719,-300.42242431640625,66.09525299072266,323.39849853515625
2505,-57.41120529174805,-284.38946533203125,57.9721908569336,342.7337951660156
2506,-64.27391815185547,-282.27642822265625,66.26728820800781,339.5361633300781
2507,-65.68386077880861,-289.5692443847656,77.60292053222656,326.62603759765625
2508,-65.28742980957031,-293.33905029296875,68.05121612548828,329.0195617675781
2509,-64.48709869384766,-279.8380126953125,59.460670471191406,342.023193359375
2510,-59.8907585144043,-289.2475891113281,67.09006500244139,340.65814208984375
2511,-70.17922210693361,-295.6914367675781,76.39493560791016,323.89215087890625
2512,-69.71547698974611,-298.1111755371094,63.44366455078125,326.9588928222656
2513,-60.302146911621094,-287.60577392578125,57.10827255249024,337.4530334472656
2514,-65.53426361083984,-289.6290588378906,58.86602401733398,334.7266540527344
2515,-66.53282165527344,-299.73052978515625,72.41194152832031,323.30126953125
2516,-74.25945281982422,-294.7228088378906,68.66456604003906,326.1548156738281
2517,-60.27970886230469,-284.8981018066406,59.03432083129883,340.2168273925781
2518,-54.9540901184082,-283.74993896484375,66.67493438720703,340.7142333984375
2519,-67.52763366699219,-292.6658630371094,75.75167083740234,323.5518493652344
2520,-65.72499847412111,-296.5740661621094,65.38092803955078,321.6781311035156
2521,-53.84333801269531,-284.22119140625,56.01622009277344,341.1031799316406
2522,-49.774330139160156,-278.50662231445307,71.0057373046875,342.1391296386719
2523,-63.41374206542969,-292.8416442871094,75.51605987548828,324.78973388671875
2524,-61.58867263793945,-297.6324462890625,67.71836853027344,324.1950988769531
2525,-55.06254577636719,-284.2024841308594,63.40626525878906,349.6152038574219
2526,-54.011634826660156,-283.42083740234375,72.58771514892578,356.5676574707031
2527,-67.68470764160156,-295.6054382324219,77.21397399902344,334.5770568847656
2528,-66.6861572265625,-292.1497497558594,77.34113311767578,337.9915771484375
2529,-57.72535705566406,-279.48272705078125,62.33291244506836,350.1313171386719
2530,-54.351966857910156,-282.82244873046875,69.32652282714844,342.2288818359375
2531,-57.2616081237793,-294.0159606933594,76.02842712402344,327.9798889160156
2532,-67.43413543701172,-298.59735107421875,69.20684814453125,328.1219787597656
2533,-57.82259368896485,-291.3045349121094,57.826332092285156,340.5047912597656
2534,-59.50554656982422,-286.51373291015625,68.48504638671875,343.2124938964844
2535,-65.43702697753906,-296.9630126953125,78.09658813476562,329.4234924316406
2536,-72.71113586425781,-299.4201354980469,70.6429672241211,324.33721923828125
2537,-62.81161880493164,-284.3520812988281,55.63101196289063,334.3414611816406
2538,-65.12661743164061,-283.271240234375,61.4502944946289,335.0146179199219
2539,-66.84696960449219,-288.8175048828125,74.43522644042969,319.5912780761719
2540,-68.01381683349611,-291.3456726074219,69.33774566650389,320.29437255859375
2541,-56.8277816772461,-276.487060546875,64.69652557373047,337.9691467285156
2542,-56.300453186035156,-276.65908813476557,74.74564361572266,340.7030029296875
2543,-65.59036254882811,-290.5079345703125,78.12277221679688,320.79925537109375
2544,-72.22120666503906,-286.2294921875,74.34921264648438,322.4036865234375
2545,-65.10791778564453,-272.6312255859375,62.67698287963867,339.8727722167969
2546,-60.70979690551758,-273.2183837890625,72.42316436767578,341.5407409667969
2547,-66.27102661132811,-287.2168273925781,74.50628662109375,330.145263671875
2548,-71.41339111328125,-292.2208251953125,72.61763763427734,326.4053649902344
2549,-60.42556381225586,-283.2637634277344,60.6649169921875,344.9702453613281
2550,-61.809326171875,-278.49539184570307,63.847572326660156,345.44146728515625
2551,-64.31505584716797,-293.29791259765625,76.17428588867188,331.32708740234375
2552,-72.83829498291016,-295.1304626464844,71.95567321777344,330.825927734375
2553,-65.61280822753906,-280.724365234375,56.19199752807617,340.00738525390625
2554,-65.3248291015625,-280.1484375,64.03456878662111,338.6498107910156
2555,-66.48046112060547,-291.5625915527344,70.66915130615234,322.362548828125
2556,-83.1304931640625,-299.7193298339844,66.14012908935547,319.63616943359375
2557,-64.10562133789061,-282.601806640625,57.97966766357422,335.6728515625
2558,-62.62088394165039,-276.53195190429693,67.232177734375,337.9841003417969
2559,-73.30204010009766,-284.2436218261719,69.95108795166016,321.8688659667969
2560,-70.36621856689453,-285.2533874511719,68.1297607421875,323.4732971191406
2561,-61.809326171875,-272.65365600585943,65.06678009033203,338.7021789550781
2562,-63.6643180847168,-267.765625,73.32447814941406,343.1750793457031
2563,-72.18380737304688,-277.35845947265625,83.94953155517578,330.0143737792969
2564,-75.16451263427734,-286.0724182128906,67.80064392089844,326.8354797363281
2565,-67.94650268554689,-276.09063720703125,61.446556091308594,338.82183837890625
2566,-61.61859130859375,-277.50057983398443,63.62691879272461,342.97314453125
2567,-71.57046508789062,-294.2515869140625,73.73212432861328,323.6752624511719
2568,-75.25800323486328,-295.2838134765625,69.69677734375,326.3492736816406
2569,-65.04434204101561,-285.3543701171875,53.98545455932617,341.97833251953125
2570,-53.40951156616211,-283.9182434082031,64.79750823974611,342.56549072265625
2571,-67.51641082763672,-296.93682861328125,75.29166412353516,329.4571228027344
2572,-71.6228256225586,-298.3056335449219,69.99971008300781,326.09869384765625
2573,-62.31047439575195,-285.6647644042969,54.50904083251953,337.85321044921875
2574,-59.70002365112305,-284.7597351074219,64.21781921386719,339.43145751953125
2575,-78.73985290527344,-296.3758544921875,72.72235107421875,322.42987060546875
2576,-71.54802703857422,-295.1080322265625,70.33255767822266,321.951171875
2577,-70.66166687011719,-280.81787109375,59.05302047729492,335.11187744140625
2578,-66.48046112060547,-276.46463012695307,67.66600799560547,338.8293151855469
2579,-69.49108123779297,-293.8102722167969,79.52896881103516,323.7164001464844
2580,-75.48613739013672,-296.1402282714844,69.55091857910156,319.57257080078125
2581,-65.82598114013672,-275.817626953125,60.40312576293945,338.42169189453125
2582,-63.97098922729492,-274.5086669921875,71.17403411865234,342.374755859375
2583,-67.35186004638672,-283.4544982910156,81.28672790527344,327.8041076660156
2584,-68.94879913330078,-284.5614929199219,74.2931137084961,333.5261535644531
2585,-66.93299102783203,-272.8930053710937,66.95916748046875,350.78204345703125
2586,-58.48455429077149,-275.6717529296875,67.63983154296875,353.61688232421875
2587,-68.23073577880861,-287.23553466796875,76.222900390625,335.52325439453125
2588,-78.48180389404297,-292.9126892089844,64.67408752441406,327.0411682128906
2589,-62.280555725097656,-276.7451171875,55.04010772705078,340.0148620605469
2590,-57.15315246582031,-274.1571044921875,66.35330200195311,344.6598205566406
2591,-67.89414215087889,-290.11151123046875,69.61449432373047,325.79949951171875
2592,-70.800048828125,-294.2515869140625,66.53656005859375,326.1361083984375
2593,-63.55960083007813,-281.8351135253906,54.26968765258789,334.229248046875
2594,-52.04070663452149,-277.91195678710943,61.52135467529297,336.1440734863281
2595,-63.83635330200195,-288.1405944824219,72.03421020507812,325.9603271484375
2596,-64.89474487304689,-290.6911926269531,68.08861541748047,324.5167236328125
2597,-67.50519561767578,-285.6647644042969,55.2944221496582,335.5157775878906
2598,-60.10393142700195,-281.81268310546875,61.79436874389648,336.9705810546875
2599,-60.06279373168945,-290.4481201171875,71.93323516845703,325.9715576171875
2600,-61.52883529663086,-288.694091796875,71.64152526855469,323.22271728515625
2601,-57.403724670410156,-278.00546264648443,60.111412048339844,340.75537109375
2602,-52.60169219970703,-272.28717041015625,67.50893402099611,345.3816223144531
2603,-62.30673217773438,-286.7904968261719,76.04338836669922,331.7534484863281
2604,-63.35764694213867,-285.7582702636719,70.28394317626953,333.90386962890625
2605,-58.47707748413086,-273.2183837890625,56.77168273925781,350.1874084472656
2606,-59.61026382446289,-274.7554931640625,71.87713623046875,348.61663818359375
2607,-62.57600784301758,-285.5525817871094,77.66650390625,333.8365478515625
2608,-70.09694671630861,-290.1564025878906,70.79630279541016,324.8271484375
2609,-60.80703353881836,-275.09207153320307,62.572265625,342.4271240234375
2610,-58.0469856262207,-271.2025756835937,73.4927749633789,345.49383544921875
2611,-66.72355651855469,-286.3566589355469,71.82103729248047,330.42578125
2612,-74.1734390258789,-293.282958984375,61.91778182983398,317.6278381347656
2613,-60.92296981811523,-280.25314331054693,51.47224426269531,329.4272155761719
2614,-54.00041580200195,-273.95513916015625,64.1392822265625,338.99761962890625
2615,-63.64748764038086,-284.96356201171875,74.26132202148438,327.1122131347656
2616,-71.20208740234375,-287.03546142578125,65.02002716064453,322.4747314453125
2617,-62.01314926147461,-275.83071899414057,59.41392135620117,335.1604919433594
2618,-56.43321990966797,-276.69464111328125,68.38594055175781,336.87335205078125
2619,-71.54241943359375,-284.1669616699219,78.86888122558594,324.3334655761719
2620,-68.83473205566406,-286.0181884765625,72.2978744506836,326.0052185058594
2621,-63.94293975830078,-276.16357421875,63.59512710571289,340.35894775390625
2622,-55.75629806518555,-274.28237915039057,63.5352897644043,347.43109130859375
2623,-63.80830383300781,-287.9292907714844,77.37291717529297,330.76983642578125
2624,-68.02690887451172,-294.1412658691406,68.92448425292969,322.7889099121094
2625,-58.01519775390625,-283.8976745605469,60.173118591308594,339.7381286621094
2626,-50.42320251464844,-280.65142822265625,71.32176208496094,346.7317199707031
2627,-61.36988830566406,-290.5210266113281,78.50611114501953,329.487060546875
2628,-59.04740905761719,-292.8023681640625,72.9822769165039,332.4453125
2629,-57.88804244995117,-282.70465087890625,60.363853454589844,340.48236083984375
2630,-49.31245040893555,-277.7904052734375,76.03777313232422,343.466796875
2631,-62.79104995727539,-291.2391052246094,74.15287017822266,327.3403625488281
2632,-67.46218872070311,-299.9381103515625,67.29389190673828,321.13958740234375
2633,-59.55603790283203,-283.33294677734375,55.1541748046875,333.3653259277344
2634,-53.83398818969727,-282.1025085449219,57.30835723876953,335.98699951171875
2635,-67.18543243408203,-298.25140380859375,65.34165954589844,319.57257080078125
2636,-67.44722747802734,-297.1967468261719,62.84341049194336,318.805908203125
2637,-57.95909881591797,-287.5029296875,54.00602340698242,332.5575256347656
2638,-59.7205924987793,-280.73373413085943,58.419105529785156,335.4970703125
2639,-64.36928558349611,-293.1352233886719,65.08361053466797,322.2989807128906
2640,-78.30415344238281,-296.12713623046875,62.91820526123047,311.24383544921875
2641,-65.46134185791016,-280.56167602539057,54.38375473022461,331.0653076171875
2642,-52.48762512207031,-279.48834228515625,62.30860137939453,337.9541931152344
2643,-63.1949577331543,-295.15478515625,69.60888671875,321.423828125
2644,-63.35951614379883,-289.78802490234375,64.2271728515625,324.6214599609375
2645,-56.96054458618164,-272.337646484375,58.11617660522461,340.5459289550781
2646,-54.45481491088867,-271.13339233398443,62.79104995727539,341.4846496582031
2647,-68.53553771972656,-286.90081787109375,68.60659790039061,324.6438903808594
2648,-63.01544570922852,-292.3087158203125,62.96308517456055,323.2414245605469
2649,-53.40390014648438,-279.88848876953125,56.466880798339844,336.87335205078125
2650,-51.95281982421875,-284.39508056640625,61.87477493286133,332.9689025878906
2651,-60.53589248657226,-293.1053161621094,69.3096923828125,322.2989807128906
2652,-71.76680755615234,-297.103271484375,65.78671264648439,323.0357360839844
2653,-55.50198364257813,-278.73660278320307,57.95161819458008,345.3143005371094
2654,-53.3178825378418,-279.9520874023437,61.60550308227539,338.9527282714844
2655,-57.15876007080078,-292.63409423828125,70.73833465576172,318.35711669921875
2656,-66.75908660888672,-294.1337890625,65.06117248535156,320.03631591796875
2657,-57.09892272949219,-287.2224426269531,53.415122985839844,331.7646484375
2658,-57.3906364440918,-281.10397338867193,60.99215698242188,339.74560546875
2659,-66.52721405029297,-290.5846252441406,74.26132202148438,325.4778747558594
2660,-68.70757293701172,-287.9442443847656,71.61347198486328,326.0538330078125
2661,-66.53095245361328,-273.99069213867193,61.27265167236328,340.18316650390625
2662,-56.09663009643555,-275.40435791015625,68.00447082519531,337.9541931152344
2663,-59.81782913208008,-286.67266845703125,77.92268371582031,326.8766174316406
2664,-65.79045104980469,-291.40740966796875,71.4526596069336,326.29693603515625
2665,-54.11822128295898,-277.41268920898443,63.082763671875,336.0730285644531
2666,-47.78283309936523,-276.15982055664057,73.51708221435547,344.570068359375
2667,-59.03245162963867,-288.3294677734375,76.38932800292969,330.4556884765625
2668,-69.31717681884766,-295.3118591308594,75.93679809570312,326.5923767089844
2669,-60.12824249267578,-284.7129821777344,61.83737564086914,339.9512939453125
2670,-56.62395477294922,-277.56228637695307,67.98577117919922,337.3857116699219
2671,-67.17047119140625,-292.7088928222656,70.79069519042969,323.5967102050781
2672,-72.2567367553711,-299.13775634765625,67.28640747070311,315.4773864746094
2673,-58.93521499633789,-288.33319091796875,54.74652481079102,333.0212707519531
2674,-61.003379821777344,-283.33294677734375,67.45470428466797,337.9654235839844
2675,-75.29727935791016,-291.98333740234375,76.50152587890625,323.6416015625
2676,-74.82231140136719,-292.2376403808594,69.73230743408203,318.3945007324219
2677,-73.0645523071289,-285.0944519042969,60.53589248657226,333.64208984375
2678,-57.233558654785156,-277.3079833984375,69.44807434082031,340.6394348144531
2679,-71.63217163085938,-292.0618896484375,74.5081558227539,322.7664489746094
2680,-75.5702896118164,-293.3259582519531,76.74461364746094,319.51275634765625
2681,-63.00048446655274,-281.328369140625,69.24611663818361,337.9018249511719
2682,-53.538536071777344,-278.49725341796875,76.27713012695312,341.447265625
2683,-65.03498840332031,-284.7952575683594,79.98336791992188,332.8454895019531
2684,-64.36180877685547,-282.41668701171875,81.66258239746094,333.0399475097656
2685,-71.39656066894531,-280.35598754882807,69.98661804199219,337.7372741699219
2686,-57.274696350097656,-272.64431762695307,68.10170745849611,344.2783508300781
2687,-67.52950286865234,-285.3412780761719,72.42877197265625,326.7980651855469
2688,-67.85861206054689,-285.7339782714844,72.2155990600586,322.3326416015625
2689,-57.693565368652344,-282.58123779296875,60.853782653808594,337.797119140625
2690,-50.19880676269531,-276.50762939453125,65.81662750244139,340.9610595703125
2691,-55.19157409667969,-297.4660339355469,73.98082733154297,331.0914611816406
2692,-61.13427352905274,-298.5019836425781,74.85971069335938,323.12548828125
2693,-53.80406951904297,-288.47906494140625,62.3385238647461,338.7171325683594
2694,-58.187232971191406,-284.8363952636719,70.23719024658203,343.8258361816406
2695,-68.681396484375,-295.3604736328125,77.84040832519531,328.6829833984375
2696,-78.93619537353516,-305.3534851074219,69.96044158935547,324.1838684082031
2697,-71.62843322753906,-295.2594909667969,58.033897399902344,333.64581298828125
2698,-62.86584854125977,-289.1185607910156,58.36674880981445,334.24420166015625
2699,-70.6710205078125,-299.53045654296875,65.24442291259766,319.6436462402344
2700,-86.14298248291016,-300.5738830566406,60.84256362915039,311.65521240234375
2701,-74.71759033203125,-287.2224426269531,47.64819717407226,328.90362548828125
2702,-58.06381607055664,-280.00070190429693,61.156715393066406,333.7056579589844
2703,-62.90698623657226,-294.6723327636719,70.21475219726561,323.4845275878906
2704,-73.99578857421875,-292.6565246582031,74.8671875,323.3199462890625
2705,-70.39801025390625,-280.84591674804693,63.19121932983398,339.4950256347656
2706,-60.91736221313477,-269.72344970703125,70.82061767578125,349.1925964355469
2707,-61.21281433105469,-286.34356689453125,79.87117004394531,333.0025634765625
2708,-70.57752227783203,-290.90625,77.56365203857422,331.9927978515625
2709,-60.79768371582031,-281.16006469726557,65.68947601318361,348.0257263183594
2710,-53.2356071472168,-281.7995910644531,68.25878143310547,347.4535217285156
2711,-66.474853515625,-298.617919921875,74.8671875,327.69189453125
2712,-74.70262908935547,-304.71771240234375,69.13018035888672,328.0097961425781
2713,-73.51334381103516,-287.0279846191406,61.90095520019531,339.8652648925781
2714,-62.58535766601562,-280.9618530273437,67.85861206054689,349.4543762207031
2715,-81.94307708740234,-302.62335205078125,74.4632797241211,330.99798583984375
2716,-89.31442260742188,-304.4334716796875,67.08071899414061,322.6542663574219
2717,-78.177001953125,-288.1611633300781,58.9464340209961,336.50311279296875
2718,-71.7742919921875,-287.09527587890625,62.039329528808594,342.1503601074219
2719,-72.86260223388672,-302.7355651855469,68.29618072509766,320.35797119140625
2720,-79.74028015136719,-302.679443359375,66.67306518554689,317.76995849609375
2721,-70.59622192382812,-294.07769775390625,58.65472030639648,333.1259765625
2722,-61.39980697631836,-286.13787841796875,62.18144607543945,335.7962646484375
2723,-67.660400390625,-301.6173095703125,67.11437225341797,323.0805969238281
2724,-75.95923614501953,-301.9501647949219,71.62095642089844,324.7673034667969
2725,-67.84365844726561,-284.13702392578125,62.22258377075195,338.6647644042969
2726,-62.05802917480469,-283.0375061035156,62.99300384521485,344.8056945800781
2727,-65.85028839111328,-287.39447021484375,72.18193817138672,337.7073669433594
2728,-73.81627655029297,-293.3932800292969,71.02256774902344,332.96142578125
2729,-59.72807312011719,-282.5774841308594,60.91361999511719,344.26715087890625
2730,-55.99191284179688,-277.16958618164057,73.64797973632812,349.6189270019531
2731,-66.58330535888672,-291.0371398925781,82.10763549804688,333.52239990234375
2732,-70.01654052734375,-303.5545959472656,79.07831573486328,331.5589599609375
2733,-70.09133148193361,-295.9588623046875,63.22488021850586,338.0663757324219
2734,-57.383155822753906,-287.585205078125,69.37327575683594,349.6039733886719
2735,-73.24407196044922,-304.4708557128906,77.67584991455078,333.2381896972656
2736,-82.14877319335938,-303.3937683105469,70.68223571777344,328.9223327636719
2737,-73.20667266845703,-288.5650634765625,65.53987884521484,341.3238525390625
2738,-67.58186340332031,-284.7316589355469,69.01424407958984,343.2648620605469
2739,-73.90229034423828,-302.6271057128906,70.37931060791016,326.54376220703125
2740,-74.01074981689453,-306.24359130859375,65.15092468261719,320.18218994140625
2741,-71.7518539428711,-296.2991943359375,54.96717834472656,335.6766052246094
2742,-69.58271026611328,-289.7132263183594,61.81493759155274,340.78155517578125
2743,-71.69200897216797,-303.5396423339844,71.36289978027344,328.4997253417969
2744,-78.93994140625,-304.11932373046875,63.0939826965332,321.49114990234375
2745,-73.92098999023438,-295.9588623046875,52.75315856933594,335.68780517578125
2746,-66.216796875,-291.4971618652344,59.63831329345703,347.09075927734375
2747,-68.00447082519531,-301.4041442871094,72.11087799072266,335.16796875
2748,-78.42383575439453,-302.6719665527344,71.81916809082031,326.9214782714844
2749,-69.69864654541016,-291.08575439453125,65.34540557861328,345.5050354003906
2750,-66.28411865234375,-284.57086181640625,69.17880249023439,348.8522644042969
2751,-69.96044158935547,-292.3685607910156,85.42866516113281,335.10064697265625
2752,-72.03234100341797,-297.8325500488281,79.16059112548828,330.6127624511719
2753,-64.87791442871094,-285.2328186035156,64.14115142822266,341.55572509765625
2754,-59.369041442871094,-283.3666076660156,65.59597778320311,348.95697021484375
2755,-73.81253814697266,-291.8823547363281,77.52999877929688,329.6291809082031
2756,-72.2155990600586,-295.8017883300781,73.25154876708984,327.1346740722656
2757,-70.21475219726561,-284.6082458496094,58.04885864257813,333.455078125
2758,-57.76088333129883,-277.6669921875,66.68802642822266,341.1705017089844
2759,-64.28327178955078,-292.2900085449219,71.14225006103516,329.7039794921875
2760,-75.6076889038086,-292.020751953125,72.26421356201172,325.0104064941406
2761,-70.66353607177734,-278.16815185546875,61.69900131225586,340.003662109375
2762,-62.039329528808594,-277.31546020507807,66.79648590087889,346.42132568359375
2763,-61.85233688354492,-292.06561279296875,75.58525085449219,331.4131164550781
2764,-63.78960418701172,-297.7652282714844,72.60828399658203,330.9792785644531
2765,-61.12679672241211,-281.7098388671875,61.68404006958008,345.5312194824219
2766,-59.69441223144531,-276.1224365234375,66.80396270751953,346.5933532714844
2767,-72.79901885986328,-289.61224365234375,73.03837585449219,331.9927978515625
2768,-77.99374389648438,-297.1518859863281,72.89251708984375,326.1473388671875
2769,-65.35662078857422,-281.05908203125,61.77379608154297,339.7755126953125
2770,-65.89516448974611,-277.84652709960943,65.27060699462889,342.1690673828125
2771,-74.13042449951172,-295.29315185546875,75.95923614501953,327.9312438964844
2772,-67.92593383789061,-302.2156982421875,75.16263580322266,321.248046875
2773,-59.23440551757813,-285.718994140625,62.82844924926758,336.53302001953125
2774,-58.01519775390625,-280.00070190429693,67.7015380859375,334.218017578125
2775,-70.78695678710938,-287.7310791015625,71.4152603149414,323.85101318359375
2776,-67.3612060546875,-292.3872375488281,68.07553100585939,322.4261169433594
2777,-66.96477508544922,-283.94256591796875,61.37362670898438,334.8874816894531
2778,-58.72203826904297,-279.05825805664057,61.98697280883789,340.8600769042969
2779,-72.80276489257812,-292.1329345703125,75.21125793457031,330.3023681640625
2780,-69.80335998535156,-295.2893981933594,67.73893737792969,324.9318542480469
2781,-63.1538200378418,-287.16259765625,62.55169677734375,339.98870849609375
2782,-63.84196090698242,-277.73806762695307,65.57727813720703,341.72027587890625
2783,-68.24382781982422,-288.7408447265625,71.87152862548828,330.6913146972656
2784,-72.59333038330078,-291.02593994140625,73.41236877441406,330.1191101074219
2785,-75.13272094726562,-287.8245849609375,64.89287567138672,342.1391296386719
2786,-63.41187286376953,-274.8321533203125,67.86609649658203,350.6249694824219
2787,-70.42044830322266,-295.15478515625,72.90747833251953,331.3196105957031
2788,-82.49658203125,-299.309814453125,67.61177825927734,329.2925720214844
2789,-73.94717407226562,-283.0561828613281,64.22343444824219,346.1370849609375
2790,-62.52551651000977,-281.2236328125,69.09278106689453,349.3421936035156
2791,-63.20243835449219,-294.0178527832031,81.31477355957031,335.8486328125
2792,-69.44058990478516,-287.8507385253906,81.53169250488281,330.6389465332031
2793,-66.86006164550781,-282.4129333496094,66.96852111816406,341.5407409667969
2794,-61.728919982910156,-281.2236328125,75.04669952392578,347.5806884765625
2795,-70.48402404785156,-298.1579284667969,82.31707000732422,325.8294372558594
2796,-72.6195068359375,-297.17431640625,79.17555236816406,326.40911865234375
2797,-74.64653015136719,-280.15029907226557,68.14284515380861,340.8862609863281
2798,-61.83737564086914,-277.53985595703125,67.63796234130861,347.93597412109375
2799,-65.95874786376953,-287.8133544921875,80.65655517578125,336.0655517578125
2800,-78.33781433105469,-299.6912841796875,71.24322509765625,330.0667419433594
2801,-69.08904266357422,-290.6669006347656,59.71685409545898,341.46221923828125
2802,-67.83617401123047,-284.52972412109375,64.90409088134766,347.2179260253906
2803,-69.13391876220703,-299.1826477050781,76.0751724243164,334.5882873535156
2804,-77.71324920654297,-297.9896240234375,69.02546691894531,324.80096435546875
2805,-77.48137664794922,-288.13873291015625,58.527565002441406,334.6331481933594
2806,-63.16878128051758,-284.89996337890625,63.05658340454102,343.60516357421875
2807,-65.85028839111328,-294.3432312011719,76.24346923828125,324.8645324707031
2808,-74.0855484008789,-299.2574462890625,71.60225677490234,321.0049743652344
2809,-70.45036315917969,-287.2897644042969,60.99589920043945,337.0827941894531
2810,-66.34021759033203,-279.11807250976557,62.3908805847168,340.6506652832031
2811,-65.58475494384766,-296.7292785644531,75.6525650024414,325.15252685546875
2812,-66.20558166503906,-297.70166015625,74.43335723876953,320.4140625
2813,-72.20063781738281,-282.5438232421875,65.80166625976561,332.2583312988281
2814,-60.625648498535156,-273.17910766601557,70.45784759521484,340.497314453125
2815,-69.28351593017578,-284.9336242675781,78.7828598022461,328.3202209472656
2816,-82.12446594238281,-289.956298828125,76.2920913696289,322.4728698730469
2817,-66.04289245605469,-278.08212280273443,64.69465637207031,336.534912109375
2818,-55.44401550292969,-274.48062133789057,67.660400390625,343.90997314453125
2819,-62.96869659423828,-289.6720886230469,76.29956817626953,329.0812683105469
2820,-71.51436614990234,-296.7442321777344,65.69321441650389,325.7415466308594
2821,-66.04289245605469,-280.48687744140625,56.88948822021485,332.67156982421875
2822,-63.09959030151367,-277.02374267578125,58.70708084106445,342.5636291503906
2823,-76.60063171386719,-288.80816650390625,68.75618743896484,328.542724609375
2824,-71.43582916259766,-298.55059814453125,64.70961761474611,318.871337890625
2825,-62.68820190429688,-280.07550048828125,58.19845199584961,337.46612548828125
2826,-62.18331527709961,-277.26309204101557,61.22403335571289,342.97125244140625
2827,-79.45417785644531,-290.28167724609375,70.46532440185547,325.6742248535156
2828,-82.15811920166016,-298.0232849121094,63.93920135498047,319.19671630859375
2829,-76.82876586914062,-281.26104736328125,58.28446960449219,338.038330078125
2830,-67.61739349365234,-279.85858154296875,65.66703033447266,343.9024963378906
2831,-71.71632385253906,-292.6265869140625,75.87322235107422,322.97027587890625
2832,-79.00912475585938,-291.0895080566406,75.38703155517578,323.2919006347656
2833,-71.70136260986328,-280.3485107421875,63.93920135498047,328.85687255859375
2834,-53.34219360351562,-275.68484497070307,69.77344512939453,343.307861328125
2835,-71.74250030517578,-288.41546630859375,79.25408935546875,334.12640380859375
2836,-75.34402465820312,-288.6660461425781,79.91605377197266,329.0775451660156
2837,-75.21686553955078,-272.43487548828125,67.03209686279297,347.3058166503906
2838,-67.92032623291016,-261.10671997070307,72.27169799804688,356.5994567871094
2839,-72.11649322509766,-284.7728271484375,80.1853256225586,338.8611145019531
2840,-75.93492889404297,-287.5440673828125,83.30440521240234,335.0875549316406
2841,-68.96375274658203,-284.81396484375,63.946678161621094,344.87860107421875
2842,-67.58373260498047,-276.60113525390625,64.19351196289061,350.1144714355469
2843,-73.59375,-292.0431823730469,73.65545654296875,331.1232604980469
2844,-78.19757080078125,-294.6050109863281,73.77887725830078,328.17620849609375
2845,-73.01033020019531,-283.7593078613281,56.32476425170898,332.8660583496094
2846,-65.25377655029297,-277.31918334960943,61.55314254760742,337.80645751953125
2847,-73.12252044677734,-289.7019958496094,69.57522583007811,323.460205078125
2848,-74.08367919921875,-295.6783752441406,72.18942260742188,315.55780029296875
2849,-74.70075988769531,-285.4123229980469,59.38774108886719,326.74383544921875
2850,-71.39095306396484,-275.98031616210943,63.18000030517578,339.03314208984375
2851,-69.92117309570311,-284.9037170410156,74.39221954345703,322.60003662109375
2852,-80.41159057617188,-287.525390625,72.36519622802734,322.62994384765625
2853,-68.60098266601561,-274.82095336914057,64.01399993896484,334.4629821777344
2854,-60.115150451660156,-265.22061157226557,68.40464019775389,344.43731689453125
2855,-68.79920196533203,-278.19058227539057,82.60504150390625,329.84796142578125
2856,-73.38805389404297,-282.2072448730469,79.09701538085938,325.2890319824219
2857,-65.30987548828125,-273.80743408203125,71.06745147705078,344.94219970703125
2858,-55.18596267700195,-264.07247924804693,75.95923614501953,355.8926086425781
2859,-58.97822189331055,-274.884521484375,83.85042572021484,343.0011901855469
2860,-73.30577850341797,-284.1295471191406,77.34300231933594,330.6071472167969
2861,-66.37574768066406,-271.14834594726557,64.43660736083984,346.59149169921875
2862,-57.69543838500977,-273.14920043945307,62.65267562866211,347.05523681640625
2863,-70.06328582763672,-286.7474670410156,73.53578186035156,327.76483154296875
2864,-73.97148132324219,-296.5273132324219,72.78780364990234,320.2775573730469
2865,-62.5012092590332,-286.32861328125,60.55833053588867,328.78582763671875
2866,-64.62921142578125,-282.6709899902344,61.07443618774414,335.9664306640625
2867,-73.5713119506836,-297.2640686035156,77.83293151855469,326.6839904785156
2868,-73.22350311279297,-305.67510986328125,74.48945617675781,319.5333251953125
2869,-62.6134033203125,-292.2451171875,56.048011779785156,328.03411865234375
2870,-58.735130310058594,-282.59619140625,59.178306579589844,340.14764404296875
2871,-64.61425018310547,-298.546875,73.94343566894531,318.4150695800781
2872,-70.5831298828125,-301.2171630859375,72.91496276855469,315.25860595703125
2873,-74.74564361572266,-283.8939208984375,61.69900131225586,326.3175048828125
2874,-57.2129898071289,-277.22195434570307,66.14199829101561,342.627197265625
2875,-63.41374206542969,-280.812255859375,78.55472564697266,327.25994873046875
2876,-71.3273696899414,-286.8260192871094,78.9997787475586,321.1751403808594
2877,-63.40252304077149,-268.30230712890625,70.57378387451172,342.4738464355469
2878,-54.6212387084961,-261.26007080078125,74.74376678466797,350.092041015625
2879,-62.71064376831055,-274.3646850585937,80.73135375976562,341.3518981933594
2880,-70.80378723144531,-283.8266296386719,84.45629119873047,333.54296875
2881,-70.2427978515625,-277.28179931640625,71.00386810302734,344.2989196777344
2882,-65.65394592285156,-268.68002319335943,70.68598175048828,358.390869140625
2883,-64.41230010986328,-280.43826293945307,81.07542419433594,338.4609375
2884,-73.03276824951172,-288.39678955078125,74.5081558227539,330.091064453125
2885,-68.37284851074219,-276.81430053710943,64.04765319824219,338.389892578125
2886,-67.65853118896484,-276.02517700195307,63.60634994506836,345.5630187988281
2887,-74.04254150390625,-290.2293395996094,71.67330932617188,331.1382141113281
2888,-69.41254425048828,-296.9050598144531,67.578125,324.4475402832031
2889,-70.72525024414062,-291.2877197265625,57.02412414550781,333.03436279296875
2890,-55.915245056152344,-279.64166259765625,60.476051330566406,346.9879150390625
2891,-67.55007171630861,-295.5137939453125,68.49813842773439,327.4619140625
2892,-73.56008911132812,-290.44622802734375,73.259033203125,322.3905944824219
2893,-66.83575439453125,-284.6082458496094,65.67451477050781,335.2633361816406
2894,-63.79895401000977,-278.792724609375,65.21076202392578,339.2762451171875
2895,-73.26090240478516,-284.6307067871094,75.02052307128906,328.8718566894531
2896,-70.97582244873047,-290.42755126953125,77.20088195800781,322.72344970703125
2897,-64.19911956787111,-277.79791259765625,69.00676727294922,338.7713623046875
2898,-56.72680282592773,-274.61898803710943,68.91326904296875,341.08636474609375
2899,-62.935035705566406,-283.852783203125,85.29776763916016,332.30133056640625
2900,-69.59205627441406,-291.48968505859375,83.50635528564453,327.8508605957031
2901,-58.29756164550781,-282.9888916015625,69.63132476806639,341.7894592285156
2902,-53.00186157226562,-276.89285278320307,74.60165405273438,349.04486083984375
2903,-60.47418212890625,-282.7270812988281,85.29402923583984,328.62127685546875
2904,-72.15763092041016,-294.96405029296875,78.61457061767578,325.4498291015625
2905,-71.9444580078125,-290.36395263671875,59.07733154296875,329.0625915527344
2906,-67.52763366699219,-287.2336730957031,63.24731826782226,337.9186706542969
2907,-72.75227355957031,-300.3158264160156,68.29244232177734,324.1221618652344
2908,-78.5528564453125,-309.5122375488281,61.36614990234375,310.0638732910156
2909,-79.94036102294922,-298.98443603515625,52.566162109375,321.8558044433594
2910,-67.81560516357422,-284.7690734863281,56.44818115234375,333.2624816894531
2911,-79.01660919189453,-297.7128601074219,64.60490417480469,322.84686279296875
2912,-80.1385726928711,-302.5859680175781,63.72602462768555,310.7819519042969
2913,-77.66650390625,-291.2054443359375,57.40559387207031,326.0407409667969
2914,-66.48046112060547,-280.2138671875,59.7617301940918,340.3084716796875
2915,-70.6018295288086,-297.7315673828125,62.05429077148438,327.6077575683594
2916,-75.27296447753906,-302.9711608886719,65.59223175048828,317.5736083984375
2917,-71.73876190185547,-292.0618896484375,56.6800537109375,332.8623046875
2918,-61.58867263793945,-284.68304443359375,56.03679275512695,340.88067626953125
2919,-61.68965148925781,-296.39642333984375,71.557373046875,330.09478759765625
2920,-66.0054931640625,-302.88140869140625,72.07722473144531,321.57904052734375
2921,-55.56743240356445,-289.3392333984375,61.78127670288086,339.5268249511719
2922,-45.48092269897461,-275.6998291015625,69.69490814208984,349.08599853515625
2923,-52.59421157836914,-292.0581359863281,76.04151916503906,332.63043212890625
2924,-64.72270965576172,-302.3877258300781,74.61661529541016,323.9351806640625
2925,-58.06942749023438,-288.4079895019531,64.79563903808594,330.0461730957031
2926,-53.54040908813477,-280.73745727539057,67.59307861328125,340.7684631347656
2927,-60.62751770019531,-295.0538024902344,75.15515899658203,328.0154113769531
2928,-70.9047622680664,-301.9352111816406,73.51334381103516,315.51666259765625
2929,-69.01985168457031,-293.80841064453125,60.44987106323242,330.2070007324219
2930,-66.00175476074219,-289.70574951171875,59.87392807006836,342.627197265625
2931,-71.09549713134766,-296.05609130859375,66.65436553955078,326.1080627441406
2932,-74.55116271972656,-300.5177917480469,63.0715446472168,322.21856689453125
2933,-72.28852844238281,-294.18988037109375,49.985633850097656,327.2561950683594
2934,-65.42581176757811,-287.2224426269531,54.68294906616211,336.9238586425781
2935,-67.71089172363281,-296.1121826171875,67.15550994873047,326.50823974609375
2936,-71.6265640258789,-304.4708557128906,67.72397613525389,323.10491943359375
2937,-64.04578399658203,-293.5129699707031,55.43092727661133,330.9998474121094
2938,-65.13035583496094,-283.1422119140625,55.69646072387695,343.4911193847656
2939,-68.52618408203125,-296.927490234375,69.29473876953125,330.1994934082031
2940,-68.14846038818361,-297.7427978515625,67.01713562011719,321.7996826171875
2941,-66.02793121337889,-281.77716064453125,61.77379608154297,338.0158996582031
2942,-60.111412048339844,-273.54937744140625,62.62275314331055,345.6565246582031
2943,-67.58747100830078,-288.9166259765625,70.90663146972656,335.6260986328125
2944,-75.13459014892578,-290.1806945800781,75.11028289794922,323.01141357421875
2945,-72.51666259765625,-281.2909545898437,61.10435485839844,337.275390625
2946,-63.48854064941406,-267.85723876953125,62.25624465942383,349.5048828125
2947,-69.52848052978516,-277.95123291015625,78.09471893310547,332.0096130371094
2948,-78.30976867675781,-287.1700744628906,71.42273712158203,323.4153137207031
2949,-70.42605590820312,-274.38711547851557,66.05598449707031,336.4638366699219
2950,-62.47876739501953,-265.37020874023443,68.89082336425781,347.14874267578125
2951,-70.79256439208984,-282.27081298828125,75.75728607177734,328.90924072265625
2952,-80.54248809814453,-288.7520751953125,68.22886657714844,325.91357421875
2953,-76.63429260253906,-284.5147705078125,55.92459487915039,333.3671875
2954,-61.33435821533203,-274.22256469726557,63.31089782714844,340.2112121582031
2955,-63.05097198486328,-292.7126159667969,73.2777328491211,328.81573486328125
2956,-72.50543975830078,-296.3777160644531,69.49668884277344,322.5551452636719
2957,-67.76699066162111,-288.87921142578125,62.301124572753906,332.1592102050781
2958,-56.83525848388672,-280.2138671875,63.41561508178711,342.4963073730469
2959,-63.57081985473633,-293.2586364746094,76.0751724243164,329.4889221191406
2960,-76.88860321044922,-294.1936340332031,70.84679412841797,324.6382751464844
2961,-67.95024108886719,-285.0533142089844,63.55773162841797,336.6695251464844
2962,-64.943359375,-280.90576171875,66.10459899902344,346.5690612792969
2963,-71.9444580078125,-284.06597900390625,73.13935089111328,334.7472229003906
2964,-85.43053436279297,-295.98876953125,69.79962158203125,322.9328918457031
2965,-68.79545593261719,-283.1721496582031,58.70708084106445,331.0484619140625
2966,-68.62716674804689,-272.28903198242193,64.19725036621094,344.8113098144531
2967,-75.20938873291016,-284.6568603515625,70.77947998046875,331.0372314453125
2968,-84.86580657958984,-289.64215087890625,74.5492935180664,323.8603820800781
2969,-76.6679458618164,-280.42706298828125,61.194114685058594,329.6235656738281
2970,-68.12601470947266,-269.81695556640625,64.37677001953125,341.0676574707031
2971,-72.83829498291016,-286.5941467285156,76.28460693359375,328.19866943359375
2972,-76.13688659667969,-294.5489196777344,71.35542297363281,326.8223876953125
2973,-69.47238159179689,-288.6809997558594,63.23235702514648,334.8968200683594
2974,-69.274169921875,-277.595947265625,64.76571655273439,341.18359375
2975,-71.94071197509766,-287.431884765625,74.45579528808594,328.2472839355469
2976,-65.03311920166016,-295.6933288574219,78.50237274169922,326.5157165527344
2977,-71.51810455322266,-287.267333984375,62.09542846679688,334.3919372558594
2978,-57.85625076293945,-277.19577026367193,61.68777847290039,340.8245544433594
2979,-58.70520782470703,-292.0020446777344,74.05188751220703,327.6339416503906
2980,-62.6021842956543,-298.31500244140625,72.29413604736328,320.5617980957031
2981,-61.89534378051758,-295.7793273925781,62.65641403198242,332.23028564453125
2982,-56.95867538452149,-284.31280517578125,68.16154479980469,344.5420227050781
2983,-65.79979705810547,-290.5733947753906,77.64219665527344,331.82635498046875
2984,-75.54972076416016,-295.9551086425781,75.16263580322266,324.9786071777344
2985,-73.75457000732422,-286.64276123046875,67.15925598144531,336.11602783203125
2986,-59.66636276245117,-275.88681030273443,62.63771438598633,347.1038513183594
2987,-66.18875122070311,-284.09588623046875,71.50875854492188,335.2371520996094
2988,-75.33280181884766,-293.7448425292969,70.75703430175781,324.2829895019531
2989,-65.67638397216797,-286.7886047363281,63.11642074584961,328.9279479980469
2990,-61.89534378051758,-276.66098022460943,58.23211288452149,334.833251953125
2991,-65.29491424560547,-288.101318359375,68.87213134765625,318.1831970214844
2992,-76.56697082519531,-297.6979064941406,71.34046173095703,310.4827575683594
2993,-74.86531829833984,-293.6662902832031,62.74617004394531,319.86614990234375
2994,-59.116600036621094,-284.5633850097656,60.83882141113281,333.19891357421875
2995,-65.04060363769531,-297.3388671875,68.96562194824219,319.9484558105469
2996,-73.39927673339844,-301.834228515625,66.02980041503906,315.6138916015625
2997,-66.49542236328125,-290.0797424316406,54.12944030761719,326.4595947265625
2998,-55.63101196289063,-279.5145263671875,58.1348762512207,337.31280517578125
2999,-60.6761360168457,-291.317626953125,73.4422836303711,326.0706481933594
3000,-68.38780975341797,-304.4222412109375,70.69719696044922,315.325927734375
3001,-69.28538513183594,-292.6303405761719,59.982383728027344,329.563720703125
3002,-59.32603454589844,-285.38616943359375,61.58306121826172,339.2837219238281
3003,-61.7794075012207,-297.6904296875,73.7003402709961,330.5473327636719
3004,-69.57335662841797,-299.58282470703125,76.651123046875,329.36175537109375
3005,-58.82114791870117,-297.4548034667969,65.96622467041016,337.626953125
3006,-55.002708435058594,-286.29119873046875,63.9578971862793,349.42633056640625
3007,-65.26125335693361,-296.7442321777344,71.7518539428711,336.6695251464844
3008,-73.02528381347656,-308.8428039550781,74.64279174804688,320.8759460449219
3009,-66.35330200195311,-298.4010009765625,59.42140197753906,329.1112060546875
3010,-57.71039581298828,-288.781982421875,58.9165153503418,336.8827209472656
3011,-59.01935958862305,-299.650146484375,74.0444107055664,328.30712890625
3012,-66.11395263671875,-308.8951721191406,71.28062438964844,318.6993103027344
3013,-65.25003814697266,-299.134033203125,62.0318489074707,329.9078063964844
3014,-55.2944221496582,-284.3576965332031,65.30800628662111,334.9117736816406
3015,-61.0351676940918,-300.2298278808594,71.3703842163086,326.171630859375
3016,-75.38516235351562,-305.51055908203125,68.75618743896484,322.0240783691406
3017,-70.06515502929689,-293.5372619628906,60.20864868164063,324.61395263671875
3018,-55.9694709777832,-287.7591247558594,59.71124267578125,327.4525451660156
3019,-63.97285842895508,-293.4699401855469,71.85469818115234,318.04669189453125
3020,-67.49210357666016,-299.0274353027344,68.24569702148439,317.4894714355469
3021,-70.86923217773438,-289.13165283203125,59.269935607910156,335.3287658691406
3022,-61.44468688964844,-281.16943359375,61.13988494873047,341.6080627441406
3023,-72.91121673583984,-295.96820068359375,74.01261901855469,326.599853515625
3024,-76.55014038085938,-300.3214416503906,75.29914855957031,324.29608154296875
3025,-70.34564971923828,-297.2584533691406,64.48709869384766,333.6196594238281
3026,-53.40016174316406,-282.3624572753906,61.33061981201172,347.5881652832031
3027,-65.70442962646484,-292.74066162109375,69.86507415771484,335.6204833984375
3028,-76.42672729492188,-299.70062255859375,66.87689208984375,325.7882995605469
3029,-64.21595001220703,-293.8888244628906,56.62582397460938,330.1041259765625
3030,-60.33767700195313,-283.0879821777344,56.66696548461914,347.3263854980469
3031,-65.35288238525389,-291.0838928222656,68.84781646728516,332.4228820800781
3032,-71.17216491699219,-302.6439208984375,65.17523956298828,318.26361083984375
3033,-69.30221557617189,-300.13818359375,47.72860336303711,329.80120849609375
3034,-64.19351196289061,-304.973876953125,51.20671081542969,323.7650146484375
3035,-70.13247680664061,-296.85455322265625,39.89351272583008,336.7686462402344
3036,-63.68114471435547,-286.5473937988281,37.52615737915039,354.1890869140625
3037,-67.660400390625,-293.33905029296875,52.15290451049805,332.34808349609375
3038,-73.7414779663086,-302.0118713378906,52.56803512573242,327.6395568847656
3039,-69.11521911621094,-295.02947998046875,42.186073303222656,339.7792663574219
3040,-60.68922805786133,-281.31527709960943,48.41300582885742,349.6712951660156
3041,-70.78321838378906,-290.61639404296875,54.40058517456055,337.26605224609375
3042,-72.42503356933594,-301.1891174316406,56.93997573852539,333.3877868652344
3043,-64.28701019287111,-288.0770263671875,48.58877944946289,343.3209533691406
3044,-58.2246322631836,-274.2506103515625,43.70447158813477,352.6145935058594
3045,-68.5467529296875,-284.30718994140625,56.59590530395508,347.281494140625
3046,-64.17107391357422,-296.2225036621094,61.73078918457031,339.60723876953125
3047,-61.575584411621094,-284.6662292480469,53.0953598022461,342.18402099609375
3048,-59.94872665405274,-277.56414794921875,45.1181526184082,351.4066162109375
3049,-62.17770767211914,-288.45098876953125,56.85395812988281,339.55859375
3050,-73.38618469238281,-298.7880859375,55.90776443481445,325.249755859375
3051,-73.083251953125,-287.4337463378906,46.18776321411133,337.2436218261719
3052,-65.794189453125,-278.20367431640625,42.73209762573242,348.1080322265625
3053,-77.76934814453125,-290.4705505371094,55.60857391357422,335.261474609375
3054,-73.61805725097656,-295.2950134277344,52.83730697631836,325.0029296875
3055,-66.80770111083984,-292.4190368652344,44.10089874267578,334.158203125
3056,-66.31403350830078,-282.54571533203125,49.29936218261719,345.3741455078125
3057,-73.50960540771484,-293.6569519042969,52.36981964111328,333.2269592285156
3058,-80.30126190185547,-304.7569580078125,45.98207092285156,322.702880859375
3059,-77.5150375366211,-293.88507080078125,44.15699768066406,334.87249755859375
3060,-64.60115814208984,-282.2539978027344,41.64752578735352,349.663818359375
3061,-66.10086059570311,-291.0988464355469,52.68022918701172,332.29571533203125
3062,-75.41321563720703,-297.3220520019531,51.84623336791992,327.77044677734375
3063,-85.31272888183594,-291.1960754394531,42.29826736450195,335.22406005859375
3064,-65.18084716796875,-283.5816650390625,49.71075057983398,349.499267578125
3065,-70.7345962524414,-294.70037841796875,57.04843521118164,335.5382080078125
3066,-73.47968292236328,-297.43798828125,52.75128936767578,326.6484680175781
3067,-70.94776916503906,-293.4998779296875,46.2625617980957,345.64715576171875
3068,-67.60056304931639,-283.095458984375,45.12189483642578,350.1051330566406
3069,-70.27832794189453,-297.2846374511719,54.6025390625,336.787353515625
3070,-78.177001953125,-307.1392822265625,53.65634536743164,325.7920227050781
3071,-73.61058044433594,-299.0386657714844,43.36040115356445,334.3863220214844
3072,-67.63047790527344,-289.22515869140625,35.147579193115234,340.9610595703125
3073,-75.85078430175781,-302.591552734375,43.1883659362793,330.95684814453125
3074,-79.97215270996094,-308.38092041015625,47.78470230102539,325.14501953125
3075,-69.94548034667969,-295.09307861328125,38.36015319824219,332.6996154785156
3076,-65.09108734130861,-291.0539855957031,34.59407424926758,342.868408203125
3077,-72.41754913330078,-302.5392150878906,49.83042526245117,333.5186767578125
3078,-72.2978744506836,-311.8702697753906,47.96421813964844,324.2698974609375
3079,-75.37955474853516,-306.6568298339844,36.314430236816406,328.4623107910156
3080,-67.23405456542969,-291.8468322753906,38.62942504882813,346.0323791503906
3081,-72.00242614746094,-295.2239685058594,52.3735580444336,333.6009521484375
3082,-81.30729675292969,-303.1525573730469,54.46416473388672,325.48162841796875
3083,-73.49464416503906,-288.529541015625,45.51458358764648,340.83392333984375
3084,-68.64025115966797,-277.45944213867193,49.51253509521485,358.0486755371094
3085,-68.48691558837889,-285.4291687011719,66.59639739990234,348.6914367675781
3086,-76.35940551757812,-303.1114196777344,60.9940299987793,331.7272644042969
3087,-72.58959197998047,-292.2918701171875,51.83875274658203,344.85430908203125
3088,-58.2246322631836,-282.9832763671875,46.49817657470703,350.90545654296875
3089,-60.27035903930664,-292.3404846191406,57.23542785644531,342.9806213378906
3090,-77.30934143066406,-301.97821044921875,54.35570526123047,329.2477111816406
3091,-74.2052230834961,-296.0841369628906,41.97663879394531,340.5833435058594
3092,-67.73519897460939,-288.06951904296875,39.14179229736328,347.4497985839844
3093,-66.64315032958984,-302.9618225097656,50.43255233764648,336.3310852050781
3094,-74.30245971679688,-308.86712646484375,46.06434631347656,327.92376708984375
3095,-73.58814239501953,-301.1666564941406,36.4341049194336,335.57562255859375
3096,-65.43515777587889,-289.221435546875,38.47983169555664,351.25701904296875
3097,-67.55942535400389,-297.34075927734375,52.3249397277832,337.1239318847656
3098,-74.97938537597656,-307.591796875,55.06628799438477,325.67608642578125
3099,-72.10340118408203,-301.32373046875,42.98640823364258,335.8186950683594
3100,-69.13018035888672,-288.62677001953125,47.0255012512207,352.1919860839844
3101,-70.84679412841797,-300.1718444824219,51.04589462280274,337.7485046386719
3102,-72.9822769165039,-302.72247314453125,58.72016906738281,337.06036376953125
3103,-70.60369873046875,-290.1713562011719,51.65176010131836,341.9222106933594
3104,-64.73954010009766,-281.60699462890625,51.93598937988281,353.7702331542969
3105,-69.85198211669922,-288.9596252441406,59.56912612915039,344.09136962890625
3106,-77.33551788330078,-296.00933837890625,57.71039581298828,338.4441223144531
3107,-67.54072570800781,-294.3263854980469,46.65899276733398,342.1503601074219
3108,-57.67486572265625,-285.8704833984375,48.03901672363281,354.8996887207031
3109,-53.73675155639648,-293.24554443359375,57.84503173828125,343.80712890625
3110,-67.69406127929689,-299.5697326660156,62.89763641357422,335.5569152832031
3111,-64.84425354003906,-294.303955078125,41.67744445800781,343.8407897949219
3112,-60.34515762329102,-286.0350341796875,40.604095458984375,354.6678161621094
3113,-63.61008834838867,-296.44317626953125,52.66152954101562,340.1270751953125
3114,-70.82435607910156,-306.5521240234375,53.3870735168457,333.7655029296875
3115,-70.23719024658203,-302.5429382324219,38.99219512939453,336.8396911621094
3116,-68.15406799316406,-294.0982666015625,36.96517181396485,347.116943359375
3117,-74.13417053222656,-297.6062927246094,46.20272445678711,340.56463623046875
3118,-80.13670349121094,-308.2313232421875,46.47573852539063,331.5140686035156
3119,-75.91809844970703,-300.6991882324219,35.37571334838867,340.9835205078125
3120,-63.60260772705078,-290.4892578125,38.22925567626953,349.476806640625
3121,-69.70986175537111,-294.5470275878906,50.615806579589844,335.590576171875
3122,-81.54664611816406,-305.9088439941406,51.872413635253906,328.5782470703125
3123,-75.5665512084961,-298.72076416015625,44.40009307861328,339.5997314453125
3124,-60.54336929321289,-284.51287841796875,46.92078399658203,349.75732421875
3125,-65.03872680664061,-290.53411865234375,57.94226837158203,347.60687255859375
3126,-73.67415618896484,-299.86517333984375,60.10393142700195,337.22491455078125
3127,-67.05453491210939,-285.3730773925781,47.29477310180664,339.5174560546875
3128,-53.12340927124024,-278.177490234375,47.42941284179688,354.8921813964844
3129,-58.17975234985352,-289.550537109375,59.1390380859375,346.0061950683594
3130,-66.51972961425781,-302.273681640625,59.13155746459961,331.65618896484375
3131,-64.07009887695311,-299.07232666015625,44.75164413452149,343.2648620605469
3132,-55.64784240722656,-284.6549987792969,43.11356735229492,357.5886535644531
3133,-63.21739959716797,-292.3479919433594,58.17414474487305,342.71881103515625
3134,-73.0196762084961,-301.3835754394531,51.58443832397461,330.9905090332031
3135,-71.57233428955078,-291.3718566894531,46.37849807739258,342.7524719238281
3136,-59.821571350097656,-283.9855651855469,40.76116943359375,352.7641906738281
3137,-62.23380661010742,-292.097412109375,49.94262313842773,346.0997009277344
3138,-68.5467529296875,-304.4091491699219,55.01766967773438,330.3247985839844
3139,-69.90059661865234,-297.5688781738281,39.90099334716797,339.4837951660156
3140,-60.55084991455078,-283.6452331542969,43.89894485473633,353.1007995605469
3141,-61.64664077758789,-288.6978454589844,54.61001968383789,344.240966796875
3142,-68.80854797363281,-299.4238586425781,54.2322883605957,332.3406066894531
3143,-70.47654724121094,-293.107177734375,42.264610290527344,334.8463439941406
3144,-68.54301452636719,-280.80291748046875,44.49359130859375,350.58758544921875
3145,-69.34335327148439,-289.37103271484375,55.114906311035156,338.1748352050781
3146,-74.62035369873047,-299.6145935058594,55.11864471435547,327.0635986328125
3147,-66.80022430419922,-291.169921875,41.66622543334961,333.90386962890625
3148,-57.4429931640625,-275.806396484375,43.46885681152344,353.0484313964844
3149,-64.78067779541016,-286.9326171875,57.38502502441406,335.94586181640625
3150,-70.69719696044922,-290.7734680175781,57.41494369506836,326.7008361816406
3151,-65.25938415527344,-282.1492614746094,53.00934219360352,340.8600769042969
3152,-51.56013107299805,-275.40249633789057,46.2513427734375,355.40081787109375
3153,-61.81867599487305,-283.08050537109375,56.31915283203125,351.09246826171875
3154,-69.85945892333984,-294.1618347167969,57.14567184448242,331.7272644042969
3155,-66.40379333496094,-290.9754333496094,45.43978500366211,339.63714599609375
3156,-59.39896011352539,-278.79830932617193,49.04130935668945,353.0334777832031
3157,-60.8463020324707,-289.9955749511719,53.90691757202149,341.59686279296875
3158,-70.96273040771484,-304.18475341796875,52.65031051635742,330.9643249511719
3159,-67.20039367675781,-290.69866943359375,44.418792724609375,338.45159912109375
3160,-64.91531372070311,-283.9032897949219,43.36413955688477,350.5015563964844
3161,-66.5159912109375,-289.4346008300781,58.99318313598633,342.034423828125
3162,-74.44831848144531,-293.294189453125,56.21443557739258,329.8909606933594
3163,-70.24092864990234,-286.5586242675781,40.742469787597656,337.5876770019531
3164,-57.274696350097656,-275.20053100585943,41.69988632202149,352.1695556640625
3165,-62.45446014404297,-283.7237854003906,48.9104118347168,338.5076904296875
3166,-69.72482299804689,-293.4924011230469,52.3548583984375,323.04693603515625
3167,-68.43830108642578,-289.49444580078125,42.496482849121094,331.9441833496094
3168,-48.7402458190918,-267.9974975585937,47.43315124511719,350.6960144042969
3169,-59.56351852416992,-277.17520141601557,59.26619338989258,337.54278564453125
3170,-72.3390121459961,-287.3664245605469,54.6212387084961,326.0351257324219
3171,-67.09941864013672,-274.807861328125,44.3140754699707,339.54364013671875
3172,-55.976951599121094,-265.01678466796875,46.37475967407226,358.3329162597656
3173,-60.32645797729492,-275.25289916992193,56.00126266479492,341.61553955078125
3174,-77.02510833740234,-286.8054504394531,54.47538375854492,328.5259094238281
3175,-76.68852233886719,-282.64666748046875,47.10778045654297,341.013427734375
3176,-62.82844924926758,-269.38125610351557,43.895206451416016,353.81884765625
3177,-70.69719696044922,-281.62567138671875,47.3246955871582,341.7838439941406
3178,-79.97962951660156,-292.7743225097656,49.26944351196289,328.82135009765625
3179,-75.3496322631836,-281.9809875488281,38.820159912109375,334.98095703125
3180,-65.95126342773439,-275.982177734375,35.820762634277344,352.3266296386719
3181,-69.61262512207031,-279.60614013671875,53.05047988891602,340.98724365234375
3182,-76.91291046142578,-293.5746765136719,51.5620002746582,330.5417175292969
3183,-80.70890808105469,-283.8658752441406,38.21055603027344,333.0885925292969
3184,-68.90952301025389,-274.2655639648437,38.65560531616211,347.14312744140625
3185,-74.17904663085938,-286.21453857421875,50.59336471557617,330.07421875
3186,-79.79637908935547,-294.9509582519531,56.26305389404297,325.0104064941406
3187,-76.77079772949219,-287.7217102050781,49.14228439331055,332.209716796875
3188,-73.4834213256836,-278.59637451171875,44.684326171875,343.3246765136719
3189,-72.03234100341797,-285.1898193359375,56.96989440917969,332.3929443359375
3190,-84.50865173339844,-291.3830871582031,54.90921020507813,323.77996826171875
3191,-77.66463470458984,-283.12164306640625,41.804603576660156,331.66741943359375
3192,-70.59622192382812,-270.06939697265625,34.08544921875,340.9498596191406
3193,-73.55074310302734,-280.04745483398443,50.997276306152344,327.30670166015625
3194,-87.93065643310547,-290.31719970703125,53.35341262817383,320.2794189453125
3195,-78.73424530029297,-282.6541442871094,43.12852478027344,335.1866760253906
3196,-71.70697021484375,-271.2250366210937,44.60578536987305,348.5194091796875
3197,-66.06346130371094,-283.97808837890625,55.06254577636719,339.3753662109375
3198,-84.37401580810547,-297.10888671875,50.84394073486328,324.3297424316406
3199,-76.44542694091797,-291.2222595214844,40.271244049072266,339.0050964355469
3200,-67.30885314941406,-277.76611328125,35.925479888916016,351.0662841796875
3201,-74.59417724609375,-285.4441223144531,53.07292175292969,339.60723876953125
3202,-82.24600982666016,-294.4460754394531,51.47224426269531,327.7666931152344
3203,-82.8967514038086,-291.0128479003906,35.91426086425781,328.5969543457031
3204,-65.02377319335939,-275.97842407226557,42.57876205444336,346.2679748535156
3205,-67.11063385009766,-283.106689453125,58.4284553527832,338.7433166503906
3206,-83.63351440429688,-293.9299621582031,52.06688690185547,321.06854248046875
3207,-76.44168853759766,-286.1173095703125,40.933204650878906,332.703369140625
3208,-67.32754516601561,-273.59237670898443,42.39924621582031,352.2480773925781
3209,-71.03752899169922,-286.2294921875,49.40781784057617,336.0430908203125
3210,-72.52227020263672,-287.9423828125,55.18970489501953,329.78997802734375
3211,-78.40887451171875,-280.49249267578125,45.36124801635742,333.82159423828125
3212,-75.40946960449219,-268.82400512695307,45.73523712158203,353.1680908203125
3213,-69.60888671875,-276.42349243164057,60.23482894897461,339.135986328125
3214,-85.94477081298828,-290.2611083984375,53.31601333618164,319.7333984375
3215,-76.77079772949219,-284.9429626464844,45.5183219909668,338.0364685058594
3216,-66.28785705566406,-276.2869873046875,64.53010559082031,345.086181640625
3217,-66.14948272705078,-287.2748107910156,74.05188751220703,337.6811828613281
3218,-72.06226348876953,-290.2181091308594,74.73628997802734,324.9991760253906
3219,-73.22911071777344,-290.1246032714844,64.31318664550781,335.5195007324219
3220,-64.80685424804689,-279.06198120117193,64.39546966552734,346.3091125488281
3221,-75.45435333251953,-286.13787841796875,69.81458282470703,333.9599914550781
3222,-82.75089263916016,-291.6878967285156,72.9411392211914,325.6686096191406
3223,-83.80181121826172,-280.42706298828125,67.82869720458984,336.63775634765625
3224,-66.74038696289061,-266.39120483398443,68.91700744628906,342.9432067871094
3225,-70.63362121582031,-277.48748779296875,79.10823059082031,332.0713195800781
3226,-76.19110870361328,-291.31390380859375,75.42069244384766,320.57861328125
3227,-77.67211151123047,-281.73602294921875,72.86634063720703,324.8233947753906
3228,-62.25250625610352,-271.29421997070307,69.50417327880861,342.6402893066406
3229,-60.89866256713867,-280.57290649414057,80.76126861572266,336.0543212890625
3230,-72.67186737060547,-290.2704772949219,75.77598571777344,319.62493896484375
3231,-72.61576843261719,-279.24148559570307,71.97250366210938,332.00775146484375
3232,-60.7939453125,-263.41796875,61.48956680297852,347.0047607421875
3233,-64.12993621826172,-275.7708740234375,68.68887329101561,332.3031921386719
3234,-73.7227783203125,-284.1445007324219,72.58210754394531,323.7201232910156
3235,-72.8962631225586,-274.26742553710943,62.60405349731445,328.3314208984375
3236,-66.72542572021484,-267.30746459960943,58.93521499633789,339.45013427734375
3237,-66.95355987548828,-275.25103759765625,73.59188079833984,335.8785400390625
3238,-70.13621520996094,-285.8162536621094,69.38449096679689,321.37896728515625
3239,-72.62324523925781,-283.08984375,53.14958953857422,329.2888488769531
3240,-64.88539123535156,-273.05197143554693,52.19591522216797,343.4256591796875
3241,-67.80999755859375,-278.38131713867193,60.094581604003906,339.13226318359375
3242,-79.24286651611328,-301.0226745605469,64.20099639892578,327.5797119140625
3243,-74.02197265625,-288.2808532714844,58.2358512878418,333.5822448730469
3244,-61.97201156616211,-278.96847534179693,57.54022979736328,349.0691833496094
3245,-73.47594451904297,-283.44140625,72.99723815917969,341.0096740722656
3246,-82.15625,-298.6366271972656,69.92678070068361,327.96490478515625
3247,-74.32490539550781,-288.17987060546875,55.1653938293457,334.04974365234375
3248,-69.13018035888672,-277.87643432617193,57.90674209594727,341.66790771484375
3249,-65.31174468994139,-288.5538635253906,71.392822265625,335.9122009277344
3250,-78.82774353027344,-296.60211181640625,67.3612060546875,327.4862060546875
3251,-72.33527374267578,-289.2158203125,63.60260772705078,337.27728271484375
3252,-63.50910949707031,-273.75881958007807,70.09507751464844,351.47393798828125
3253,-66.66558837890625,-284.5147705078125,72.9598388671875,335.64666748046875
3254,-75.15515899658203,-291.26153564453125,75.24118041992188,322.527099609375
3255,-66.42623138427734,-284.1519775390625,62.01689147949219,333.60467529296875
3256,-58.00771713256836,-274.55914306640625,65.13597106933594,348.7026672363281
3257,-62.8022689819336,-285.1617736816406,70.95899200439453,337.7260437011719
3258,-70.95525360107422,-292.1815490722656,75.93679809570312,323.877197265625
3259,-67.78007507324219,-287.33465576171875,63.69610595703125,330.6688537597656
3260,-60.92110061645508,-276.070068359375,64.27204895019531,348.91583251953125
3261,-68.29244232177734,-280.02688598632807,74.72132873535156,341.06951904296875
3262,-74.51564025878906,-296.9499206542969,74.67645263671875,326.8541564941406
3263,-65.73435211181639,-291.95343017578125,69.43311309814453,335.65789794921875
3264,-60.45735168457031,-281.5116271972656,64.48148345947266,345.3965759277344
3265,-61.34370803833008,-284.1145935058594,75.2262191772461,335.9496154785156
3266,-70.99639129638672,-297.8325500488281,77.21210479736328,328.1182556152344
3267,-67.42478942871094,-293.535400390625,66.90119934082031,333.01751708984375
3268,-57.37567520141602,-279.6005249023437,68.04934692382811,346.67938232421875
3269,-62.76861190795898,-287.4244079589844,73.69660186767578,335.5045471191406
3270,-67.33502960205078,-302.9786376953125,78.86139678955078,318.9779357910156
3271,-62.83218765258789,-292.9706726074219,65.99988555908203,328.09954833984375
3272,-56.56785583496094,-280.36721801757807,62.54047775268555,343.4892272949219
3273,-60.30775833129883,-286.3585205078125,70.65605926513672,331.2186279296875
3274,-69.19001770019531,-295.8691101074219,74.87092590332031,321.61083984375
3275,-67.10315704345703,-294.9154357910156,66.42996978759766,328.9410400390625
3276,-70.27458953857422,-279.2041015625,61.77379608154297,343.4256591796875
3277,-69.11895751953125,-279.57061767578125,70.23719024658203,340.673095703125
3278,-78.48741149902344,-296.80780029296875,64.39920806884766,321.4013977050781
3279,-70.62614440917969,-289.73193359375,59.63457489013672,327.3440856933594
3280,-68.46073913574219,-277.4052124023437,53.377723693847656,343.7173767089844
3281,-65.25938415527344,-288.9540100097656,68.78610992431639,335.50830078125
3282,-71.01509094238281,-301.9913024902344,63.56147003173828,325.16748046875
3283,-66.16443634033203,-291.7439880371094,56.41078186035156,329.9620361328125
3284,-62.39836120605469,-274.64889526367193,51.20484161376953,347.4049072265625
3285,-66.1756591796875,-286.1939697265625,61.9907112121582,334.1357421875
3286,-67.64170074462889,-301.5574951171875,61.63542175292969,321.3340759277344
3287,-62.491859436035156,-291.98333740234375,56.22004699707031,329.980712890625
3288,-55.86849594116211,-280.3372802734375,53.796592712402344,346.765380859375
3289,-51.57883071899414,-282.2034912109375,69.36579132080078,340.3103332519531
3290,-66.43745422363281,-296.575927734375,74.7662124633789,324.3746032714844
3291,-64.70214080810547,-294.0926513671875,64.7320556640625,328.14068603515625
3292,-61.58306121826172,-273.74383544921875,61.36988830566406,346.3016357421875
3293,-64.65725708007811,-280.58413696289057,77.88154602050781,345.04876708984375
3294,-75.02799987792969,-296.43756103515625,73.99578857421875,330.2986145019531
3295,-65.36410522460939,-289.09613037109375,69.68742370605469,330.4743957519531
3296,-54.7427864074707,-279.16668701171875,59.219444274902344,344.2746276855469
3297,-60.363853454589844,-285.0271301269531,70.23345184326172,339.8353576660156
3298,-71.59851837158203,-298.68896484375,73.45350646972656,324.5989990234375
3299,-67.66413879394531,-292.6864318847656,70.59996032714844,332.46026611328125
3300,-54.39497375488281,-281.33956909179693,61.85607528686523,348.6877136230469
3301,-59.88514709472656,-284.2118225097656,75.43191528320312,331.846923828125
3302,-80.6490707397461,-299.029296875,72.64942932128906,321.7679138183594
3303,-71.26192474365234,-288.9241027832031,65.62963104248047,329.77130126953125
3304,-59.3092041015625,-282.431640625,58.98383331298828,340.8189392089844
3305,-64.47400665283203,-283.5012512207031,68.19146728515625,334.88372802734375
3306,-69.93799591064453,-295.8167419433594,66.88998413085939,324.8271484375
3307,-70.3942642211914,-291.26153564453125,58.837974548339844,332.98760986328125
3308,-61.53070449829102,-282.42041015625,59.38400268554688,344.0950927734375
3309,-56.85582733154297,-285.8573913574219,71.70323181152344,339.1883544921875
3310,-68.31861877441406,-294.11883544921875,74.73628997802734,327.3104248046875
3311,-61.194114685058594,-293.5166931152344,62.48811721801758,333.0249938964844
3312,-54.92230224609375,-283.2581481933594,61.32875061035156,351.8404235839844
3313,-60.625648498535156,-293.0118103027344,73.55821990966797,337.3221435546875
3314,-69.40319061279297,-305.4656677246094,73.95838928222656,328.3837890625
3315,-63.87187957763672,-296.071044921875,65.42019653320311,331.858154296875
3316,-55.21027374267578,-283.0524597167969,63.93545913696289,347.40118408203125
3317,-57.11388397216797,-293.26239013671875,77.2195816040039,338.70965576171875
3318,-60.09832382202149,-302.92254638671875,81.10907745361328,327.89385986328125
3319,-62.719993591308594,-298.38604736328125,71.43022155761719,338.5263977050781
3320,-52.356727600097656,-283.1309814453125,65.30426025390625,351.8105163574219
3321,-57.19615936279297,-288.2733459472656,78.06854248046875,344.09136962890625
3322,-74.0818099975586,-298.84979248046875,74.17156219482422,331.8095397949219
3323,-77.4327621459961,-298.0644226074219,63.36699676513672,333.5822448730469
3324,-58.66220092773438,-284.8924865722656,61.08939743041992,346.5185546875
3325,-61.10061645507813,-291.44854736328125,71.06745147705078,338.1673583984375
3326,-74.57921600341797,-299.7660827636719,72.2978744506836,322.4261169433594
3327,-69.00302124023439,-290.1620178222656,62.7947883605957,331.20367431640625
3328,-64.34310913085939,-279.60800170898443,59.12220764160156,348.2426452636719
3329,-66.41501617431639,-285.6292419433594,71.57981872558594,337.81207275390625
3330,-76.5164794921875,-305.58160400390625,76.135009765625,328.39501953125
3331,-72.11836242675781,-296.43756103515625,63.62878799438477,332.8080749511719
3332,-59.55229568481445,-287.8208312988281,58.26951217651367,344.2783508300781
3333,-68.10544586181639,-289.4028015136719,69.38075256347656,335.0520324707031
3334,-75.69744873046875,-298.1504211425781,70.79069519042969,321.8277282714844
3335,-73.01219940185547,-293.9879150390625,61.44094467163086,320.8553771972656
3336,-64.23464965820311,-279.27890014648443,61.24273300170898,340.86383056640625
3337,-68.32610321044922,-285.00469970703125,70.97395324707031,327.3254089355469
3338,-76.8755111694336,-296.42633056640625,74.63905334472656,315.8775634765625
3339,-77.20088195800781,-294.73590087890625,66.61322784423828,324.81219482421875
3340,-64.82929229736328,-277.46878051757807,59.03619003295898,344.2596740722656
3341,-71.97998809814453,-284.3501892089844,71.0337905883789,340.0672302246094
3342,-76.31452941894531,-294.0926513671875,75.6712646484375,325.55267333984375
3343,-72.70926666259766,-286.2650451660156,66.8974609375,330.4594421386719
3344,-62.7237319946289,-277.67822265625,57.10640335083008,348.0145263671875
3345,-66.18313598632811,-284.1744384765625,69.4443359375,341.89605712890625
3346,-68.13162994384766,-296.938720703125,72.73170471191406,324.2923278808594
3347,-72.73918151855469,-291.2690124511719,52.77185821533203,326.3754577636719
3348,-63.64374923706055,-279.46963500976557,51.720947265625,344.9702453613281
3349,-63.61008834838867,-281.6911315917969,70.08385467529297,333.5785217285156
3350,-72.99723815917969,-299.8258972167969,67.36494445800781,321.5248107910156
3351,-73.8274917602539,-293.1315002441406,59.26806640625,325.7770690917969
3352,-69.23115539550781,-275.82696533203125,57.60754776000977,344.5289306640625
3353,-70.31946563720703,-280.66641235351557,67.70527648925781,336.0057067871094
3354,-75.63760375976562,-290.42755126953125,72.14827728271484,323.877197265625
3355,-78.93245697021484,-283.1646423339844,67.48836517333984,331.9030456542969
3356,-66.80022430419922,-268.65383911132807,63.1426010131836,337.445556640625
3357,-69.01424407958984,-273.88595581054693,74.91580963134766,333.8552551269531
3358,-71.82290649414062,-285.7489318847656,82.5190200805664,320.2831726074219
3359,-75.15889739990234,-276.8629150390625,76.02281951904297,328.1556396484375
3360,-55.48702621459961,-268.264892578125,70.53638458251953,340.2093505859375
3361,-64.27578735351561,-269.89175415039057,78.9623794555664,334.8500671386719
3362,-67.13681030273439,-276.97512817382807,78.77538299560547,326.35302734375
3363,-65.22946166992189,-271.75048828125,74.65775299072266,332.0414123535156
3364,-63.72602462768555,-259.43124389648443,68.32610321044922,347.8985900878906
3365,-59.3316421508789,-264.64840698242193,79.4859619140625,342.4645080566406
3366,-74.87466430664062,-281.47796630859375,75.38329315185547,325.8855285644531
3367,-74.78116607666016,-278.25418090820307,68.30366516113281,329.1878662109375
3368,-67.2789306640625,-265.61703491210943,60.63686752319336,340.3402404785156
3369,-66.60575103759766,-280.9506225585937,69.3096923828125,334.4162292480469
3370,-75.00556182861328,-287.8769226074219,74.76246643066406,320.0026550292969
3371,-76.13875579833984,-284.6680908203125,60.1319808959961,322.527099609375
3372,-65.68199157714844,-272.68545532226557,56.76980972290039,336.001953125
3373,-66.59452819824219,-275.39315795898443,63.55398941040039,329.49078369140625
3374,-76.93534851074219,-294.8929748535156,68.48691558837889,311.60284423828125
3375,-71.08240509033203,-285.6666564941406,64.97515106201172,321.6445007324219
3376,-60.28905868530274,-270.65469360351557,58.42284774780274,334.9884338378906
3377,-62.2899055480957,-274.77230834960943,71.47135925292969,327.7330322265625
3378,-65.69695281982422,-287.1401672363281,72.69430541992188,320.23828125
3379,-69.43311309814453,-277.4500732421875,64.87791442871094,327.0673522949219
3380,-55.67776107788086,-264.7493896484375,63.83822250366211,338.2010192871094
3381,-46.88151550292969,-267.38601684570307,73.90603637695312,337.3857116699219
3382,-65.30426025390625,-281.2909545898437,77.96756744384766,319.2621765136719
3383,-65.50995635986328,-280.60281372070307,69.23115539550781,325.34698486328125
3384,-52.74193954467773,-260.10818481445307,67.74267578125,344.68975830078125
3385,-53.587158203125,-272.69293212890625,77.62723541259766,337.38946533203125
3386,-66.75534057617189,-289.5112609863281,75.68248748779297,323.24517822265625
3387,-65.7530517578125,-279.110595703125,68.14284515380861,328.1033020019531
3388,-60.76028442382813,-271.316650390625,60.625648498535156,339.2930603027344
3389,-61.63916015625,-275.25851440429693,72.1370620727539,329.0420227050781
3390,-72.58584594726562,-292.9444885253906,70.59622192382812,316.01220703125
3391,-73.99578857421875,-289.31304931640625,60.59198760986328,320.0699768066406
3392,-62.7835693359375,-277.0761108398437,56.60151672363281,329.662841796875
3393,-70.52516174316406,-285.1505432128906,66.11208343505861,324.7112121582031
3394,-78.22935485839844,-295.71575927734375,71.13102722167969,311.7150573730469
3395,-77.2569808959961,-293.6812438964844,58.987571716308594,319.0863952636719
3396,-61.93087387084961,-279.38735961914057,55.53564453125,335.07073974609375
3397,-62.86211013793945,-280.6215209960937,64.01025390625,327.6545104980469
3398,-74.8896255493164,-291.8973083496094,65.39402008056639,318.7647705078125
3399,-71.4563980102539,-288.7408447265625,58.72578048706055,323.9258117675781
3400,-62.63771438598633,-272.28903198242193,56.72867202758789,343.12646484375
3401,-62.27120590209961,-275.3744506835937,73.763916015625,341.6080627441406
3402,-75.06166076660156,-287.7086486816406,76.68477630615234,323.9071350097656
3403,-68.32236480712889,-281.3021850585937,74.29872131347656,339.2294921875
3404,-55.61418151855469,-266.6043701171875,65.68199157714844,351.6160583496094
3405,-54.19676208496094,-271.60836791992193,79.69539642333984,345.9949645996094
3406,-67.45844268798828,-289.9750061035156,78.5809097290039,332.59490966796875
3407,-64.73954010009766,-290.8202209472656,70.60369873046875,334.74908447265625
3408,-59.38400268554688,-274.039306640625,61.27265167236328,348.8148498535156
3409,-58.69960021972656,-288.1648864746094,66.90493774414061,336.106689453125
3410,-69.26481628417969,-302.71685791015625,68.10918426513672,321.13958740234375
3411,-74.07058715820312,-299.287353515625,52.584861755371094,326.4764404296875
3412,-61.52322387695313,-286.7287902832031,55.31872940063477,343.208740234375
3413,-61.69900131225586,-286.4071350097656,62.97430419921875,337.9691467285156
3414,-73.13935089111328,-298.59173583984375,63.72228622436523,323.5967102050781
3415,-77.4327621459961,-295.6559143066406,56.29110336303711,328.5520935058594
3416,-64.76571655273439,-283.0412292480469,49.8435173034668,335.7027587890625
3417,-65.72126007080078,-286.5997619628906,59.27367401123047,338.92657470703125
3418,-75.55345916748047,-301.91839599609375,64.13180541992189,325.1637268066406
3419,-70.9458999633789,-294.56201171875,53.58528518676758,329.77130126953125
3420,-61.3754997253418,-275.36883544921875,56.88387680053711,350.61749267578125
3421,-58.22276306152344,-276.1168212890625,70.32508087158203,346.2380676269531
3422,-67.59120941162111,-286.02008056640625,75.8601303100586,330.42578125
3423,-64.01960754394531,-283.4133605957031,66.95169067382811,329.7039794921875
3424,-56.47248840332031,-266.54266357421875,69.68181610107422,355.5504150390625
3425,-53.88447952270508,-276.96951293945307,81.92998504638672,343.231201171875
3426,-59.58782577514648,-289.1877746582031,80.00393676757812,333.83282470703125
3427,-59.60278701782226,-284.4081726074219,72.28104400634766,329.6329040527344
3428,-54.99897003173828,-272.919189453125,64.27766418457031,347.21044921875
3429,-56.73054122924805,-280.571044921875,80.25077056884766,337.0566101074219
3430,-65.04808044433594,-295.6353454589844,77.53186798095703,318.3421630859375
3431,-72.53536224365234,-294.3675231933594,62.23193359375,323.02825927734375
3432,-72.2847900390625,-279.94647216796875,55.93020248413086,340.2878723144531
3433,-67.57625579833984,-287.7703552246094,64.18416595458984,329.1878662109375
3434,-80.21711730957031,-298.6871032714844,63.45862197875977,317.5754699707031
3435,-79.92913818359375,-292.2993469238281,59.80099868774414,321.1844787597656
3436,-66.80209350585939,-280.12225341796875,53.88447952270508,344.0165710449219
3437,-61.8504638671875,-289.14288330078125,63.49975967407226,337.41937255859375
3438,-69.21432495117189,-296.9405822753906,70.30638122558594,323.1441955566406
3439,-73.68350982666016,-295.66900634765625,66.12142944335939,332.7519836425781
3440,-60.22734832763672,-287.2392883300781,60.78833389282226,344.5924987792969
3441,-62.14217758178711,-287.7853088378906,74.53620910644531,337.9205322265625
3442,-72.1314468383789,-292.5723876953125,74.18465423583984,324.9842224121094
3443,-69.14327239990234,-281.07965087890625,68.73936462402344,333.8365478515625
3444,-63.46984100341797,-269.9085693359375,68.10731506347656,350.41552734375
3445,-61.831764221191406,-281.64813232421875,76.43607330322266,343.58648681640625
3446,-66.22615051269531,-293.05108642578125,82.161865234375,328.78021240234375
3447,-72.7896728515625,-288.9970397949219,71.40216827392578,332.6958923339844
3448,-66.74973297119139,-279.63980102539057,61.09874725341797,340.5982971191406
3449,-62.76674270629883,-280.68698120117193,69.43124389648439,330.91571044921875
3450,-72.59146118164062,-294.13189697265625,71.3273696899414,321.53228759765625
3451,-78.11528778076172,-288.6192932128906,62.5834846496582,332.1498718261719
3452,-59.82344055175781,-270.970703125,59.733680725097656,341.24530029296875
3453,-66.82453155517578,-278.90304565429693,68.50748443603516,336.929443359375
3454,-78.70245361328125,-299.726806640625,68.10731506347656,313.7458190917969
3455,-81.43632507324219,-295.04071044921875,63.41374206542969,325.0290832519531
3456,-71.54054260253906,-279.31817626953125,60.42556381225586,342.48321533203125
3457,-76.78014373779297,-283.05059814453125,71.61160278320312,339.7156677246094
3458,-77.0045394897461,-301.49951171875,72.55406188964844,324.2250061035156
3459,-73.51521301269531,-293.1258850097656,64.7376708984375,325.6835632324219
3460,-59.48310852050781,-280.06240844726557,60.63873672485352,346.0622863769531
3461,-64.17668151855469,-283.17401123046875,75.30662536621094,340.9722900390625
3462,-70.54573059082031,-297.3930969238281,73.35440063476562,327.8564453125
3463,-73.13748168945312,-290.3995056152344,66.31964874267578,333.7168884277344
3464,-61.13988494873047,-268.7342529296875,63.234230041503906,347.0533752441406
3465,-59.06423950195313,-271.23623657226557,75.6993179321289,340.08966064453125
3466,-65.72499847412111,-286.22576904296875,81.66445922851562,333.1970520019531
3467,-71.08802032470703,-292.60601806640625,73.01033020019531,329.8348693847656
3468,-54.53522109985352,-279.13116455078125,63.02105331420898,345.48260498046875
3469,-57.14941024780274,-282.45220947265625,69.6556396484375,340.4861145019531
3470,-70.41109466552734,-296.7124328613281,68.47008514404297,322.24285888671875
3471,-74.16595458984375,-296.5890197753906,61.33810043334961,321.37896728515625
3472,-61.7569694519043,-283.3123779296875,54.69603729248047,343.2984924316406
3473,-66.8095703125,-287.61700439453125,56.1171989440918,336.177734375
3474,-74.67084503173828,-301.7126770019531,58.99692153930664,320.21209716796875
3475,-73.1113052368164,-300.3588562011719,58.64537048339844,325.414306640625
3476,-60.72849655151367,-284.9093322753906,54.32204818725586,339.8503112792969
3477,-66.34956359863281,-288.3425598144531,70.38865661621094,334.40875244140625
3478,-71.03565979003906,-297.4978332519531,70.45223236083984,320.01763916015625
3479,-69.70051574707031,-290.8258361816406,62.75551986694336,328.72412109375
3480,-65.49312591552734,-279.75198364257807,58.48455429077149,341.5257873535156
3481,-66.52533721923828,-286.8166809082031,71.42835235595703,333.2381896972656
3482,-74.6334457397461,-298.8404541015625,73.35813903808594,321.43505859375
3483,-70.66541290283203,-294.01971435546875,63.843833923339844,323.5705261230469
3484,-60.16751098632813,-279.3593139648437,60.3545036315918,337.21368408203125
3485,-57.50096130371094,-284.2286682128906,70.67662811279297,342.7375183105469
3486,-66.727294921875,-292.8678283691406,81.87014770507812,325.8369140625
3487,-63.40252304077149,-284.6774597167969,74.47636413574219,335.82244873046875
3488,-63.26040649414063,-272.76211547851557,64.00464630126953,346.50360107421875
3489,-59.4681510925293,-276.19534301757807,76.35005950927734,348.71014404296875
3490,-69.38262176513672,-292.3255310058594,78.46310424804688,328.7577819824219
3491,-74.41278839111328,-294.48345947265625,64.09440612792969,337.6400451660156
3492,-70.26898193359375,-283.1927185058594,55.13360595703125,342.9282531738281
3493,-64.4796142578125,-285.5263977050781,68.34293365478516,343.62762451171875
3494,-79.98898315429688,-304.1099548339844,64.68531036376953,322.26531982421875
3495,-82.76024627685547,-294.6368103027344,59.81222152709961,329.1167907714844
3496,-75.14581298828125,-280.14096069335943,52.17534255981445,342.890869140625
3497,-71.30867004394531,-286.34918212890625,64.69652557373047,339.62591552734375
3498,-75.42630004882812,-296.70123291015625,66.28972625732422,319.3743591308594
3499,-81.0174560546875,-302.8384094238281,53.19633865356445,313.9627380371094
3500,-61.18850326538086,-287.58709716796875,53.68252563476562,329.7750244140625
3501,-63.7465934753418,-290.15264892578125,64.75262451171875,329.2626647949219
3502,-71.24883270263672,-297.38189697265625,66.77591705322266,316.3525390625
3503,-74.40157318115234,-299.45751953125,58.74260711669922,314.19085693359375
3504,-60.64995574951172,-283.55548095703125,55.574913024902344,329.34869384765625
3505,-54.49408340454102,-281.51348876953125,68.38780975341797,333.75054931640625
3506,-65.94565582275389,-298.29443359375,74.74189758300781,322.79638671875
3507,-69.01611328125,-290.38079833984375,70.35499572753906,329.7862548828125
3508,-60.50036239624024,-276.03079223632807,63.6643180847168,341.6641845703125
3509,-60.50410079956055,-276.60299682617193,70.97582244873047,336.49188232421875
3510,-73.0701675415039,-296.60772705078125,71.1216812133789,322.5458068847656
3511,-75.77037048339844,-293.8327331542969,63.6568374633789,325.7733459472656
3512,-60.6050796508789,-277.55294799804693,56.95493698120117,345.2058410644531
3513,-68.73936462402344,-281.0123291015625,64.09814453125,342.2326354980469
3514,-79.16619873046875,-298.1485595703125,65.22385406494139,320.07745361328125
3515,-76.5819320678711,-293.1707458496094,55.51507568359375,325.84814453125
3516,-66.67493438720703,-280.63461303710943,52.55307388305664,342.6328125
3517,-62.9649543762207,-281.9959411621094,59.67384338378906,340.5160217285156
3518,-72.8943862915039,-294.77142333984375,64.83116912841797,318.93304443359375
3519,-79.13628387451172,-294.6779479980469,56.13216018676758,320.40283203125
3520,-67.02275085449219,-280.66452026367193,52.20900344848633,331.5215759277344
3521,-76.07704162597656,-282.9608154296875,59.58782577514648,329.32623291015625
