,T7,F8,Cz,P4
2000,-77.24950408935547,-220.523193359375,89.15360260009766,304.73828125
2001,-81.06420135498047,-225.7852325439453,86.30006408691406,295.5194091796875
2002,-75.08036041259766,-213.1181945800781,87.3547134399414,296.0691833496094
2003,-77.52251434326172,-211.6035461425781,84.04864501953125,299.52484130859375
2004,-78.08724212646484,-219.6667633056641,94.51287841796876,295.87469482421875
2005,-88.65245819091797,-225.86378479003903,95.38801574707031,294.10198974609375
2006,-82.45918273925781,-218.8813781738281,94.3184051513672,302.3783874511719
2007,-74.41465759277344,-214.15789794921875,88.83197021484375,304.3231506347656
2008,-88.01667785644531,-225.16815185546875,88.5365219116211,298.7469482421875
2009,-98.36872100830078,-225.7889862060547,80.40597534179688,294.41241455078125
2010,-89.41165924072266,-219.51904296875,78.1078109741211,304.61859130859375
2011,-88.10269165039062,-217.1516876220703,75.74419403076172,311.0400085449219
2012,-92.00714874267578,-225.1027069091797,80.19093322753906,303.1151428222656
2013,-91.29283142089844,-232.7395782470703,77.72260284423828,296.7274169921875
2014,-84.52735137939453,-225.2859649658203,73.83684539794922,308.28369140625
2015,-84.2618179321289,-227.08859252929688,74.6371841430664,305.32916259765625
2016,-91.20307159423828,-232.9976348876953,79.49531555175781,297.3220520019531
2017,-96.17713928222656,-234.7628631591797,77.2850341796875,292.4714050292969
2018,-99.67394256591795,-218.80845642089844,75.25052642822266,301.5182189941406
2019,-88.6187973022461,-214.36170959472656,79.42051696777344,303.7696228027344
2020,-93.33106994628906,-224.43701171875,83.7513198852539,293.458740234375
2021,-89.95394134521484,-225.33084106445312,84.8919906616211,285.55633544921875
2022,-81.13526153564453,-213.8755340576172,81.8626708984375,296.07666015625
2023,-72.01737976074219,-204.4696807861328,87.87642669677734,308.5641784667969
2024,-87.3509750366211,-213.69601440429688,92.87667846679688,297.5987854003906
2025,-83.2183837890625,-214.1597595214844,93.32172393798828,298.859130859375
2026,-79.45230102539062,-211.05938720703125,89.7501220703125,306.7578125
2027,-83.1585464477539,-206.2498779296875,87.97366333007812,310.901611328125
2028,-83.97758483886719,-214.6197662353516,90.45696258544922,308.8895568847656
2029,-92.51951599121094,-226.40045166015625,89.37612915039062,296.5179748535156
2030,-87.3098373413086,-216.60939025878903,82.65552520751953,301.406005859375
2031,-82.61251831054688,-207.1661529541016,77.93577575683594,310.5201416015625
2032,-86.79747009277344,-220.13612365722656,83.40351104736328,297.9765319824219
2033,-92.52699279785156,-229.20538330078125,84.18515014648438,293.4063720703125
2034,-85.8475341796875,-225.00921630859372,77.41218566894531,299.30792236328125
2035,-75.5478515625,-212.88446044921875,81.37274169921875,313.87109375
2036,-83.19220733642578,-227.03623962402344,79.30831909179688,299.7567138671875
2037,-92.31755828857422,-229.0819549560547,72.9317855834961,292.0450439453125
2038,-85.73907470703125,-221.8377685546875,75.34028625488281,300.747802734375
2039,-84.1234359741211,-221.17955017089844,70.29889678955078,301.1404724121094
2040,-87.88951873779297,-228.48731994628903,73.58627319335938,296.5030212402344
2041,-96.06120300292969,-230.7162933349609,73.9527816772461,287.2093505859375
2042,-91.81267547607422,-222.5820159912109,73.33195495605469,293.4176025390625
2043,-77.38040161132812,-214.1597595214844,77.11673736572266,302.2213134765625
2044,-93.8135223388672,-222.79144287109372,76.30892181396484,289.1802978515625
2045,-83.97010040283203,-223.01583862304688,79.03156280517578,290.9903869628906
2046,-83.74945068359375,-218.09039306640625,76.60810852050781,305.75177001953125
2047,-82.12259674072266,-209.1632537841797,86.73576354980469,309.046630859375
2048,-83.67839050292969,-215.10595703125,86.39168548583984,299.5024108886719
2049,-87.48187255859375,-211.86346435546875,89.82492065429688,294.61810302734375
2050,-82.30210876464844,-207.6934814453125,85.68110656738281,306.7353820800781
2051,-81.30355834960938,-203.41128540039062,83.80741882324219,307.3113098144531
2052,-87.3921127319336,-216.47476196289062,87.80911254882812,295.8896789550781
2053,-96.04998016357422,-218.0567321777344,88.2840805053711,297.5950622558594
2054,-91.96227264404295,-215.88758850097656,83.7887191772461,300.8637390136719
2055,-86.92462158203125,-209.44749450683597,79.16246032714844,310.8118591308594
2056,-95.99014282226562,-214.64968872070312,80.96135711669922,303.8481750488281
2057,-105.45208740234376,-225.2934417724609,81.60087585449219,296.5516357421875
2058,-90.15963745117188,-214.07000732421875,80.4415054321289,299.43133544921875
2059,-93.67140197753906,-214.02886962890625,67.67723083496094,301.7351379394531
2060,-96.43892669677734,-219.1824493408203,77.6478042602539,299.3378601074219
2061,-102.8266830444336,-229.84864807128903,66.31590270996094,293.2530212402344
2062,-85.32394409179688,-215.92124938964844,67.99886322021484,296.1402282714844
2063,-83.92522430419922,-204.8249664306641,77.60292053222656,312.4985656738281
2064,-93.09919738769531,-215.5360412597656,76.61184692382812,301.8847351074219
2065,-93.30115509033205,-219.5826110839844,79.88052368164062,298.365478515625
2066,-95.73957061767578,-209.1819610595703,78.23870849609375,303.7808532714844
2067,-81.42323303222656,-202.2407073974609,82.63683319091797,311.30926513671875
2068,-92.40731811523438,-211.2688140869141,75.95736694335938,301.3948059082031
2069,-96.9288558959961,-218.17266845703125,80.90525817871094,291.9440612792969
2070,-88.29342651367188,-210.05709838867188,77.45706939697266,302.71124267578125
2071,-88.1176528930664,-206.13394165039062,78.20130920410156,308.72125244140625
2072,-106.33470916748048,-216.0820770263672,78.94181060791016,291.2596740722656
2073,-107.00040435791016,-216.8076171875,76.20793914794922,291.2334899902344
2074,-92.33999633789062,-215.17327880859372,74.18091583251953,302.4868469238281
2075,-88.11017608642578,-211.42214965820312,75.40386199951172,309.4916687011719
2076,-95.49273681640624,-219.2422790527344,76.82502746582031,306.39129638671875
2077,-91.3302230834961,-223.9582977294922,75.03361511230469,299.7903747558594
2078,-91.96227264404295,-219.3806610107422,74.55864715576172,303.964111328125
2079,-77.22706604003906,-219.85562133789062,72.26234436035156,311.49627685546875
2080,-84.785400390625,-228.6930084228516,76.69786834716797,305.7031555175781
2081,-87.73992156982422,-239.0188751220703,71.89583587646484,296.1365051269531
2082,-79.81881713867188,-231.27354431152344,71.56298828125,307.0457763671875
2083,-77.46641540527344,-226.3667907714844,69.52100372314453,309.9666442871094
2084,-84.56848907470703,-231.972900390625,73.32447814941406,302.0791931152344
2085,-82.64617919921875,-228.9174041748047,80.800537109375,299.6931457519531
2086,-91.89495086669922,-227.16339111328125,77.93577575683594,306.63812255859375
2087,-87.06674194335938,-221.1645965576172,78.66505432128906,319.0545959472656
2088,-91.41250610351562,-221.40768432617188,85.66989135742188,307.4459533691406
2089,-93.35725402832031,-224.43701171875,89.14799499511719,304.0389099121094
2090,-91.37510681152344,-217.34616088867188,83.67652130126953,310.5238952636719
2091,-78.77538299560547,-209.32406616210938,89.79499816894531,324.634521484375
2092,-86.61795043945312,-217.51071166992188,88.50846862792969,308.5342712402344
2093,-89.71085357666016,-221.0748291015625,87.82781219482422,304.3904724121094
2094,-85.83257293701172,-211.0893096923828,87.19202423095703,311.5336608886719
2095,-78.42757415771484,-210.57693481445312,89.88101196289062,312.3564453125
2096,-81.6738052368164,-215.58465576171875,94.92987823486328,303.8930358886719
2097,-87.53048706054688,-227.0474548339844,85.75590515136719,296.3047790527344
2098,-83.47269439697266,-224.3061065673828,79.2148208618164,299.7342834472656
2099,-89.29572296142578,-224.9044952392578,72.31096649169922,299.61834716796875
2100,-93.4731903076172,-232.8218688964844,75.29166412353516,295.28753662109375
2101,-98.3313217163086,-235.34629821777344,76.7053451538086,294.9098205566406
2102,-92.04080963134766,-227.6720123291016,73.96774291992188,298.79931640625
2103,-84.65824890136719,-223.2963409423828,70.69158935546875,302.6962890625
2104,-88.53278350830078,-231.984130859375,77.38227081298828,300.4560852050781
2105,-93.40586853027344,-235.3238525390625,76.14810180664062,288.85491943359375
2106,-85.15190887451172,-224.6913146972656,73.30951690673828,301.0395202636719
2107,-85.64183807373047,-222.0846099853516,73.78448486328125,303.4554748535156
2108,-87.02186584472656,-226.1648406982422,74.28189086914062,300.7889404296875
2109,-92.09317016601562,-229.0408172607422,76.13688659667969,291.7682800292969
2110,-79.58319854736328,-223.56935119628903,78.17887115478516,307.1392822265625
2111,-69.61637115478516,-215.5697021484375,81.89633178710938,312.1395263671875
2112,-82.74341583251953,-215.6819000244141,88.7927017211914,306.9298400878906
2113,-89.85670471191406,-225.11392211914062,81.09599304199219,305.50494384765625
2114,-82.31707000732422,-211.72882080078125,82.244140625,308.2612609863281
2115,-77.39910125732422,-207.4728240966797,84.04302978515625,309.97039794921875
2116,-78.85391998291016,-210.50961303710938,90.7374496459961,306.8700256347656
2117,-86.04949188232422,-215.9175109863281,90.07174682617188,300.0185241699219
2118,-83.06504821777344,-209.3465118408203,86.28697204589844,303.6649169921875
2119,-82.20113372802734,-205.1017303466797,83.59050750732422,309.2597961425781
2120,-87.45942687988281,-211.1753234863281,85.47167205810547,297.4716491699219
2121,-90.52989196777344,-220.8990631103516,83.7513198852539,293.787841796875
2122,-85.38004302978516,-217.88470458984372,83.47830963134766,303.1600341796875
2123,-76.4529037475586,-212.95176696777344,79.30458068847656,303.3245849609375
2124,-81.04924011230469,-215.7006072998047,76.4622573852539,295.6615295410156
2125,-95.11126708984376,-223.7226867675781,78.6126937866211,290.3658447265625
2126,-85.2267074584961,-217.7238922119141,73.40675354003906,301.9520568847656
2127,-81.01932525634766,-219.33578491210938,74.49506378173828,306.664306640625
2128,-83.8392105102539,-220.4540100097656,78.1900863647461,300.0447082519531
2129,-85.24915313720703,-234.32530212402344,78.4518814086914,292.5835876464844
2130,-90.11476135253906,-228.2928466796875,76.10696411132812,292.3853759765625
2131,-77.6795883178711,-220.59613037109372,74.15847778320312,303.16375732421875
2132,-82.38064575195312,-226.9876251220703,85.66989135742188,303.2348327636719
2133,-85.37256622314453,-233.61471557617188,88.64311218261719,296.55535888671875
2134,-78.77164459228516,-228.10211181640625,80.3143539428711,303.7696228027344
2135,-74.17156219482422,-222.5595703125,84.40579986572266,313.0595397949219
2136,-75.71614074707031,-223.1056060791016,85.38191223144531,303.6200256347656
2137,-82.86683654785156,-231.4231414794922,82.48723602294922,295.0743713378906
2138,-83.32310485839844,-227.5336456298828,81.94120788574219,306.13323974609375
2139,-72.84764099121094,-218.2549591064453,81.89258575439453,309.0877685546875
2140,-73.84993743896484,-222.2940368652344,89.8099594116211,306.91864013671875
2141,-87.92317962646484,-230.25628662109372,87.59593963623047,294.3787536621094
2142,-79.4261245727539,-220.962646484375,86.92649841308594,302.3148193359375
2143,-77.78430938720703,-212.1963195800781,85.28467559814453,316.07391357421875
2144,-89.6023941040039,-221.0897979736328,85.04906463623047,305.6470642089844
2145,-90.51866912841795,-224.96807861328125,86.3355941772461,300.2765808105469
2146,-81.86827850341797,-224.519287109375,76.67169189453125,305.665771484375
2147,-79.26531219482422,-219.5489501953125,82.68170928955078,316.1487121582031
2148,-81.2885971069336,-227.1746063232422,89.24897003173828,308.1789855957031
2149,-81.80470275878906,-233.3155212402344,83.36237335205078,297.0452880859375
2150,-82.3133316040039,-228.36764526367188,80.71452331542969,304.3231506347656
2151,-75.13272094726562,-224.5080718994141,81.75794982910156,309.3420715332031
2152,-76.53144073486328,-231.6924133300781,78.01057434082031,302.62896728515625
2153,-73.18423461914062,-238.7645568847656,79.84686279296875,299.6744384765625
2154,-74.25010681152344,-228.6331787109375,79.95158386230469,309.0915222167969
2155,-73.7414779663086,-221.09727478027344,79.96653747558594,314.4320983886719
2156,-85.61192321777344,-227.5261688232422,80.54996490478516,304.5699768066406
2157,-78.46871185302734,-233.27813720703125,80.74443817138672,298.9975280761719
2158,-76.34819030761719,-222.8774719238281,76.02468872070312,302.2213134765625
2159,-70.35312652587889,-220.17726135253903,83.43342590332031,307.27392578125
2160,-84.31417083740234,-230.08799743652344,82.68170928955078,297.7596130371094
2161,-88.02415466308594,-232.4441375732422,85.18743896484375,296.8433532714844
2162,-81.04924011230469,-220.71206665039062,82.33763885498047,310.2097473144531
2163,-78.92871856689453,-212.20005798339844,86.07379913330078,310.0638732910156
2164,-75.9517593383789,-219.0178985595703,84.69751739501953,304.8542175292969
2165,-83.61481475830078,-222.70916748046875,87.39772033691406,295.2725830078125
2166,-82.02909851074219,-219.9341735839844,79.9328842163086,301.7949523925781
2167,-73.52082061767578,-209.6868438720703,79.9740219116211,306.5895080566406
2168,-85.23045349121094,-224.9456329345703,80.25077056884766,297.2846374511719
2169,-82.10389709472656,-226.52386474609372,81.82901000976562,295.2725830078125
2170,-77.94512176513672,-222.1257476806641,77.69268035888672,303.4405212402344
2171,-77.12608337402344,-221.59841918945312,72.45307922363281,310.737060546875
2172,-84.4637680053711,-225.4617462158203,70.79256439208984,306.5633544921875
2173,-85.35012817382812,-230.0618133544922,72.1314468383789,296.3945617675781
2174,-87.98675537109375,-228.43495178222656,69.42375946044922,301.1629333496094
2175,-75.7348403930664,-218.3447113037109,75.98355102539062,316.52642822265625
2176,-79.9272689819336,-226.90907287597656,79.74962615966797,306.05096435546875
2177,-93.33106994628906,-235.45849609375,74.89523315429688,295.28753662109375
2178,-86.91714477539062,-222.148193359375,76.72779083251953,303.9828186035156
2179,-81.91316223144531,-218.15771484375,74.81669616699219,313.6691589355469
2180,-90.81786346435548,-223.79000854492188,76.5220947265625,306.0023498535156
2181,-87.74740600585938,-228.8762664794922,78.73985290527344,299.24810791015625
2182,-88.59262084960938,-219.8967742919922,76.79884338378906,299.7043762207031
2183,-75.84329986572266,-222.312744140625,75.48988342285156,306.8176574707031
2184,-87.3547134399414,-228.2030792236328,83.4708251953125,295.7325744628906
2185,-86.04949188232422,-234.92742919921875,84.51799774169922,290.0628967285156
2186,-78.7828598022461,-225.76841735839844,80.96509552001953,293.85516357421875
2187,-73.01593780517578,-221.1758117675781,79.7571029663086,302.18017578125
2188,-69.79214477539061,-232.1860809326172,85.51655578613281,296.1925964355469
2189,-75.92557525634766,-233.01634216308597,84.90320587158203,296.9555358886719
2190,-72.45121002197266,-227.31298828125,79.92539978027344,303.8182678222656
2191,-69.38823699951172,-218.77853393554688,83.20903778076172,315.7036437988281
2192,-83.8803482055664,-228.5097503662109,84.38710021972656,300.49346923828125
2193,-87.20885467529297,-223.1766662597656,86.47023010253906,302.4569396972656
2194,-84.24311828613281,-222.6007080078125,83.28382873535156,306.5521240234375
2195,-82.92667388916016,-215.05734252929688,80.2358169555664,312.8426208496094
2196,-80.4882583618164,-225.05409240722656,83.4708251953125,305.0599060058594
2197,-81.6700668334961,-228.3190155029297,82.09454345703125,302.097900390625
2198,-80.0656509399414,-224.6988067626953,80.81175994873047,306.4473876953125
2199,-69.51538848876953,-214.6646423339844,77.03071594238281,312.6518859863281
2200,-79.93475341796875,-226.7669677734375,79.90670013427734,303.9229736328125
2201,-89.62483215332031,-233.76431274414062,85.56890869140625,296.1290283203125
2202,-74.05937194824219,-225.3271026611328,85.553955078125,307.5843200683594
2203,-71.63965606689453,-215.43881225585938,81.70559692382812,308.6875915527344
2204,-74.26506042480469,-220.91775512695312,85.5950927734375,300.1681213378906
2205,-76.6735610961914,-228.27413940429688,87.21820831298828,290.1788330078125
2206,-70.31198883056639,-224.5155487060547,84.8508529663086,304.55126953125
2207,-70.14369201660156,-222.0995635986328,83.75879669189453,310.1573791503906
2208,-74.48197937011719,-228.38259887695312,86.84795379638672,301.922119140625
2209,-82.4367446899414,-235.51084899902344,85.87932586669922,296.60772705078125
2210,-77.82544708251953,-229.9608459472656,78.60521697998047,296.828369140625
2211,-72.6849594116211,-227.15403747558597,75.73858642578125,304.45965576171875
2212,-70.72898864746094,-232.5806427001953,86.78250885009766,302.54107666015625
2213,-75.4786605834961,-241.94908142089844,82.1786880493164,294.45166015625
2214,-65.08174133300781,-229.5101776123047,84.71434020996094,302.4775085449219
2215,-61.70460891723633,-227.93942260742188,83.77188873291016,307.0626220703125
2216,-73.47781372070312,-229.3456268310547,86.78624725341797,302.02496337890625
2217,-78.1302490234375,-234.5926971435547,87.20511627197266,302.77294921875
2218,-73.2721176147461,-224.771728515625,78.52481079101562,307.4665222167969
2219,-67.57625579833984,-219.49473571777344,82.54520416259766,310.824951171875
2220,-77.92081451416016,-228.69862365722656,87.0517807006836,303.00482177734375
2221,-83.4109878540039,-225.84881591796875,88.84319305419922,295.9102478027344
2222,-79.5738525390625,-218.9898376464844,79.15685272216797,307.32440185546875
2223,-72.3857650756836,-212.6694183349609,84.86393737792969,316.0383605957031
2224,-76.97462463378906,-213.00973510742188,89.54255676269531,305.9930114746094
2225,-86.30567169189453,-225.60198974609372,88.69359588623047,297.8998718261719
2226,-79.44295501708984,-214.96945190429688,86.93958282470703,305.413330078125
2227,-73.80318450927734,-212.45249938964844,89.9202880859375,319.3743591308594
2228,-73.25341796875,-221.4170379638672,89.77069091796875,311.9506530761719
2229,-84.48433685302734,-228.69488525390625,89.8043441772461,307.7806701660156
2230,-72.05665588378906,-225.5720672607422,85.1855697631836,313.46905517578125
2231,-73.44041442871094,-225.0185546875,81.60648345947266,316.259033203125
2232,-85.80826568603516,-227.63275146484372,85.34638977050781,303.53216552734375
2233,-86.40290832519531,-234.9367828369141,81.42697143554688,298.2551574707031
2234,-80.19841766357422,-232.59185791015625,79.99459075927734,302.87017822265625
2235,-76.81380462646484,-225.86378479003903,78.83895874023438,310.7351989746094
2236,-89.59678649902344,-229.8093719482422,82.3133316040039,303.9098815917969
2237,-95.9957504272461,-236.49630737304688,78.20691680908203,291.8935852050781
2238,-94.54840850830078,-226.4696350097656,76.40054321289062,301.2470703125
2239,-81.481201171875,-217.9426727294922,75.24118041992188,306.1239013671875
2240,-97.19252014160156,-226.92965698242188,82.35820770263672,295.8840637207031
2241,-94.51475524902344,-231.9411163330078,84.78166198730469,293.9767150878906
2242,-82.92854309082031,-221.9742889404297,78.63700866699219,296.1869812011719
2243,-77.12421417236328,-218.0324249267578,83.6596908569336,309.134521484375
2244,-84.40579986572266,-220.0145721435547,86.6329116821289,302.4625244140625
2245,-85.10516357421875,-227.58413696289062,93.00944519042969,293.7223815917969
2246,-73.88920593261719,-218.7804107666016,88.85066986083984,303.1768493652344
2247,-66.01297760009766,-216.1288146972656,88.57018280029297,314.9986877441406
2248,-73.85928344726562,-219.3264312744141,87.80350494384766,305.9668273925781
2249,-84.76109313964844,-222.37445068359372,94.64751434326172,304.5643615722656
2250,-77.52812957763672,-220.68028259277344,85.3650894165039,304.5531311035156
2251,-75.63199615478516,-209.6700134277344,85.65679931640625,312.0553894042969
2252,-82.43861389160156,-220.25392150878903,86.59551239013672,303.4947509765625
2253,-92.9851303100586,-223.55252075195312,89.63605499267578,302.350341796875
2254,-88.87498474121094,-224.88018798828125,79.0633544921875,306.4043884277344
2255,-88.45237731933594,-219.83880615234372,71.22826385498047,302.1446533203125
2256,-92.84675598144531,-230.8228912353516,72.63072967529297,297.35382080078125
2257,-100.00118255615234,-239.1291961669922,71.13102722167969,286.6651916503906
2258,-85.55769348144531,-236.133544921875,71.14598846435547,292.61163330078125
2259,-77.52064514160156,-234.1700897216797,69.72482299804689,297.97467041015625
2260,-83.23521423339844,-224.5922088623047,78.76790618896484,292.2039794921875
2261,-92.57000732421876,-227.58413696289062,71.50502014160156,286.3585205078125
2262,-90.3148422241211,-225.47482299804688,70.35312652587889,288.22100830078125
2263,-74.33051300048828,-215.65011596679688,76.95404815673828,305.3497314453125
2264,-87.02373504638672,-221.039306640625,79.57572174072266,293.8457946777344
2265,-90.34850311279295,-223.31690979003903,80.59671020507812,292.25634765625
2266,-89.7314224243164,-217.6397399902344,85.51467895507812,305.6938171386719
2267,-80.44898986816406,-214.30747985839844,83.72701263427734,312.5677490234375
2268,-87.21072387695312,-219.0870819091797,90.98241424560548,306.86065673828125
2269,-89.58930206298828,-214.4795227050781,87.91944122314453,300.2485046386719
2270,-82.55828857421875,-210.93035888671875,95.31696319580078,306.434326171875
2271,-78.44440460205078,-207.04833984375,91.5060043334961,315.589599609375
2272,-84.18888854980469,-211.05377197265625,92.04828643798828,304.2801208496094
2273,-88.31399536132812,-216.57012939453125,90.64208221435548,294.1562194824219
2274,-79.96653747558594,-219.06463623046875,88.12887573242188,302.3129577636719
2275,-74.96255493164062,-212.2206268310547,82.9790267944336,307.63482666015625
2276,-74.41278839111328,-219.7752227783203,83.48017883300781,300.5701599121094
2277,-92.29325103759766,-228.0291748046875,81.01932525634766,287.9966125488281
2278,-92.89911651611328,-226.56314086914062,74.66897583007812,289.2644348144531
2279,-88.77400207519531,-221.77232360839844,75.16263580322266,291.8861083984375
2280,-91.8444595336914,-224.24066162109372,76.39306640625,284.2679138183594
2281,-95.04581451416016,-230.8789825439453,75.5665512084961,275.70730590820307
2282,-85.74468994140625,-228.1413726806641,76.57257843017578,283.25067138671875
2283,-85.55020904541016,-222.6063232421875,76.44168853759766,292.9033508300781
2284,-79.8954849243164,-223.1149444580078,83.39789581298828,291.97210693359375
2285,-84.11408996582031,-225.71792602539062,78.76790618896484,280.98056030273443
2286,-77.16535949707031,-223.13365173339844,80.8285903930664,295.2482604980469
2287,-69.098388671875,-212.9723358154297,83.17724609375,308.6072082519531
2288,-84.21880340576172,-222.0453338623047,87.7324447631836,301.76690673828125
2289,-88.10082244873047,-225.25791931152344,89.29198455810547,300.6711120605469
2290,-82.11698150634766,-216.35694885253903,83.05382537841797,309.310302734375
2291,-82.0047836303711,-208.75747680664062,82.25348663330078,316.86114501953125
2292,-83.32122802734375,-217.69956970214844,87.38463592529297,312.3321228027344
2293,-89.28263092041016,-218.47000122070312,87.83341979980469,304.20159912109375
2294,-85.03036499023438,-216.06524658203125,84.81158447265625,306.8045654296875
2295,-85.84940338134766,-209.02301025390625,85.49597930908203,312.6051330566406
2296,-88.58326721191406,-217.1348571777344,92.0108871459961,308.5174255371094
2297,-91.21990203857422,-228.65000915527344,83.59611511230469,292.93701171875
2298,-80.0188980102539,-224.0274810791016,77.58235168457031,303.50970458984375
2299,-73.19731903076172,-217.32933044433597,78.46871185302734,303.0085754394531
2300,-82.13568115234375,-224.4388732910156,83.52505493164062,300.0166320800781
2301,-87.38650512695312,-228.27227783203125,81.61396789550781,292.10302734375
2302,-82.21421813964844,-226.86981201171875,80.83232879638672,295.1959228515625
2303,-74.90271759033203,-222.6063232421875,77.92268371582031,304.1155700683594
2304,-79.60751342773438,-228.1712951660156,80.5069580078125,289.2158203125
2305,-86.89283752441406,-235.54263305664062,79.867431640625,279.5556640625
2306,-83.03325653076172,-226.2041015625,79.07457733154297,293.7897033691406
2307,-75.93866729736328,-222.1537933349609,82.23478698730469,302.74676513671875
2308,-85.94290161132812,-222.9092559814453,86.8909683227539,303.7079162597656
2309,-89.9371109008789,-226.69403076171875,90.6645278930664,296.4525146484375
2310,-75.7591552734375,-219.43115234375,89.44157409667969,307.4403381347656
2311,-70.17922210693361,-215.7997131347656,88.858154296875,320.5973205566406
2312,-88.25415802001953,-224.53985595703125,87.69878387451172,304.5119934082031
2313,-83.42594909667969,-224.8951416015625,87.47064971923828,299.0330505371094
2314,-88.57952880859375,-222.0490875244141,75.94053649902344,298.1092834472656
2315,-77.93951416015625,-218.60089111328125,76.310791015625,308.1322326660156
2316,-83.14171600341797,-220.0145721435547,80.23394012451172,304.3998107910156
2317,-93.37034606933594,-228.21617126464844,73.89107513427734,293.4045104980469
2318,-95.75265502929688,-224.9961242675781,69.63507080078125,299.6463928222656
2319,-86.41413116455078,-220.029541015625,67.94463348388672,309.4935607910156
2320,-89.87353515625,-231.79525756835938,72.40259552001953,300.6187744140625
2321,-93.2244873046875,-233.6726837158203,73.90229034423828,289.58233642578125
2322,-87.91008758544922,-228.2498321533203,73.7040786743164,291.06707763671875
2323,-83.05944061279297,-220.50076293945312,72.18942260742188,299.4332275390625
2324,-86.22339630126953,-228.53781127929688,79.62808227539062,289.26068115234375
2325,-94.92613983154295,-233.0369110107422,75.27857971191406,285.389892578125
2326,-88.62066650390625,-219.70416259765625,77.46267700195312,295.1435546875
2327,-72.7709732055664,-209.2773284912109,78.59212493896484,302.0997619628906
2328,-77.99187469482422,-217.31809997558597,86.81616973876953,295.9513854980469
2329,-86.40290832519531,-223.94520568847656,79.63182067871094,292.1404113769531
2330,-81.85893249511719,-218.5410614013672,78.64822387695312,302.4924621582031
2331,-65.99427795410156,-210.39181518554688,79.18677520751953,311.0231628417969
2332,-74.04254150390625,-217.87908935546875,87.52674865722656,305.3983459472656
2333,-80.00393676757812,-227.91323852539062,86.6104736328125,299.69500732421875
2334,-81.62705993652344,-221.6040344238281,83.40538024902344,306.4530029296875
2335,-70.33255767822266,-210.8705139160156,78.71928405761719,316.1543273925781
2336,-81.67567443847656,-216.01661682128903,84.48995208740234,307.85174560546875
2337,-86.03266143798828,-226.4023284912109,80.40223693847656,301.8379821777344
2338,-75.41508483886719,-217.4864044189453,77.1747055053711,308.7081604003906
2339,-73.07764434814453,-212.9910430908203,74.45205688476562,315.2829284667969
2340,-77.65901947021484,-225.2354736328125,77.27194213867188,305.6825866699219
2341,-87.96992492675781,-225.8600311279297,78.26675415039062,300.68609619140625
2342,-84.9780044555664,-226.3761444091797,66.47859191894531,298.11676025390625
2343,-74.42401123046875,-218.22689819335938,72.20063781738281,300.6898193359375
2344,-82.92854309082031,-221.27865600585938,75.54410552978516,291.3924255371094
2345,-85.6773681640625,-222.740966796875,74.13790893554688,282.4017028808594
2346,-84.6750717163086,-217.57241821289062,71.4339599609375,293.72613525390625
2347,-78.12651062011719,-210.97149658203125,72.1370620727539,300.7795715332031
2348,-86.36924743652344,-219.80514526367188,79.74028015136719,298.969482421875
2349,-95.12061309814452,-222.20616149902344,77.1971435546875,296.44879150390625
2350,-84.31604766845703,-214.3785400390625,85.04719543457031,312.5228576660156
2351,-74.6558837890625,-207.306396484375,80.13670349121094,321.4013977050781
2352,-79.70848846435547,-211.73817443847656,89.47149658203125,318.7236328125
2353,-86.95641326904297,-218.4400787353516,90.58972930908205,305.4918518066406
2354,-82.44609832763672,-216.3045959472656,89.14238739013672,308.86151123046875
2355,-75.3178482055664,-210.9602813720703,86.75633239746094,318.69744873046875
2356,-79.48409271240234,-222.7783660888672,90.1633758544922,304.897216796875
2357,-87.1022720336914,-225.31027221679688,90.07736206054688,299.0218200683594
2358,-86.34680938720703,-221.62646484375,83.2819595336914,302.3054504394531
2359,-84.00936889648438,-215.38458251953125,79.65425872802734,309.568359375
2360,-82.98090362548828,-224.32667541503903,80.06938934326172,302.27178955078125
2361,-90.90574645996094,-228.8706512451172,83.22960662841797,291.3512878417969
2362,-96.42210388183594,-223.5300750732422,79.80011749267578,300.2373046875
2363,-80.10865783691406,-211.45394897460938,78.00870513916016,303.5657958984375
2364,-88.7515640258789,-219.06089782714844,80.5256576538086,295.48388671875
2365,-89.74637603759766,-222.84942626953125,78.85018157958984,293.0604248046875
2366,-81.55599975585938,-212.75169372558597,75.21873474121094,295.2669677734375
2367,-77.56926727294922,-209.53163146972656,78.3228530883789,302.1371765136719
2368,-89.01709747314453,-207.3998870849609,83.07252502441406,295.78680419921875
2369,-92.07259368896484,-215.1489715576172,76.6698226928711,290.9024963378906
2370,-87.73431396484375,-209.64756774902344,79.62433624267578,299.53045654296875
2371,-84.26742553710938,-199.52740478515625,80.89964294433594,312.8332824707031
2372,-88.7066879272461,-212.6656646728516,84.1234359741211,306.02667236328125
2373,-93.83782958984376,-220.6877593994141,83.10618591308594,299.2798767089844
2374,-92.59618377685548,-213.37625122070312,81.17266082763672,305.742431640625
2375,-85.79704284667969,-207.82623291015625,82.06649780273438,312.9978332519531
2376,-85.93167877197266,-218.9150390625,84.84149932861328,302.75799560546875
2377,-87.27430725097656,-225.02978515625,79.14189147949219,295.44647216796875
2378,-82.05340576171875,-216.31954956054688,78.3602523803711,305.5890808105469
2379,-73.17488098144531,-218.94122314453125,83.40911865234375,313.04644775390625
2380,-76.75022888183594,-221.81719970703125,89.26580047607422,305.33477783203125
2381,-85.19866180419922,-230.0075836181641,81.3708724975586,296.8825988769531
2382,-74.78304290771484,-226.0358123779297,76.16867065429688,299.4930725097656
2383,-76.45477294921875,-220.72515869140625,77.30934143066406,308.1770935058594
2384,-81.04363250732422,-221.40582275390625,84.65450286865234,299.14898681640625
2385,-92.26707458496094,-225.82638549804688,75.77598571777344,289.70574951171875
2386,-82.95098114013672,-217.9651031494141,78.70806121826172,302.77294921875
2387,-78.41822052001953,-212.2318420410156,78.80530548095703,304.05572509765625
2388,-83.54188537597656,-216.72720336914062,80.67525482177734,300.08770751953125
2389,-82.63683319091797,-219.1918029785156,82.82943725585938,297.8736877441406
2390,-87.46504211425781,-209.23617553710938,82.27967071533203,304.6578674316406
2391,-82.76398468017578,-205.3018035888672,79.49344635009766,316.2665100097656
2392,-91.62380981445312,-210.41050720214844,86.13176727294922,309.803955078125
2393,-98.00782012939452,-218.2418670654297,87.20511627197266,301.8978271484375
2394,-94.4923095703125,-211.56988525390625,79.8861312866211,311.834716796875
2395,-86.25704956054688,-207.32508850097656,79.13815307617188,317.0556335449219
2396,-87.83528900146484,-216.14378356933597,80.6715087890625,316.0196838378906
2397,-96.6203155517578,-222.12387084960938,75.65630340576172,300.40185546875
2398,-83.05195617675781,-219.3077392578125,77.89276885986328,304.9046936035156
2399,-81.45502471923828,-219.1656188964844,75.6899642944336,316.49090576171875
2400,-75.7815933227539,-220.6466217041016,88.31212615966797,307.3992004394531
2401,-76.29396057128906,-232.9134826660156,84.99109649658203,300.8618469238281
2402,-78.85578918457031,-226.6154937744141,76.23599243164062,301.23583984375
2403,-71.19273376464844,-215.6239318847656,76.89047241210938,309.134521484375
2404,-78.25366973876953,-216.8880157470703,82.63121795654297,301.61358642578125
2405,-86.05509948730469,-220.4783172607422,81.2511978149414,292.40594482421875
2406,-78.44440460205078,-213.43235778808597,76.82315826416016,299.95306396484375
2407,-72.20999145507812,-210.32823181152344,77.99748229980469,307.773193359375
2408,-79.32701873779297,-218.2082061767578,82.0141372680664,302.6607666015625
2409,-83.18285369873047,-223.8778839111328,75.9480209350586,290.21435546875
2410,-78.85578918457031,-210.42547607421875,76.33696746826172,302.0997619628906
2411,-73.84806823730469,-199.2207336425781,77.11860656738281,311.7001037597656
2412,-86.38233947753906,-203.5421905517578,82.1786880493164,293.66815185546875
2413,-85.24915313720703,-209.1221160888672,85.39500427246094,296.14398193359375
2414,-84.2618179321289,-201.4927215576172,79.53084564208984,305.2506408691406
2415,-81.6326675415039,-189.80552673339844,78.00496673583984,318.22808837890625
2416,-96.37535095214844,-203.7815399169922,80.05068969726562,304.68963623046875
2417,-92.90472412109376,-211.2052459716797,83.2183837890625,309.63006591796875
2418,-89.09002685546875,-205.72254943847656,78.4013900756836,314.5555114746094
2419,-86.60299682617188,-207.6448516845703,75.64508819580078,319.66046142578125
2420,-97.15699005126952,-212.18882751464844,77.0961685180664,311.53741455078125
2421,-92.05577087402344,-222.16688537597656,79.3027114868164,303.69110107421875
2422,-88.10643005371094,-216.0409240722656,77.5973129272461,313.2914123535156
2423,-73.57691955566406,-210.07579040527344,76.84185791015625,318.57965087890625
2424,-80.91834259033203,-215.4462890625,81.2885971069336,304.33062744140625
2425,-94.82703399658205,-222.59323120117188,78.20691680908203,302.68505859375
2426,-89.14238739013672,-221.6507873535156,74.0444107055664,300.654296875
2427,-77.8142318725586,-219.34326171875,73.61805725097656,304.0875244140625
2428,-79.5083999633789,-227.5261688232422,75.31971740722656,295.07061767578125
2429,-97.89749145507812,-233.70822143554688,75.86199951171875,284.99908447265625
2430,-87.63520812988281,-227.42518615722656,71.69949340820312,290.406982421875
2431,-75.06914520263672,-219.0253753662109,73.4460220336914,295.983154296875
2432,-79.92353057861328,-222.4960021972656,76.23599243164062,289.2962341308594
2433,-87.57537078857422,-223.6516265869141,76.2920913696289,286.1247863769531
2434,-83.05757141113281,-219.84814453125,69.21994018554689,296.7909851074219
2435,-69.97539520263672,-207.1661529541016,74.65027618408203,308.530517578125
2436,-81.83836364746094,-217.29005432128903,80.97444152832031,297.44171142578125
2437,-93.25253295898438,-223.674072265625,82.70601654052734,288.858642578125
2438,-79.33262634277344,-211.2949981689453,78.04236602783203,302.0904235839844
2439,-79.13067626953125,-208.13104248046875,80.69769287109375,309.9404602050781
2440,-82.63495635986328,-210.8312530517578,86.13924407958984,307.6479187011719
2441,-85.41370391845703,-215.0722961425781,84.14962005615234,302.67010498046875
2442,-84.4263687133789,-210.0421295166016,76.135009765625,307.2253112792969
2443,-87.02934265136719,-201.60491943359372,78.45001220703125,315.75225830078125
2444,-86.2514419555664,-207.53265380859372,76.7558364868164,311.2718811035156
2445,-85.75403594970703,-214.0961761474609,82.073974609375,301.7538146972656
2446,-79.01473999023438,-209.5821228027344,79.59068298339844,310.65106201171875
2447,-77.28316497802734,-196.30548095703125,84.90133666992188,319.3350830078125
2448,-76.98770904541016,-206.373291015625,85.26785278320312,313.9458923339844
2449,-90.0848388671875,-215.4051513671875,79.99832916259766,304.3680114746094
2450,-77.156005859375,-210.3525390625,79.55328369140625,304.0837707519531
2451,-72.15576171875,-212.4244537353516,79.94596862792969,313.53076171875
2452,-77.1747055053711,-215.80905151367188,80.98192596435547,307.96954345703125
2453,-86.7151870727539,-219.40310668945312,85.12947082519531,304.293212890625
2454,-80.57801818847656,-213.1462554931641,79.98711395263672,303.7658996582031
2455,-75.69744873046875,-207.5962371826172,80.67899322509766,312.31903076171875
2456,-81.68128204345703,-210.4385681152344,83.86164855957031,308.0181579589844
2457,-89.44905853271484,-211.46702575683597,90.01004028320312,301.1180419921875
2458,-82.68731689453125,-202.6820068359375,82.54146575927734,307.60302734375
2459,-78.82025909423828,-205.1802673339844,81.11282348632812,314.4881896972656
2460,-87.88204193115234,-211.30621337890625,83.17350769042969,298.9601135253906
2461,-92.56439208984376,-218.53170776367188,80.85476684570312,297.9653015136719
2462,-87.672607421875,-212.50672912597656,77.11860656738281,300.5271301269531
2463,-80.28256225585938,-214.8067626953125,71.68079376220703,307.38238525390625
2464,-89.44532012939453,-214.96383666992188,79.4223861694336,298.80303955078125
2465,-97.08592987060548,-216.033447265625,77.52999877929688,295.478271484375
2466,-87.2911376953125,-212.2711181640625,71.3516845703125,300.45233154296875
2467,-85.46232604980469,-210.4909210205078,72.07722473144531,311.2980651855469
2468,-91.5920181274414,-219.28341674804688,79.72905731201172,297.9391174316406
2469,-93.64522552490234,-224.8222198486328,79.85621643066406,296.5329284667969
2470,-90.80290222167969,-219.11886596679688,77.27568054199219,298.4290466308594
2471,-77.5599136352539,-210.55450439453125,80.46207427978516,310.5538024902344
2472,-87.90447998046875,-218.20632934570312,83.66717529296875,308.0144348144531
2473,-91.72665405273438,-227.67950439453125,80.52191925048828,299.7567138671875
2474,-89.97264099121094,-216.94224548339844,75.43565368652344,310.138671875
2475,-79.14937591552734,-213.29959106445312,78.31163787841797,315.1800537109375
2476,-82.45170593261719,-217.8547821044922,81.9729995727539,306.7989501953125
2477,-80.31248474121094,-214.8366851806641,83.52879333496094,298.51507568359375
2478,-80.02450561523438,-211.4932098388672,80.21898651123047,307.4983215332031
2479,-72.88877868652344,-203.11582946777344,77.8142318725586,307.4908447265625
2480,-81.44567108154297,-215.15457153320312,89.25083923339844,307.2327880859375
2481,-86.52445220947266,-224.66140747070312,82.1973876953125,292.5686340332031
2482,-81.04176330566406,-213.95407104492188,76.55387878417969,305.8602294921875
2483,-79.81507110595703,-206.8819122314453,77.07746887207031,307.8161926269531
2484,-85.35012817382812,-214.4701690673828,74.78865051269531,307.6067810058594
2485,-95.27581787109376,-218.44943237304688,71.51249694824219,296.1925964355469
2486,-90.29801177978516,-213.1649475097656,71.56111907958984,306.0547180175781
2487,-86.76007080078125,-209.65692138671875,74.21270751953125,315.5390930175781
2488,-86.47209930419922,-210.2665252685547,77.5561752319336,307.4683837890625
2489,-97.3701629638672,-218.0679626464844,72.9374008178711,300.9833984375
2490,-84.78913879394531,-218.90570068359372,70.51768493652344,308.3173522949219
2491,-81.0118408203125,-217.02078247070312,77.20088195800781,319.6754150390625
2492,-72.64568328857422,-219.14878845214844,79.1044921875,310.7819519042969
2493,-93.30115509033205,-223.7750396728516,76.59127807617188,302.78228759765625
2494,-79.37751007080078,-215.07977294921875,74.95694732666016,310.3032531738281
2495,-79.63182067871094,-214.3467559814453,73.89481353759766,313.4372863769531
2496,-89.11994934082031,-221.2842712402344,74.3436050415039,306.1818542480469
2497,-79.83751678466797,-233.22203063964844,79.09327697753906,301.241455078125
2498,-82.64991760253906,-223.9508209228516,74.30994415283203,305.7143859863281
2499,-74.66522979736328,-218.1988525390625,80.4658203125,312.8650817871094
2500,-78.79782104492188,-224.343505859375,79.68043518066406,303.0552978515625
2501,-88.59262084960938,-224.99424743652344,80.9482650756836,295.3062438964844
2502,-88.5813980102539,-214.8927764892578,75.12149810791016,301.6341552734375
2503,-80.55931854248047,-207.8206329345703,77.44397735595703,309.4991455078125
2504,-81.9318618774414,-214.03260803222656,75.6525650024414,300.6505432128906
2505,-86.88722229003906,-215.3228759765625,75.25988006591797,295.7288513183594
2506,-83.599853515625,-206.52288818359372,84.59840393066406,306.14447021484375
2507,-78.53228759765625,-201.92654418945312,79.3812484741211,310.5089416503906
2508,-89.20596313476562,-209.5297698974609,80.69769287109375,302.21759033203125
2509,-88.27098846435547,-212.4655914306641,80.05442810058594,298.7357177734375
2510,-88.93295288085938,-210.92474365234372,71.4115219116211,305.6059265136719
2511,-74.2276611328125,-200.7110748291016,77.26072692871094,314.9556884765625
2512,-82.26097106933594,-211.32492065429688,82.57138061523438,307.7451477050781
2513,-84.31043243408203,-213.5464172363281,84.91629791259766,303.08148193359375
2514,-78.52854919433594,-211.5754852294922,83.4577407836914,313.0894775390625
2515,-68.46821594238281,-207.49151611328125,84.46751403808594,318.9237060546875
2516,-75.02052307128906,-217.47705078125,81.58404541015625,306.82513427734375
2517,-83.08748626708984,-230.98556518554688,83.37919616699219,297.5501708984375
2518,-74.60165405273438,-217.48452758789062,75.27857971191406,307.2402648925781
2519,-74.9270248413086,-211.13792419433597,74.51564025878906,312.3601989746094
2520,-81.4157485961914,-220.3081512451172,83.80928802490234,303.1936950683594
2521,-93.15155792236328,-230.7910919189453,78.14707946777344,291.3868103027344
2522,-89.01148986816406,-221.4226531982422,79.44856262207031,295.2838134765625
2523,-74.104248046875,-211.94573974609372,78.07228088378906,303.6611633300781
2524,-80.70516967773438,-216.3326416015625,80.57801818847656,290.8632507324219
2525,-83.89530944824219,-217.7276306152344,77.06250762939453,286.7156982421875
2526,-78.00496673583984,-212.0579376220703,71.0337905883789,298.1410827636719
2527,-78.90628051757812,-203.3589324951172,75.90313720703125,304.73077392578125
2528,-86.45339965820312,-208.2432403564453,76.44168853759766,299.1471252441406
2529,-97.53472137451172,-212.817138671875,78.42008972167969,296.44317626953125
2530,-88.71603393554688,-208.72569274902344,77.24950408935547,304.23712158203125
2531,-80.41719818115234,-195.54627990722656,79.1044921875,308.9606018066406
2532,-80.35362243652344,-206.7024078369141,86.79747009277344,309.71234130859375
2533,-87.36219024658203,-214.25326538085938,87.60528564453125,306.4212341308594
2534,-82.1375503540039,-212.3982696533203,82.5601577758789,308.44451904296875
2535,-70.53638458251953,-204.8100128173828,87.65016174316406,317.77557373046875
2536,-74.49694061279297,-218.1128387451172,83.341796875,310.9427490234375
2537,-87.37715148925781,-227.79917907714844,73.09447479248047,300.5907287597656
2538,-76.4117660522461,-216.51963806152344,79.31018829345703,309.4206237792969
2539,-67.63796234130861,-213.6698303222656,85.39874267578125,320.59918212890625
2540,-72.62698364257812,-218.16519165039062,88.5589599609375,309.3832092285156
2541,-83.00894927978516,-224.5230255126953,81.29607391357422,302.40081787109375
2542,-71.16094970703125,-217.88096618652344,77.50381469726562,305.1720886230469
2543,-73.63301849365234,-217.3237152099609,75.9517593383789,302.9132080078125
2544,-75.14393615722656,-221.3067169189453,78.3191146850586,290.91558837890625
2545,-84.7255630493164,-228.0347900390625,78.48367309570312,288.1181640625
2546,-75.04669952392578,-216.1643524169922,80.5892333984375,296.00933837890625
2547,-64.42164611816406,-203.7665863037109,83.2819595336914,312.5920715332031
2548,-75.01304626464844,-204.9670867919922,88.435546875,300.81884765625
2549,-90.15963745117188,-213.55389404296875,84.52735137939453,300.1269836425781
2550,-82.57138061523438,-206.1451568603516,81.80470275878906,309.0915222167969
2551,-76.80445861816406,-202.0911102294922,89.4228744506836,317.9101867675781
2552,-81.6102294921875,-207.5177001953125,89.86418914794922,307.2926330566406
2553,-87.56788635253906,-214.1560211181641,95.8667221069336,303.84442138671875
2554,-81.5503921508789,-201.7993927001953,93.50310516357422,316.61993408203125
2555,-81.38209533691406,-197.8949432373047,86.41226196289062,315.9205627441406
2556,-80.89590454101562,-202.28184509277344,87.4781265258789,313.04833984375
2557,-90.39899444580078,-209.4661865234375,87.3135757446289,304.3268737792969
2558,-90.20077514648438,-205.4495391845703,77.42901611328125,309.7721862792969
2559,-79.77019500732422,-202.2220001220703,80.09930419921875,321.429443359375
2560,-78.50984954833984,-209.39512634277344,87.3958511352539,312.0909118652344
2561,-91.74535369873048,-219.11138916015625,83.55497741699219,301.6154479980469
2562,-79.03717803955078,-214.9077453613281,82.21983337402344,309.67120361328125
2563,-75.09906005859375,-207.11378479003903,76.70721435546875,310.60992431640625
2564,-87.0929183959961,-215.2742462158203,80.1479263305664,307.0943908691406
2565,-88.84693145751953,-227.7243804931641,78.44253540039062,294.5021667480469
2566,-82.29088592529297,-219.11886596679688,78.09471893310547,302.9954833984375
2567,-78.93245697021484,-213.580078125,73.91725158691406,304.0014953613281
2568,-80.31622314453125,-219.0590362548828,79.66173553466797,296.9031677246094
2569,-79.85247039794922,-220.3605194091797,81.76730346679688,292.3105773925781
2570,-79.71409606933594,-213.29583740234372,82.0964126586914,308.5828857421875
2571,-77.39161682128906,-198.3399810791016,78.33781433105469,314.2450866699219
2572,-82.93415069580078,-212.4207000732422,86.77877044677734,302.6626281738281
2573,-88.40936279296875,-214.9526214599609,89.73329162597656,301.52569580078125
2574,-86.47209930419922,-210.1543273925781,83.25204467773438,305.2095031738281
2575,-76.73713684082031,-204.14805603027344,80.17410278320312,309.0765380859375
2576,-75.15889739990234,-210.00099182128903,89.703369140625,305.00006103515625
2577,-93.53302764892578,-216.10076904296875,87.97554016113281,297.9241638183594
2578,-84.46002960205078,-208.12730407714844,80.64159393310547,309.37200927734375
2579,-80.79119110107422,-208.063720703125,81.5915298461914,310.4715270996094
2580,-82.33576965332031,-209.17446899414062,83.43529510498047,309.5589904785156
2581,-90.46630859375,-214.1597595214844,85.56330108642578,300.4710388183594
2582,-90.51866912841795,-207.4952545166016,77.34674072265625,305.89764404296875
2583,-85.3837890625,-205.857177734375,76.42672729492188,307.93963623046875
2584,-86.03079223632812,-214.42529296875,74.87466430664062,299.7342834472656
2585,-99.88711547851562,-223.26641845703125,70.99639129638672,298.189697265625
2586,-89.6397933959961,-215.1096954345703,70.86175537109375,308.7998046875
2587,-82.073974609375,-208.16470336914062,70.41670989990234,315.5428466796875
2588,-87.96805572509766,-218.6401672363281,70.49150085449219,304.5961608886719
2589,-95.91534423828124,-224.42578125,74.56425476074219,293.33905029296875
2590,-93.36846923828124,-220.13612365722656,72.39511108398438,294.4198913574219
2591,-82.90423583984375,-209.2530059814453,71.19086456298828,300.2952575683594
2592,-85.65679931640625,-208.97625732421875,82.15998840332031,301.09185791015625
2593,-95.83306884765624,-217.3760681152344,80.33118438720703,291.67852783203125
2594,-86.41226196289062,-208.04129028320312,80.207763671875,298.2794494628906
2595,-79.9085693359375,-201.7582550048828,83.84668731689453,306.1930847167969
2596,-85.91859436035156,-207.13623046875,89.16482543945312,300.1419372558594
2597,-88.44676208496094,-220.9065399169922,82.76585388183594,292.9725341796875
2598,-86.45339965820312,-210.91726684570312,76.52396392822266,296.9630126953125
2599,-79.62433624267578,-210.0196990966797,75.88443756103516,304.468994140625
2600,-85.4885025024414,-213.46414184570312,80.42842102050781,295.47454833984375
2601,-89.363037109375,-221.31793212890625,80.2264633178711,297.49407958984375
2602,-83.21464538574219,-214.9339141845703,79.41116333007812,303.552734375
2603,-71.5386734008789,-208.17218017578125,75.28231811523438,315.14642333984375
2604,-76.815673828125,-212.3571319580078,83.09870910644531,312.5808410644531
2605,-79.71035766601562,-219.54147338867188,82.08519744873047,305.6956787109375
2606,-84.07855987548828,-219.1413116455078,76.0302963256836,305.3179626464844
2607,-75.19629669189453,-208.6845550537109,75.03548431396484,312.4686279296875
2608,-83.17724609375,-215.76791381835938,80.87346649169922,305.92755126953125
2609,-91.43120574951172,-223.75634765625,82.59381866455078,296.7685546875
2610,-84.02619934082031,-211.34735107421875,78.0199203491211,303.7359619140625
2611,-76.38558959960938,-211.9569549560547,83.45399475097656,310.5949401855469
2612,-80.7874526977539,-218.7037353515625,78.14334106445312,303.612548828125
2613,-95.66851043701172,-220.76629638671875,81.40266418457031,295.2033996582031
2614,-84.4039306640625,-213.9185333251953,85.10516357421875,301.7295227050781
2615,-81.46437072753906,-206.19564819335938,81.83274841308594,309.9498291015625
2616,-85.2267074584961,-209.23992919921875,86.35428619384766,305.49560546875
2617,-87.6539077758789,-215.6127166748047,85.8194808959961,296.3066711425781
2618,-86.49453735351562,-211.4913482666016,80.64346313476562,302.5784606933594
2619,-81.4157485961914,-204.18731689453125,79.11384582519531,306.58392333984375
2620,-84.92752075195312,-211.46890258789062,82.7265853881836,300.2036437988281
2621,-85.17060852050781,-216.23727416992188,86.1224136352539,299.309814453125
2622,-77.2569808959961,-208.63780212402344,84.61149597167969,312.0553894042969
2623,-76.05647277832031,-206.0348358154297,84.7723159790039,323.45086669921875
2624,-80.66029357910156,-215.5005187988281,84.52548217773438,309.10833740234375
2625,-88.15131378173828,-218.0997467041016,85.20613861083984,300.7908020019531
2626,-82.42926788330078,-214.9245758056641,78.20504760742188,305.2337951660156
2627,-80.39849853515625,-210.04026794433597,77.8086166381836,314.0749206542969
2628,-84.92752075195312,-219.36756896972656,80.17971801757812,311.9917907714844
2629,-88.32334899902344,-227.55047607421875,71.88087463378906,295.5736389160156
2630,-84.79662322998047,-220.1230316162109,71.12915802001953,305.6377258300781
2631,-81.4157485961914,-212.48989868164062,72.13893127441406,312.2610778808594
2632,-83.48765563964844,-220.93084716796875,76.17053985595703,305.1627502441406
2633,-86.9508056640625,-228.90057373046875,73.9939193725586,298.1092834472656
2634,-85.06963348388672,-218.51861572265625,73.85928344726562,305.9780578613281
2635,-82.1338119506836,-213.7539825439453,69.28538513183594,310.0732421875
2636,-85.05467224121094,-220.08937072753903,78.43318176269531,305.3572082519531
2637,-86.64787292480469,-225.2130279541016,76.05460357666016,299.5229797363281
2638,-82.24600982666016,-215.18637084960938,74.86905670166016,307.3954772949219
2639,-75.28605651855469,-212.2019195556641,76.81380462646484,312.4031982421875
2640,-75.1476821899414,-217.5200653076172,82.73780822753906,306.845703125
2641,-80.77622985839844,-217.61729431152344,80.59110260009766,296.0785217285156
2642,-75.73858642578125,-215.00311279296875,81.83649444580078,306.1725158691406
2643,-66.42623138427734,-209.98416137695312,80.41532897949219,312.88189697265625
2644,-70.21475219726561,-213.5669860839844,89.23027038574219,308.02001953125
2645,-78.20691680908203,-221.8471221923828,87.82032775878906,303.3264465332031
2646,-73.24781036376953,-212.75169372558597,89.24523162841797,316.5582275390625
2647,-66.56460571289061,-208.5330810546875,85.41183471679688,317.66522216796875
2648,-75.9891586303711,-214.2439117431641,88.54586791992188,309.35516357421875
2649,-88.5365219116211,-221.43572998046875,85.51280975341797,300.7010498046875
2650,-84.50116729736328,-217.7257537841797,77.48698425292969,309.35516357421875
2651,-79.16807556152344,-214.5318756103516,77.95821380615234,313.5700378417969
2652,-82.26097106933594,-223.3243865966797,80.02263641357422,304.8336486816406
2653,-86.11680603027344,-230.43768310546875,74.84661865234375,297.70538330078125
2654,-79.86369323730469,-222.0565643310547,72.69617462158203,305.1777038574219
2655,-76.35940551757812,-214.3598480224609,74.42774963378906,314.4638671875
2656,-81.07916259765625,-221.77606201171875,77.94325256347656,308.3603515625
2657,-91.52096557617188,-224.4800109863281,78.60147857666016,294.4441833496094
2658,-85.888671875,-216.91046142578125,77.98065185546875,307.7919006347656
2659,-73.23284912109375,-213.6941375732422,79.30084228515625,311.9207458496094
2660,-75.30475616455078,-220.0594482421875,89.0918960571289,303.6667785644531
2661,-87.50431060791016,-220.4970245361328,87.162109375,297.8362731933594
2662,-80.40972137451172,-214.255126953125,85.49411010742188,306.4006652832031
2663,-77.58983612060547,-201.48336791992188,84.36466217041016,305.9780578613281
2664,-87.05925750732422,-209.0491943359375,86.57494354248047,299.0031433105469
2665,-92.89350128173828,-214.22520446777344,84.46563720703125,293.3259582519531
2666,-85.19305419921875,-212.0672912597656,81.26802825927734,300.8618469238281
2667,-77.31307983398438,-204.0676422119141,81.46997833251953,305.9593505859375
2668,-72.92243957519531,-219.15814208984372,89.7688217163086,302.74676513671875
2669,-83.86538696289062,-224.66700744628903,92.30447387695312,298.68896484375
2670,-84.96865844726562,-219.76400756835938,81.05110931396484,305.9668273925781
2671,-76.310791015625,-208.3722686767578,82.244140625,320.836669921875
2672,-74.55303192138672,-220.04075622558597,84.24498748779297,309.7104797363281
2673,-86.1691665649414,-225.4972686767578,83.43342590332031,298.04571533203125
2674,-80.5069580078125,-219.7901763916016,77.18405151367188,300.9142150878906
2675,-77.24576568603516,-214.7188720703125,78.37708282470703,313.0651550292969
2676,-83.88408660888672,-226.05825805664062,84.07295227050781,306.06781005859375
2677,-91.1282730102539,-228.72105407714844,78.33968353271484,290.3714294433594
2678,-81.44567108154297,-220.22401428222656,74.2557144165039,303.3900451660156
2679,-79.65052032470703,-212.6843719482422,76.94844055175781,310.92218017578125
2680,-80.23394012451172,-222.8232421875,81.5036392211914,298.50946044921875
2681,-93.67140197753906,-228.30593872070312,78.36585998535156,294.0851745605469
2682,-87.41455078125,-222.2846984863281,73.35813903808594,301.25830078125
2683,-69.20124053955078,-213.7913818359375,76.5856704711914,304.8336486816406
2684,-75.25239562988281,-220.89718627929688,86.02891540527344,300.2784423828125
2685,-79.64678192138672,-228.6275634765625,83.8111572265625,296.5422668457031
2686,-71.29558563232422,-219.9809112548828,84.04676818847656,309.310302734375
2687,-59.630836486816406,-208.8808898925781,83.7887191772461,316.36749267578125
2688,-65.64833068847656,-216.4504547119141,85.44549560546875,308.1770935058594
2689,-76.4117660522461,-224.3453826904297,84.35718536376953,300.5364990234375
2690,-71.14598846435547,-215.83335876464844,85.66614532470703,305.1515197753906
2691,-68.26252746582031,-217.89405822753903,75.71053314208984,304.85980224609375
2692,-69.41067504882811,-225.6094665527344,78.96051025390625,300.0091552734375
2693,-75.9928970336914,-232.5544586181641,77.24015045166016,295.7905578613281
2694,-75.00556182861328,-225.3289794921875,75.84516906738281,301.8753662109375
2695,-71.87152862548828,-216.2447509765625,78.88197326660156,310.23779296875
2696,-78.60334777832031,-224.1359405517578,83.95327758789062,309.979736328125
2697,-86.42721557617188,-230.78549194335938,79.41303253173828,305.47314453125
2698,-86.42347717285156,-225.7515869140625,75.13085174560547,308.5024719238281
2699,-82.48162078857422,-221.5516662597656,74.06871795654297,314.4788513183594
2700,-79.66921997070312,-231.4212646484375,75.04109191894531,304.216552734375
2701,-91.80145263671876,-233.9195251464844,70.20539855957031,299.56036376953125
2702,-84.43759155273438,-233.3323516845703,71.39469146728516,303.2479248046875
2703,-87.02560424804688,-225.80767822265625,73.24594116210938,310.7875671386719
2704,-80.32369995117188,-228.6088714599609,77.77870178222656,303.9622497558594
2705,-81.77851867675781,-236.48883056640625,80.63972473144531,296.246826171875
2706,-74.2276611328125,-226.9371337890625,81.10346984863281,304.0183410644531
2707,-74.82231140136719,-220.68028259277344,81.74673461914062,311.6739196777344
2708,-76.3519287109375,-225.8188934326172,87.12844848632812,306.17626953125
2709,-84.27677917480469,-229.8430328369141,85.26972198486328,298.9620056152344
2710,-78.48367309570312,-222.2622528076172,86.04761505126953,304.78875732421875
2711,-72.9785385131836,-218.45877075195312,85.44923400878906,309.6917724609375
2712,-88.00919342041016,-219.5508270263672,80.03385925292969,303.0908508300781
2713,-87.7361831665039,-230.7967071533203,86.79560089111328,294.0066223144531
2714,-83.55123138427734,-227.24380493164062,81.4587631225586,302.55230712890625
2715,-73.17675018310547,-214.86846923828125,75.45622253417969,311.9356994628906
2716,-83.90652465820312,-221.8471221923828,83.66156005859375,309.9423522949219
2717,-91.23673248291016,-225.4000244140625,80.73322296142578,303.2853088378906
2718,-88.1999282836914,-219.72286987304688,81.86640930175781,313.2671203613281
2719,-78.18821716308594,-213.4585266113281,82.04592895507812,322.0596008300781
2720,-79.4635238647461,-228.78463745117188,87.6258544921875,316.8948059082031
2721,-85.1070327758789,-238.4934234619141,84.49555969238281,299.9754943847656
2722,-83.2370834350586,-231.5185089111328,81.9636459350586,308.23321533203125
2723,-79.05587768554688,-225.56085205078125,81.1221694946289,308.9512634277344
2724,-81.38583374023438,-226.9221649169922,86.45153045654297,309.92364501953125
2725,-91.57705688476562,-238.91603088378903,83.41847229003906,299.89697265625
2726,-84.7629623413086,-226.4808654785156,79.03530883789062,307.9826354980469
2727,-81.94307708740234,-223.8816375732422,74.56986236572266,315.8177185058594
2728,-89.84548950195312,-231.6568756103516,73.79944610595703,307.0513916015625
2729,-92.87854766845705,-232.4085998535156,77.03446197509766,302.8253173828125
2730,-92.28390502929688,-227.45323181152344,80.03385925292969,308.05743408203125
2731,-80.49947357177734,-213.9596710205078,77.48698425292969,318.1663818359375
2732,-80.94078826904297,-218.94122314453125,81.26428985595703,308.23321533203125
2733,-85.9298095703125,-226.91842651367188,78.4705810546875,302.6308288574219
2734,-83.2408218383789,-219.8126220703125,75.54972076416016,303.18060302734375
2735,-72.71300506591797,-214.24017333984372,72.62511444091797,311.2550354003906
2736,-75.41695404052734,-224.3902587890625,76.17053985595703,303.9397888183594
2737,-85.39126586914062,-229.3905029296875,72.92804718017578,294.84063720703125
2738,-79.3438491821289,-221.99298095703125,73.88545989990234,301.43780517578125
2739,-74.39595794677734,-217.2694854736328,73.73587036132812,310.5856018066406
2740,-83.16976165771484,-217.142333984375,85.6773681640625,305.226318359375
2741,-84.80036163330078,-225.8712615966797,78.90067291259766,298.3074951171875
2742,-89.12368774414062,-225.6580810546875,71.61908721923828,303.9697265625
2743,-79.90483093261719,-219.07586669921875,68.78424072265625,313.83184814453125
2744,-85.00979614257812,-220.38856506347656,76.78762817382812,304.0744323730469
2745,-90.93379974365234,-224.62586975097656,74.3155517578125,300.2485046386719
2746,-86.3524169921875,-224.9736785888672,76.51087188720703,305.1216125488281
2747,-77.34674072265625,-215.85580444335938,74.955078125,316.3824462890625
2748,-84.83776092529297,-219.32269287109372,79.14376068115234,309.6319274902344
2749,-89.50141906738281,-225.875,76.99331665039062,299.6052551269531
2750,-84.13092041015625,-223.99008178710938,70.51207733154297,301.5799255371094
2751,-76.68852233886719,-213.89984130859372,75.72923278808594,308.5361328125
2752,-87.04804229736328,-220.30255126953125,78.97172546386719,306.0603332519531
2753,-88.68985748291016,-224.96620178222656,82.7677230834961,298.606689453125
2754,-83.8990478515625,-218.27926635742188,76.29396057128906,307.03643798828125
2755,-70.14743041992189,-211.3866271972656,87.09104919433594,316.13934326171875
2756,-75.83582305908203,-222.4043731689453,87.4613037109375,308.3491516113281
2757,-79.56076049804688,-229.9888916015625,85.88306427001953,299.03680419921875
2758,-78.57342529296875,-219.7976531982422,79.88800048828125,308.1172790527344
2759,-73.01219940185547,-211.4240264892578,81.23436737060547,310.3499755859375
2760,-80.77249145507812,-212.893798828125,88.70294952392578,306.5689392089844
2761,-87.3921127319336,-220.3137664794922,80.41159057617188,295.9812927246094
2762,-85.81387329101562,-216.3644256591797,76.1219253540039,304.66534423828125
2763,-75.64134979248047,-218.29795837402344,70.88980102539062,313.5887451171875
2764,-76.70347595214844,-222.20242309570312,77.40470886230469,303.6705322265625
2765,-87.496826171875,-228.2423553466797,74.27067565917969,299.11907958984375
2766,-79.44108581542969,-217.6509552001953,75.29914855957031,313.1848449707031
2767,-73.37870788574219,-211.61849975585938,78.9530258178711,319.322021484375
2768,-77.38414001464844,-222.03411865234372,78.42195892333984,309.4000549316406
2769,-83.67091369628906,-223.31690979003903,82.49471282958984,304.5269775390625
2770,-79.93101501464844,-215.4294586181641,76.27152252197266,311.6514587402344
2771,-69.50791168212889,-208.46202087402344,72.92804718017578,316.77886962890625
2772,-73.12813568115234,-212.66192626953125,83.4072494506836,307.74700927734375
2773,-80.65655517578125,-228.1712951660156,77.78244018554688,296.6731872558594
2774,-75.60395050048828,-221.00564575195312,72.35584259033203,300.4392395019531
2775,-72.1781997680664,-210.1113128662109,78.87822723388672,311.81976318359375
2776,-79.16059112548828,-216.4392242431641,79.7571029663086,302.3092041015625
2777,-85.30899047851562,-223.09999084472656,77.61040496826172,298.5019836425781
2778,-80.03946685791016,-218.9225311279297,72.69617462158203,305.8546142578125
2779,-70.76451873779297,-209.842041015625,77.29624938964844,312.010498046875
2780,-79.44108581542969,-220.66905212402344,74.06871795654297,304.33624267578125
2781,-96.1696548461914,-227.08673095703125,73.5750503540039,292.2376403808594
2782,-84.31043243408203,-217.4639587402344,72.61016082763672,306.00048828125
2783,-85.0845947265625,-208.20396423339844,75.86760711669922,314.28436279296875
2784,-84.18701934814453,-218.4512939453125,77.8497543334961,303.4311828613281
2785,-91.2105484008789,-226.02459716796875,78.93806457519531,296.8377380371094
2786,-98.2939224243164,-225.16815185546875,68.49626922607422,303.55084228515625
2787,-85.49597930908203,-217.08248901367188,75.13459014892578,310.56689453125
2788,-94.19873046875,-217.2433013916016,76.69786834716797,305.09918212890625
2789,-90.67574310302734,-224.86895751953125,80.00393676757812,298.50946044921875
2790,-81.70372772216797,-220.9757232666016,78.19757080078125,302.9898681640625
2791,-78.69684600830078,-213.78016662597656,80.58362579345703,308.09857177734375
2792,-78.37147521972656,-222.4492492675781,88.00732421875,303.99591064453125
2793,-88.6187973022461,-223.44032287597656,87.0985336303711,297.89239501953125
2794,-76.21729278564453,-210.04400634765625,90.36346435546876,306.81951904296875
2795,-70.66728210449219,-204.759521484375,88.51595306396484,313.4989929199219
2796,-77.18218231201172,-213.46226501464844,88.14944458007812,306.598876953125
2797,-79.8075942993164,-214.8909149169922,90.16150665283205,301.5836486816406
2798,-76.95779418945312,-210.7770233154297,84.40953826904297,309.1046142578125
2799,-67.91097259521484,-200.8176727294922,90.90574645996094,316.9770812988281
2800,-79.33262634277344,-210.2422180175781,91.0366439819336,314.02630615234375
2801,-82.3133316040039,-215.88946533203125,88.8114013671875,305.8882751464844
2802,-79.07457733154297,-212.53103637695312,79.57011413574219,308.7119140625
2803,-74.43709564208984,-204.8829345703125,80.3367919921875,321.3340759277344
2804,-82.18991088867188,-210.5601043701172,85.20613861083984,315.0398254394531
2805,-90.384033203125,-210.48904418945312,90.03435516357422,303.9921569824219
2806,-91.17314910888672,-208.9706573486328,79.8917465209961,312.2236633300781
2807,-81.69998168945312,-206.2891387939453,78.60895538330078,315.52227783203125
2808,-89.68840789794922,-218.234375,81.67567443847656,301.3480529785156
2809,-86.82364654541016,-224.62586975097656,77.27381134033203,302.866455078125
2810,-82.02161407470703,-215.07791137695312,74.92889404296875,308.1060485839844
2811,-79.35132598876953,-216.1774444580078,76.45851135253906,309.81890869140625
2812,-87.41455078125,-213.66796875,77.11673736572266,301.3742370605469
2813,-94.6849136352539,-226.09939575195312,78.61643981933594,297.0172424316406
2814,-85.6081771850586,-218.33909606933597,72.00990295410156,301.76690673828125
2815,-79.58694458007812,-210.9752349853516,78.59587097167969,312.92303466796875
2816,-83.49139404296875,-218.5111389160156,86.23648071289062,305.34600830078125
2817,-83.62977600097656,-223.65350341796875,86.41973876953125,296.4749450683594
2818,-79.1231918334961,-216.04653930664062,84.17205810546875,309.40753173828125
2819,-67.36494445800781,-205.6122131347656,88.73847961425781,310.0283508300781
2820,-72.86260223388672,-204.7557830810547,88.62628173828125,300.1475524902344
2821,-74.86344909667969,-214.3822784423828,91.4873046875,302.12969970703125
2822,-78.92871856689453,-208.23388671875,84.33661651611328,310.1031494140625
2823,-69.50791168212889,-195.85107421875,84.91255950927734,319.03778076171875
2824,-81.60274505615234,-212.0448455810547,90.95997619628906,304.7812805175781
2825,-89.73329162597656,-215.18637084960938,85.466064453125,293.9131164550781
2826,-76.95404815673828,-213.05088806152344,82.00665283203125,311.3934326171875
2827,-81.13899993896484,-207.7664031982422,84.10099792480469,311.2176513671875
2828,-89.7258071899414,-210.5713195800781,77.44397735595703,301.99505615234375
2829,-89.22466278076172,-224.9811553955078,82.29088592529297,296.4188537597656
2830,-84.10474395751953,-220.2015686035156,77.69828796386719,300.813232421875
2831,-78.001220703125,-213.76893615722656,76.83063507080078,311.834716796875
2832,-89.18726348876953,-223.2234039306641,73.77513885498047,296.6993408203125
2833,-92.98326110839844,-225.8787384033203,74.3847427368164,293.86077880859375
2834,-85.01353454589844,-220.04449462890625,71.4975357055664,298.3673400878906
2835,-79.89735412597656,-219.40122985839844,71.00761413574219,303.7939453125
2836,-85.77647399902344,-219.8612365722656,75.27483367919922,298.34490966796875
2837,-89.16856384277344,-224.33790588378903,80.5256576538086,289.51873779296875
2838,-81.64762878417969,-211.8915100097656,83.46895599365234,298.3187255859375
2839,-66.24671936035156,-208.36105346679688,82.3544692993164,304.298828125
2840,-75.80590057373047,-219.5059509277344,82.64244079589844,298.71514892578125
2841,-76.68103790283203,-222.08273315429688,90.83656311035156,296.9910583496094
2842,-69.47798919677734,-212.4263153076172,89.74076843261719,307.0588684082031
2843,-66.46736907958984,-207.87486267089844,87.76984405517578,318.4468688964844
2844,-69.72482299804689,-207.141845703125,92.2876434326172,309.7815246582031
2845,-76.31452941894531,-217.28819274902344,95.724609375,304.9346008300781
2846,-78.46122741699219,-212.6694183349609,85.26785278320312,309.299072265625
2847,-73.22163391113281,-204.2583770751953,81.72242736816406,313.79443359375
2848,-81.10533905029297,-212.482421875,83.4951400756836,304.7401428222656
2849,-77.88154602050781,-221.9742889404297,81.92063903808594,297.1967468261719
2850,-80.47329711914062,-213.80259704589844,81.30729675292969,302.6831970214844
2851,-65.11727142333984,-217.0974578857422,80.77249145507812,309.90869140625
2852,-72.79528045654297,-223.21966552734372,78.33781433105469,303.68548583984375
2853,-78.72676086425781,-226.9558258056641,77.73194885253906,299.50054931640625
2854,-76.78575897216797,-218.59341430664062,77.40283966064453,296.7030944824219
2855,-73.25154876708984,-205.4027862548828,78.76790618896484,307.33563232421875
2856,-81.06420135498047,-220.94581604003903,74.02571105957031,298.1541748046875
2857,-85.98590850830078,-222.2398223876953,79.51588439941406,293.12774658203125
2858,-82.83317565917969,-216.2896270751953,78.37895202636719,299.4706115722656
2859,-76.0751724243164,-213.88861083984372,76.02655792236328,310.2751770019531
2860,-79.65425872802734,-214.7188720703125,78.03861999511719,308.278076171875
2861,-83.79432678222656,-220.05197143554688,80.83606719970703,301.176025390625
2862,-78.42008972167969,-210.26840209960938,82.97154998779297,309.5272216796875
2863,-78.9997787475586,-199.3291931152344,78.27423858642578,319.0228271484375
2864,-81.61770629882812,-202.98681640625,85.21549224853516,313.4541015625
2865,-84.98735809326172,-206.25547790527344,85.0210189819336,306.0752868652344
2866,-80.55557250976562,-196.00440979003903,84.15335845947266,310.0096435546875
2867,-82.61625671386719,-195.57806396484372,80.9894027709961,315.2978820800781
2868,-88.82075500488281,-199.30300903320312,83.46521759033203,308.4576110839844
2869,-89.79312896728516,-204.61740112304688,83.98506164550781,300.2709655761719
2870,-83.83546447753906,-198.5699920654297,81.92811584472656,305.6377258300781
2871,-77.2981185913086,-195.3499298095703,75.36833190917969,309.041015625
2872,-81.48307037353516,-204.3593597412109,82.63121795654297,305.7087707519531
2873,-85.61192321777344,-213.9297637939453,82.69105529785156,299.1676940917969
2874,-84.26929473876953,-208.327392578125,80.70143127441406,306.0902404785156
2875,-79.26905059814453,-201.81622314453125,72.05852508544922,307.9714050292969
2876,-83.49139404296875,-205.9637756347656,81.04550170898438,303.4461364746094
2877,-87.74365997314453,-214.06439208984372,78.49488830566406,298.60296630859375
2878,-77.18218231201172,-210.60498046875,72.17072296142578,300.1250915527344
2879,-72.17072296142578,-206.51353454589844,66.23549652099611,302.4550476074219
2880,-75.86573791503906,-210.1449737548828,76.96900939941406,305.0841979980469
2881,-84.88263702392578,-215.33595275878903,77.65341186523438,295.6708679199219
2882,-75.4880142211914,-208.3199005126953,77.88528442382812,299.47808837890625
2883,-72.58959197998047,-202.646484375,73.30764770507812,305.0131530761719
2884,-74.36978149414062,-205.945068359375,76.95404815673828,299.8258972167969
2885,-80.23768615722656,-205.46636962890625,77.02136993408203,296.50860595703125
2886,-76.32574462890625,-199.31048583984372,78.7454605102539,301.5462646484375
2887,-72.45869445800781,-191.94288635253903,78.91749572753906,308.8016662597656
2888,-83.38294219970703,-192.12240600585938,84.49369049072266,304.41851806640625
2889,-87.51927185058594,-198.20721435546875,84.51612854003906,302.29425048828125
2890,-84.41515350341797,-195.03204345703125,82.58634185791016,308.34539794921875
2891,-79.1269302368164,-189.0220184326172,81.17639923095703,316.5282897949219
2892,-85.89241027832031,-192.16354370117188,84.58345031738281,312.87066650390625
2893,-94.65499877929688,-202.9007873535156,81.23249816894531,305.2749328613281
2894,-91.1656723022461,-195.61920166015625,77.40657806396484,307.8778991699219
2895,-82.70601654052734,-189.17535400390625,77.20462799072266,311.2774963378906
2896,-88.16627502441406,-200.6082305908203,74.94572448730469,306.19122314453125
2897,-96.22575378417969,-208.33860778808597,76.4940414428711,296.51611328125
2898,-83.0762710571289,-200.7989654541016,72.08843994140625,302.7654724121094
2899,-81.06793975830078,-199.36285400390625,75.08409881591797,299.6800537109375
2900,-90.59720611572266,-208.0543670654297,71.57981872558594,296.2991943359375
2901,-89.6622314453125,-210.9677581787109,72.61576843261719,286.7586975097656
2902,-81.84957885742188,-207.6429901123047,69.58644866943361,290.9024963378906
2903,-79.65425872802734,-202.3360748291016,65.0723876953125,297.6418151855469
2904,-80.31996154785156,-210.11880493164062,71.66209411621094,291.4971618652344
2905,-79.29522705078125,-213.39495849609372,78.50984954833984,291.844970703125
2906,-81.60648345947266,-208.6041412353516,81.77851867675781,298.26263427734375
2907,-77.1784439086914,-202.90452575683597,75.85452270507812,308.8315734863281
2908,-81.2100601196289,-204.4117126464844,79.56449890136719,305.4619445800781
2909,-89.97637939453125,-208.39096069335938,82.35072326660156,302.0324401855469
2910,-85.91484832763672,-199.56480407714844,77.2569808959961,313.28955078125
2911,-79.4223861694336,-192.4290771484375,77.5561752319336,314.5237121582031
2912,-90.17459869384766,-199.23568725585938,74.41839599609375,306.9205017089844
2913,-96.7643051147461,-200.6792907714844,81.26241302490234,304.545654296875
2914,-93.0580596923828,-196.9730529785156,78.83895874023438,309.67681884765625
2915,-84.86019897460938,-193.81283569335938,72.64942932128906,315.88128662109375
2916,-82.98651123046875,-199.13096618652344,77.54495239257812,312.9267883300781
2917,-90.18207550048828,-212.5908660888672,71.82290649414062,297.7091369628906
2918,-87.6127700805664,-207.1343536376953,69.27603912353516,305.93316650390625
2919,-76.20233154296875,-202.6128234863281,67.55194091796875,308.2182312011719
2920,-87.7773208618164,-210.55262756347656,72.81398010253906,302.78790283203125
2921,-94.53532409667969,-218.7467498779297,75.15889739990234,297.8138427734375
2922,-87.16024017333984,-211.91395568847656,68.64399719238281,306.7110595703125
2923,-83.33805847167969,-210.5825500488281,69.93799591064453,314.9912109375
2924,-82.66861724853516,-215.0629425048828,76.12379455566406,303.9772033691406
2925,-82.24600982666016,-219.7677459716797,84.3814926147461,295.5699157714844
2926,-76.4342041015625,-218.7729339599609,76.36688995361328,297.7764587402344
2927,-68.97684478759766,-203.738525390625,74.91580963134766,307.6796875
2928,-86.9695053100586,-212.6843719482422,77.29438018798828,296.8863525390625
2929,-88.68985748291016,-216.2335357666016,80.78370666503906,297.7951354980469
2930,-82.36942291259766,-210.08888244628903,80.92582702636719,305.38714599609375
2931,-78.52107238769531,-197.0515899658203,72.12957763671875,310.1143798828125
2932,-79.55328369140625,-201.8872833251953,75.43565368652344,302.339111328125
2933,-84.87142181396484,-207.06704711914062,80.18158721923828,299.7174377441406
2934,-77.02510833740234,-199.41146850585938,80.59671020507812,303.33392333984375
2935,-79.31392669677734,-193.1695709228516,80.34988403320312,309.0447692871094
2936,-89.38922119140625,-202.7100524902344,75.64508819580078,303.4909973144531
2937,-93.54798889160156,-208.38348388671875,77.32056427001953,300.8992614746094
2938,-87.76610565185547,-203.7946319580078,71.26566314697266,304.052001953125
2939,-84.84149932861328,-199.9612274169922,67.41356658935547,311.3597717285156
2940,-90.65330505371094,-201.57313537597656,77.24576568603516,303.3189697265625
2941,-90.01752471923828,-208.4545440673828,69.57148742675781,297.926025390625
2942,-87.07048034667969,-211.17718505859372,66.216796875,306.78961181640625
2943,-71.35542297363281,-206.59580993652344,69.92678070068361,312.2498474121094
2944,-81.38957214355469,-215.16392517089844,75.29353332519531,308.54736328125
2945,-85.4473648071289,-220.58677673339844,73.84993743896484,300.2148742675781
2946,-88.72351837158203,-212.49737548828125,71.60599517822266,303.72662353515625
2947,-83.95140075683594,-200.75035095214844,71.31428527832031,312.3209228515625
2948,-86.9321060180664,-209.0117950439453,73.75643920898438,307.2384033203125
2949,-88.62628173828125,-208.6041412353516,83.1548080444336,297.3874816894531
2950,-91.56584167480469,-204.74082946777344,73.61058044433594,298.18408203125
2951,-77.80300903320312,-193.4837188720703,80.67899322509766,313.3755798339844
2952,-84.3852310180664,-196.03433227539062,84.18701934814453,309.05224609375
2953,-91.82763671875,-207.2876892089844,86.61421203613281,302.03619384765625
2954,-86.37860107421875,-195.33123779296875,83.2183837890625,308.37158203125
2955,-75.53662872314453,-189.25015258789062,79.49718475341797,314.5124816894531
2956,-81.49429321289062,-195.67156982421875,80.57427215576172,307.3692932128906
2957,-83.79432678222656,-202.82598876953125,83.60359191894531,299.7398986816406
2958,-78.96985626220703,-197.44053649902344,75.84329986572266,304.77752685546875
2959,-71.29558563232422,-197.3133850097656,78.95489501953125,313.031494140625
2960,-75.67874908447266,-203.0765686035156,87.52301025390625,309.7852783203125
2961,-80.73883056640625,-208.04689025878903,80.75379180908203,305.0019226074219
2962,-77.94512176513672,-207.7701416015625,75.70118713378906,307.4029541015625
2963,-76.42298889160156,-201.95834350585938,69.80335998535156,311.857177734375
2964,-77.02136993408203,-205.84034729003903,79.24661254882812,308.1995544433594
2965,-87.41828918457031,-214.04196166992188,75.34215545654297,302.4513244628906
2966,-83.30814361572266,-214.52066040039062,72.39137268066406,304.28759765625
2967,-82.87431335449219,-207.27273559570312,72.18942260742188,316.0421142578125
2968,-84.65450286865234,-206.4088134765625,79.4261245727539,307.3281555175781
2969,-85.7465591430664,-213.21170043945312,75.72736358642578,299.44818115234375
2970,-77.99748229980469,-205.80670166015625,73.13561248779297,306.94293212890625
2971,-81.81217956542969,-205.8814849853516,74.01822662353516,310.11810302734375
2972,-80.39849853515625,-203.96665954589844,83.22960662841797,306.6773986816406
2973,-80.66403198242188,-206.8875274658203,84.36653137207031,298.18035888671875
2974,-74.75125122070312,-204.8904266357422,88.8768539428711,300.68609619140625
2975,-65.98492431640625,-197.87811279296875,85.88493347167969,317.8148193359375
2976,-71.02631378173828,-196.40084838867188,92.34374237060548,305.7200012207031
2977,-77.84414672851562,-210.2945709228516,88.92921447753906,295.0538024902344
2978,-70.94776916503906,-203.48048400878903,88.28968811035156,306.47918701171875
2979,-63.49040985107422,-196.64393615722656,85.71663665771484,318.5964660644531
2980,-73.0421142578125,-200.4287109375,91.82015228271484,310.51080322265625
2981,-88.86189270019531,-212.02989196777344,82.40682220458984,298.5169372558594
2982,-86.69648742675781,-208.01698303222656,79.85247039794922,310.9072265625
2983,-71.82664489746094,-200.1033477783203,83.48391723632812,317.1940002441406
2984,-81.6925048828125,-205.7879943847656,86.30754089355469,312.3209228515625
2985,-91.2703857421875,-216.25222778320312,83.27448272705078,298.629150390625
2986,-88.92921447753906,-209.98789978027344,75.1850814819336,302.8253173828125
2987,-76.40802764892578,-207.1792449951172,72.70926666259766,316.6891174316406
2988,-74.94572448730469,-216.3756561279297,84.47872924804688,310.5556945800781
2989,-77.62723541259766,-222.75218200683597,76.01533508300781,301.1872253417969
2990,-74.85222625732422,-217.6659240722656,73.53204345703125,309.0036315917969
2991,-73.3188705444336,-212.53477478027344,74.45579528808594,310.23779296875
2992,-78.3004150390625,-218.17454528808597,73.40862274169922,304.31378173828125
2993,-83.67465209960938,-220.9420623779297,74.93450164794922,293.90191650390625
2994,-79.1456298828125,-207.54200744628903,75.5291519165039,305.0430603027344
2995,-70.05393981933594,-204.50146484375,74.27254486083984,312.1638488769531
2996,-79.07457733154297,-203.3458404541016,82.0515365600586,307.5188903808594
2997,-85.7876968383789,-214.87594604492188,79.23165130615234,298.93206787109375
2998,-80.00955200195312,-206.6332092285156,81.29607391357422,305.8321838378906
2999,-69.59767150878906,-191.88304138183597,77.66089630126953,313.5588073730469
3000,-77.35421752929688,-198.3942108154297,78.73424530029297,305.64520263671875
3001,-88.67863464355469,-207.87860107421875,80.57801818847656,294.64990234375
3002,-88.30091094970703,-203.97039794921875,72.46990966796875,298.97320556640625
3003,-86.66657257080078,-195.4808349609375,70.98516845703125,311.0343933105469
3004,-90.81411743164062,-206.120849609375,74.45954132080078,299.47808837890625
3005,-93.89205932617188,-214.15789794921875,74.8858871459961,293.2474365234375
3006,-85.67923736572266,-210.7919769287109,65.21450805664061,299.32476806640625
3007,-78.90628051757812,-207.5233154296875,63.02292251586914,307.3954772949219
3008,-87.2911376953125,-217.21713256835938,71.05622863769531,302.33538818359375
3009,-93.34229278564452,-225.59825134277344,71.57233428955078,293.8271179199219
3010,-91.30030822753906,-217.37420654296875,70.97395324707031,303.3526306152344
3011,-77.9376449584961,-209.31472778320312,71.90518951416016,311.22137451171875
3012,-83.05382537841797,-219.18804931640625,74.22392272949219,302.5223693847656
3013,-93.80978393554688,-223.5151214599609,76.6324234008789,295.1061706542969
3014,-77.74691009521484,-218.7617034912109,75.01304626464844,300.0091552734375
3015,-82.11137390136719,-213.09576416015625,71.32923889160156,307.3992004394531
3016,-76.33696746826172,-216.7646026611328,83.3006591796875,303.2366943359375
3017,-77.4365005493164,-221.3085784912109,89.84548950195312,294.5264587402344
3018,-66.83388519287111,-216.7309417724609,82.26844787597656,308.3117370605469
3019,-56.42200088500977,-207.9496612548828,85.48102569580078,318.3496398925781
3020,-71.74063110351562,-212.3477783203125,92.31755828857422,311.0231628417969
3021,-76.58753967285156,-220.6615753173828,92.61675262451172,303.2815856933594
3022,-72.44373321533203,-207.1343536376953,85.59322357177734,314.908935546875
3023,-79.02595520019531,-204.5164337158203,81.00436401367188,317.5380859375
3024,-85.76899719238281,-208.0244598388672,88.80953216552734,309.44866943359375
3025,-93.4956283569336,-215.7959747314453,83.58863067626953,298.7712707519531
3026,-93.45075225830078,-213.51089477539062,72.34649658203125,295.061279296875
3027,-83.6409912109375,-213.3575592041016,71.96128845214844,296.7292785644531
3028,-94.70361328125,-217.8716125488281,74.30620574951172,290.0124206542969
3029,-100.31720733642578,-225.58702087402344,69.65750885009766,283.5012512207031
3030,-96.31925201416016,-223.9227752685547,71.47883605957031,294.01409912109375
3031,-81.5503921508789,-221.99298095703125,66.90493774414061,300.6187744140625
3032,-91.1843719482422,-234.4917297363281,67.06949615478516,294.5751037597656
3033,-94.02295684814452,-236.1709442138672,71.05622863769531,286.2052001953125
3034,-85.12947082519531,-231.74290466308597,62.26746368408203,292.65277099609375
3035,-71.88274383544922,-222.7447052001953,69.68368530273439,306.23236083984375
3036,-79.15685272216797,-225.5533599853516,79.4036865234375,301.28448486328125
3037,-85.15190887451172,-230.534912109375,78.46871185302734,298.9769592285156
3038,-80.01329040527344,-218.72430419921875,80.51817321777344,306.99530029296875
3039,-70.07637786865234,-207.1194000244141,86.00086975097656,317.5492858886719
3040,-76.02281951904297,-205.9862060546875,86.61795043945312,321.341552734375
3041,-78.9997787475586,-213.1107177734375,94.40442657470705,312.78839111328125
3042,-74.24262237548828,-203.65625,86.9508056640625,319.404296875
3043,-70.25962829589844,-199.31048583984372,84.91255950927734,322.77392578125
3044,-75.71240234375,-207.0520782470703,91.9697494506836,321.4687194824219
3045,-75.88069915771484,-211.17718505859372,83.54749298095703,309.6917724609375
3046,-79.45978546142578,-205.63092041015625,77.04754638671875,313.783203125
3047,-80.07686614990234,-207.27273559570312,68.32984161376953,314.36663818359375
3048,-78.17325592041016,-216.94412231445312,67.77259826660156,302.77294921875
3049,-93.97059631347656,-230.1347503662109,69.97165679931639,296.2505798339844
3050,-86.88722229003906,-220.24644470214844,70.42418670654297,295.3829040527344
3051,-77.35047912597656,-217.4041290283203,67.43226623535156,303.6106872558594
3052,-82.08893585205078,-223.9302520751953,67.83991241455078,297.6979064941406
3053,-84.08978271484375,-225.452392578125,66.38509368896484,286.5118713378906
3054,-75.6114273071289,-221.7237091064453,67.64543914794922,294.9266357421875
3055,-70.66353607177734,-210.0963592529297,73.30764770507812,303.5583190917969
3056,-75.04296112060547,-208.23388671875,77.14104461669922,300.5476989746094
3057,-85.67923736572266,-209.3820343017578,74.83352661132812,296.0411376953125
3058,-90.84030151367188,-204.94651794433597,71.75933074951172,301.7557067871094
3059,-78.65570831298828,-197.36199951171875,77.73194885253906,312.197509765625
3060,-87.46317291259766,-207.20541381835938,80.49573516845703,306.8980712890625
3061,-91.83511352539062,-213.5482940673828,78.9212417602539,301.3630065917969
3062,-83.02391052246094,-211.4576873779297,75.15889739990234,308.2556457519531
3063,-74.28002166748047,-207.83746337890625,80.1479263305664,319.6062316894531
3064,-84.90133666992188,-214.23269653320312,84.19449615478516,312.1788024902344
3065,-88.31212615966797,-219.6368408203125,82.02909851074219,303.9884033203125
3066,-81.7934799194336,-224.3865203857422,73.17675018310547,307.0813293457031
3067,-81.88697814941406,-213.48471069335938,68.90204620361328,309.4150085449219
3068,-82.20861053466797,-221.56663513183597,73.57691955566406,303.34515380859375
3069,-91.8912124633789,-227.79356384277344,65.01628875732422,294.7508544921875
3070,-91.909912109375,-225.4149932861328,63.905540466308594,292.58172607421875
3071,-88.54774475097656,-219.1319580078125,62.71625137329102,300.90673828125
3072,-84.20945739746094,-223.25706481933597,71.10485076904297,298.0793762207031
3073,-95.90038299560548,-234.2561187744141,76.80071258544922,290.97357177734375
3074,-86.15420532226562,-226.09939575195312,72.96731567382812,296.2430725097656
3075,-84.45255279541016,-217.92770385742188,71.62469482421875,305.79852294921875
3076,-80.89590454101562,-220.2763671875,72.78032684326172,302.7654724121094
3077,-90.97119903564452,-225.89743041992188,78.91375732421875,293.31475830078125
3078,-81.7149429321289,-218.4326019287109,72.93366241455078,297.1369323730469
3079,-71.16842651367188,-207.19419860839844,72.12210083007812,300.70477294921875
3080,-78.6631851196289,-215.89694213867188,74.14164733886719,297.2079772949219
3081,-83.06878662109375,-222.68112182617188,72.85137939453125,290.2031555175781
3082,-78.56221008300781,-220.89718627929688,70.91785430908203,296.0523376464844
3083,-68.56919860839844,-211.91769409179688,70.52516174316406,305.2038879394531
3084,-77.49259948730469,-216.99647521972656,80.03572845458984,303.711669921875
3085,-82.59008026123047,-223.25706481933597,77.9600830078125,298.3000183105469
3086,-72.39884948730469,-219.83880615234372,79.0857925415039,312.7921447753906
3087,-63.96537780761719,-209.18756103515625,75.30475616455078,321.775390625
3088,-74.73255157470703,-214.9731903076172,77.85163116455078,311.681396484375
3089,-88.8394546508789,-226.8585968017578,75.85826110839844,298.969482421875
3090,-81.02680206298828,-225.84507751464844,72.3203125,306.5951232910156
3091,-73.50586700439453,-218.03990173339844,72.2978744506836,308.50994873046875
3092,-79.07831573486328,-231.67184448242188,72.76162719726562,301.2246398925781
3093,-84.82279968261719,-231.20062255859372,74.9083251953125,289.3616638183594
3094,-81.20257568359375,-222.65493774414062,74.02197265625,295.4203186035156
3095,-67.14429473876953,-212.0037078857422,75.02426147460938,310.2303161621094
3096,-72.42877197265625,-214.8198547363281,73.7040786743164,300.66363525390625
3097,-77.70951080322266,-215.6613311767578,76.56884002685547,291.3101501464844
3098,-75.53289031982422,-207.1829833984375,74.48945617675781,299.4107666015625
3099,-65.99240112304689,-201.95460510253903,73.97335052490234,303.9809265136719
3100,-72.84764099121094,-207.8486785888672,78.53602600097656,293.33343505859375
3101,-79.59815979003906,-215.5640869140625,78.60708618164062,292.162841796875
3102,-85.466064453125,-216.99273681640625,75.46931457519531,301.81927490234375
3103,-76.38558959960938,-202.49688720703125,76.99144744873047,312.9080810546875
3104,-74.92328643798828,-206.0423126220703,81.6326675415039,315.2754211425781
3105,-77.8965072631836,-216.4167938232422,79.39994812011719,302.5859680175781
3106,-83.53253173828125,-216.15499877929688,80.22272491455078,312.3171691894531
3107,-77.31307983398438,-203.5328369140625,81.85331726074219,322.0558776855469
3108,-79.1269302368164,-214.36358642578125,83.31562042236328,313.876708984375
3109,-81.56160736083984,-223.2383728027344,80.61540985107422,306.2959289550781
3110,-82.30210876464844,-219.58448791503903,72.27543640136719,309.1569519042969
3111,-74.9270248413086,-218.9449615478516,74.76995086669922,312.48919677734375
3112,-81.95803833007812,-226.0769500732422,77.9413833618164,303.711669921875
3113,-82.20113372802734,-230.06369018554688,81.90567779541016,294.1263122558594
3114,-78.18074035644531,-222.70730590820312,72.94861602783203,298.629150390625
3115,-68.19894409179689,-215.6014862060547,74.25010681152344,303.524658203125
3116,-68.165283203125,-218.00999450683597,82.46666717529297,297.5782165527344
3117,-86.68527221679688,-229.8093719482422,77.2569808959961,294.9341125488281
3118,-76.6324234008789,-223.60113525390625,74.51937866210938,297.1630859375
3119,-70.36808776855469,-211.48385620117188,74.5455551147461,303.85003662109375
3120,-73.71903991699219,-215.4930419921875,75.02799987792969,294.7433776855469
3121,-78.70806121826172,-217.45274353027344,79.91231536865234,294.5077819824219
3122,-79.05961608886719,-212.8563995361328,72.23429870605469,302.526123046875
3123,-71.9201431274414,-204.48651123046875,81.1689224243164,314.33673095703125
3124,-74.9906005859375,-209.75228881835938,84.40019226074219,307.67596435546875
3125,-74.41839599609375,-212.0934600830078,79.39994812011719,302.9973449707031
3126,-76.12379455566406,-211.2445068359375,78.43131256103516,308.0948181152344
3127,-74.97938537597656,-199.3179626464844,79.60564422607422,318.7460632324219
3128,-82.5975570678711,-206.7379302978516,77.73194885253906,311.4046325683594
3129,-88.94416809082031,-215.4444122314453,81.32599639892578,306.10894775390625
3130,-79.7627182006836,-210.95278930664062,80.45833587646484,309.3177795410156
3131,-71.50502014160156,-202.01443481445312,77.23828125,316.1243896484375
3132,-79.25035095214844,-214.1354522705078,84.78913879394531,314.2768859863281
3133,-81.48307037353516,-217.03387451171875,85.93729400634766,306.8830871582031
3134,-80.89964294433594,-216.6673583984375,77.63097381591797,309.5159912109375
3135,-78.88758087158203,-213.1967315673828,77.70203399658203,312.10400390625
3136,-80.71265411376953,-220.3175048828125,78.42757415771484,301.8417053222656
3137,-93.12538146972656,-222.59136962890625,76.78949737548828,293.50921630859375
3138,-88.69359588623047,-217.048828125,70.09881591796875,300.4504699707031
3139,-79.43734741210938,-211.91769409179688,66.82266235351561,308.9624938964844
3140,-83.48017883300781,-220.7363739013672,72.12957763671875,299.1302795410156
3141,-85.69793701171875,-226.43972778320312,73.25528717041016,289.3916015625
3142,-88.05033111572266,-224.7754669189453,68.97684478759766,297.009765625
3143,-82.0926742553711,-217.0787506103516,66.38883209228516,302.1109924316406
3144,-88.11017608642578,-225.6730499267578,74.17530822753906,296.7853698730469
3145,-79.15311431884766,-230.38157653808597,69.41441345214844,292.06561279296875
3146,-78.26301574707031,-226.5519256591797,68.21390533447266,299.91192626953125
3147,-67.74267578125,-216.9628143310547,73.58065795898438,310.5743713378906
3148,-71.80795288085938,-218.63455200195312,76.68477630615234,304.7401428222656
3149,-77.78804779052734,-226.3574523925781,78.76042175292969,295.5212707519531
3150,-69.83328247070311,-221.3609313964844,82.1151123046875,310.4659118652344
3151,-69.29099273681639,-209.14642333984372,80.38728332519531,314.2357482910156
3152,-72.67560577392578,-216.91793823242188,82.7957763671875,309.3738708496094
3153,-84.10848236083984,-222.12762451171875,77.34300231933594,301.60235595703125
3154,-85.18183135986328,-222.76339721679688,72.49983215332031,307.7133483886719
3155,-76.66607666015625,-216.9291534423828,70.42418670654297,315.6269836425781
3156,-78.9997787475586,-223.0588531494141,74.29124450683594,304.9607849121094
3157,-93.44701385498048,-233.2425994873047,67.10689544677734,299.3359680175781
3158,-77.89276885986328,-230.72564697265625,60.16564178466797,300.4056091308594
3159,-76.44916534423828,-229.5550537109375,59.08106994628906,298.3374328613281
3160,-80.08808898925781,-230.29556274414062,63.26601791381836,291.7103271484375
3161,-85.29776763916016,-236.7917633056641,64.41790771484375,288.1611633300781
3162,-74.45205688476562,-226.3836212158203,65.65207672119139,295.48388671875
3163,-71.36663818359375,-223.2346343994141,64.22343444824219,301.0712890625
3164,-77.61227416992188,-226.133056640625,68.89456939697266,290.6033020019531
3165,-79.362548828125,-232.6030731201172,67.83617401123047,284.5671081542969
3166,-76.47160339355469,-228.3882141113281,66.00362396240234,293.80841064453125
3167,-72.47364807128906,-219.60317993164062,72.36519622802734,305.3422546386719
3168,-69.45555114746094,-220.1716461181641,78.63700866699219,302.9375
3169,-73.0421142578125,-229.25587463378903,81.64388275146484,296.1458435058594
3170,-73.0421142578125,-221.3571929931641,78.3826904296875,303.2666320800781
3171,-72.5185317993164,-211.85037231445312,81.01932525634766,315.9523620605469
3172,-77.56739807128906,-213.55950927734372,81.6326675415039,316.20294189453125
3173,-85.54833984375,-222.1837158203125,79.98336791992188,304.556884765625
3174,-75.07288360595703,-217.1236267089844,74.74751281738281,315.671875
3175,-69.91181945800781,-211.8802947998047,77.68333435058594,323.3498840332031
3176,-80.80614471435547,-211.9625701904297,78.18074035644531,317.7213439941406
3177,-87.17145538330078,-221.00938415527344,74.28002166748047,306.4829406738281
3178,-85.7652587890625,-213.0770568847656,74.49319458007812,313.0502014160156
3179,-76.310791015625,-213.4136505126953,68.98058319091797,318.3421630859375
3180,-82.66114044189453,-214.8011474609375,68.41211700439453,313.46905517578125
3181,-86.79373168945312,-221.9742889404297,70.92533111572266,302.5784606933594
3182,-88.2784652709961,-218.45877075195312,65.78296661376953,300.5252685546875
3183,-88.41310119628906,-215.75482177734372,68.00820922851561,306.70733642578125
3184,-83.00894927978516,-218.30169677734372,67.58934020996094,300.56640625
3185,-84.62832641601562,-224.266845703125,73.17675018310547,289.5748291015625
3186,-79.91605377197266,-220.08189392089844,69.21994018554689,297.7539978027344
3187,-67.15925598144531,-213.80259704589844,67.98577117919922,304.2090759277344
3188,-74.82231140136719,-222.15753173828125,74.89710998535156,305.6526794433594
3189,-86.20282745361328,-227.90576171875,81.08663940429688,301.9913024902344
3190,-75.80216217041016,-216.7458953857422,76.40802764892578,303.4237060546875
3191,-73.64797973632812,-214.9956359863281,80.5667953491211,311.1316223144531
3192,-76.7109603881836,-216.7496490478516,83.25578308105469,304.8673095703125
3193,-77.74317169189453,-223.99008178710938,86.47209930419922,297.8587341308594
3194,-73.42732238769531,-217.95762634277344,84.75548553466797,309.5945129394531
3195,-63.77838516235352,-209.65879821777344,86.11306762695312,317.6427917480469
3196,-76.32574462890625,-215.9006805419922,83.6185531616211,308.6072082519531
3197,-71.87152862548828,-222.83819580078125,88.02041625976562,304.69525146484375
3198,-75.59646606445312,-218.234375,82.67610168457031,311.2699890136719
3199,-67.60803985595703,-208.55926513671875,81.46810913085938,316.96588134765625
3200,-72.32779693603516,-218.1708068847656,81.64014434814453,311.0643005371094
3201,-85.0023193359375,-229.5924530029297,76.59127807617188,298.88720703125
3202,-77.93390655517578,-226.40606689453125,74.8858871459961,302.9449768066406
3203,-70.371826171875,-217.4302978515625,72.71300506591797,306.22113037109375
3204,-73.12065124511719,-225.2953186035156,74.03692626953125,301.3218688964844
3205,-82.69105529785156,-235.73336791992188,76.25469207763672,290.6556701660156
3206,-76.08265686035156,-229.6186370849609,70.83931732177734,297.5557861328125
3207,-70.61492156982422,-219.02349853515625,66.98722076416016,305.8284606933594
3208,-75.630126953125,-223.72830200195312,75.05044555664062,303.4835205078125
3209,-83.68961334228516,-227.90576171875,77.64967346191406,292.5069274902344
3210,-81.36339569091797,-219.9809112548828,77.02884674072266,299.10784912109375
3211,-69.45181274414061,-215.3957977294922,78.52481079101562,306.4754638671875
3212,-76.55014038085938,-217.9351959228516,78.39391326904297,301.329345703125
3213,-78.9997787475586,-224.96994018554688,81.3746109008789,295.1734619140625
3214,-75.03174591064453,-217.224609375,82.32828521728516,301.329345703125
3215,-68.94692230224611,-208.7051239013672,82.13007354736328,308.8988952636719
3216,-74.56612396240234,-215.55474853515625,84.03742218017578,305.4619445800781
3217,-79.11384582519531,-217.45835876464844,86.31876373291016,297.432373046875
3218,-80.2545166015625,-209.8139953613281,81.21379852294922,308.46881103515625
3219,-78.54164123535156,-209.28292846679688,75.2710952758789,314.4414367675781
3220,-80.82672119140625,-217.2788391113281,78.88009643554688,313.59246826171875
3221,-84.90320587158203,-223.0719451904297,75.43939208984375,303.3227233886719
3222,-85.51655578613281,-217.4807891845703,67.11063385009766,306.3632507324219
3223,-74.96255493164062,-210.57693481445312,71.0936279296875,319.02655029296875
3224,-84.70125579833984,-218.4531707763672,69.75474548339844,308.71563720703125
3225,-91.8033218383789,-230.8359680175781,70.22971343994139,298.37481689453125
3226,-83.17537689208984,-223.2851104736328,67.34624481201172,298.617919921875
3227,-78.28358459472656,-218.49057006835938,69.01424407958984,310.7202453613281
3228,-83.17911529541016,-224.14903259277344,69.74726104736328,302.74676513671875
3229,-89.96703338623047,-229.95709228515625,69.51538848876953,293.6214294433594
3230,-86.32437133789062,-221.05987548828125,66.11956024169922,295.4203186035156
3231,-77.66650390625,-212.1439514160156,65.77175140380861,308.94378662109375
3232,-86.58616638183594,-219.95660400390625,70.24092864990234,294.874267578125
3233,-93.47879791259766,-225.03912353515625,75.39451599121094,292.7388000488281
3234,-88.03350830078125,-212.8021697998047,68.22138214111328,298.2439270019531
3235,-77.50942993164062,-204.507080078125,74.28750610351562,307.8143310546875
3236,-88.27285766601562,-209.9673309326172,79.9085693359375,300.8431701660156
3237,-91.90055847167969,-217.3125,79.20172882080078,294.85931396484375
3238,-78.51171875,-211.2052459716797,75.40946960449219,295.5025939941406
3239,-77.35234832763672,-202.3491516113281,77.0961685180664,309.3476867675781
3240,-74.34921264648438,-205.21017456054688,85.79143524169922,311.42333984375
3241,-92.03519439697266,-213.3631591796875,80.20028686523438,303.947265625
3242,-86.8030776977539,-209.9860382080078,77.0550308227539,307.8031311035156
3243,-86.61608123779297,-210.4834442138672,74.75498962402344,315.60455322265625
3244,-82.15438079833984,-214.58236694335938,73.67415618896484,313.4615783691406
3245,-88.83384704589844,-214.96383666992188,73.21788787841797,302.2082214355469
3246,-91.3582763671875,-217.3910369873047,71.95006561279297,311.0904846191406
3247,-88.23545837402344,-208.5087738037109,75.07662200927734,323.7724914550781
3248,-95.18793487548828,-216.22792053222656,75.8694839477539,310.4360046386719
3249,-96.30990600585938,-223.59927368164062,71.54989624023438,303.43865966796875
3250,-93.61717224121094,-217.5630645751953,70.18857574462889,308.8016662597656
3251,-82.46105194091797,-210.97337341308597,69.47798919677734,317.0294494628906
3252,-85.70354461669922,-219.6387176513672,71.65835571289062,307.85174560546875
3253,-89.83987426757812,-221.4450836181641,74.35855865478516,298.56182861328125
3254,-95.64046478271484,-218.580322265625,71.74436950683594,302.0586242675781
3255,-76.36502075195312,-202.6782684326172,72.89251708984375,315.5185241699219
3256,-79.24848175048828,-208.1609649658203,76.08639526367188,301.73699951171875
3257,-81.821533203125,-216.16061401367188,81.36339569091797,301.27325439453125
3258,-73.42171478271484,-212.9966583251953,79.48970031738281,306.8045654296875
3259,-67.10502624511719,-201.60491943359372,80.56305694580078,315.3502197265625
3260,-66.90680694580078,-208.63218688964844,82.82943725585938,310.8062438964844
3261,-73.99018096923828,-210.82003784179688,86.40477752685547,304.4970397949219
3262,-73.63863372802734,-207.8131561279297,82.91545104980469,305.5068054199219
3263,-72.58397674560547,-199.73497009277344,82.29463195800781,314.17218017578125
3264,-78.03675079345703,-207.4728240966797,82.95658874511719,310.01715087890625
3265,-85.7596435546875,-214.44024658203125,77.86658477783203,297.4510803222656
3266,-91.4442901611328,-211.2987365722656,71.2357406616211,301.2021789550781
3267,-69.43498229980469,-203.07095336914062,70.53264617919922,317.3024597167969
3268,-75.85639190673828,-207.2746124267578,74.23514556884766,302.6009216308594
3269,-84.92565155029297,-218.6401672363281,74.68019104003906,302.010009765625
3270,-83.73262023925781,-211.76622009277344,75.84329986572266,307.8854064941406
3271,-81.32038116455078,-208.42649841308597,69.73978424072266,314.7817687988281
3272,-84.80970764160156,-217.1479339599609,76.5164794921875,306.49041748046875
3273,-87.81285095214844,-220.5400238037109,74.4258804321289,301.4864196777344
3274,-83.93083190917969,-209.9710693359375,71.6172103881836,309.6917724609375
3275,-82.5433349609375,-207.1773681640625,71.29558563232422,320.2906494140625
3276,-89.23027038574219,-210.1543273925781,76.92413330078125,308.4875183105469
3277,-87.87642669677734,-221.03369140625,80.75005340576172,301.81927490234375
3278,-89.0058822631836,-211.36605834960938,79.65799713134766,309.4112854003906
3279,-66.39070129394531,-204.9409027099609,86.92088317871094,322.609375
3280,-73.42171478271484,-213.55389404296875,85.22296905517578,313.1437072753906
3281,-83.80741882324219,-222.1070556640625,84.61336517333984,306.7559509277344
3282,-75.83395385742188,-216.1456451416016,77.88902282714844,305.1739807128906
3283,-74.02758026123047,-207.28208923339844,78.51732635498047,315.6568908691406
3284,-80.01142120361328,-207.02029418945312,77.7768325805664,302.1222229003906
3285,-85.88680267333984,-225.46548461914062,72.52600860595703,295.29315185546875
3286,-78.8333511352539,-215.76791381835938,70.76451873779297,300.67486572265625
3287,-78.90067291259766,-212.6002197265625,67.00965881347656,308.805419921875
3288,-77.2625961303711,-213.22479248046875,72.81771850585938,301.65472412109375
3289,-84.96305084228516,-217.8285980224609,71.35542297363281,295.6147766113281
3290,-82.17681884765625,-214.48887634277344,66.94982147216797,300.00543212890625
3291,-83.99441528320312,-201.48524475097656,67.94089508056639,311.01568603515625
3292,-82.59943389892578,-213.7221984863281,70.82809448242188,303.1618957519531
3293,-87.50244140625,-217.8473052978516,73.21788787841797,299.03680419921875
3294,-87.73057556152344,-211.8896484375,72.84764099121094,306.7222900390625
3295,-82.97341918945312,-207.8281097412109,69.93799591064453,310.4098205566406
3296,-80.2769546508789,-212.6301422119141,75.80963897705078,306.0790100097656
3297,-89.90345764160156,-217.2751007080078,73.53952026367188,292.27130126953125
3298,-78.69871520996094,-212.8956756591797,64.84051513671875,299.0928955078125
3299,-73.2945556640625,-204.8399353027344,68.44203948974611,311.3934326171875
3300,-80.10118103027344,-204.6118011474609,80.95948791503906,301.6098327636719
3301,-77.23641204833984,-215.07603454589844,78.59212493896484,295.3791809082031
3302,-73.99018096923828,-208.5237274169922,77.96756744384766,308.60345458984375
3303,-65.44824981689453,-199.9668426513672,76.57257843017578,316.7040710449219
3304,-68.69448089599611,-209.2978973388672,81.99169921875,312.9417419433594
3305,-77.15787506103516,-219.2684631347656,79.4261245727539,304.9495849609375
3306,-69.38262176513672,-216.46728515625,79.36628723144531,311.5280456542969
3307,-71.91453552246094,-208.8004913330078,72.82894134521484,317.9681701660156
3308,-70.38117980957031,-212.9442901611328,74.82978820800781,307.5039367675781
3309,-81.77664947509766,-218.4569091796875,72.08470153808594,295.81298828125
3310,-77.13917541503906,-217.63038635253903,69.63132476806639,299.2387390136719
3311,-74.87653350830078,-217.7313690185547,64.21595001220703,304.6877746582031
3312,-80.17597198486328,-221.64329528808597,68.20268249511719,304.0931396484375
3313,-79.1923828125,-230.31239318847656,68.14284515380861,290.2330627441406
3314,-78.13398742675781,-226.4228973388672,59.84774780273438,298.8273620605469
3315,-74.36042785644531,-217.46583557128903,62.63023376464844,306.1949462890625
3316,-76.87738037109375,-220.281982421875,67.86609649658203,304.5344543457031
3317,-83.45586395263672,-228.04974365234372,68.29244232177734,290.3714294433594
3318,-77.58422088623047,-222.67550659179688,64.63108062744139,300.0802307128906
3319,-73.47407531738281,-212.87322998046875,66.32899475097656,312.36578369140625
3320,-82.43861389160156,-220.3118896484375,72.5596694946289,303.5583190917969
3321,-78.4930191040039,-218.6775665283203,80.39102172851562,306.8868408203125
3322,-72.86820983886719,-216.1718292236328,79.4036865234375,315.14080810546875
3323,-67.30323791503906,-207.9365692138672,76.95404815673828,321.27423095703125
3324,-75.62825775146484,-207.2596435546875,77.9376449584961,315.94488525390625
3325,-85.75216674804688,-213.0190887451172,84.05238342285156,311.2961730957031
3326,-80.24703216552734,-214.82546997070312,77.36917877197266,315.03607177734375
3327,-74.39408874511719,-209.73545837402344,78.49114990234375,324.0978698730469
3328,-86.60486602783203,-212.3571319580078,77.62349700927734,314.6434020996094
3329,-83.50822448730469,-219.1263427734375,80.02825164794922,308.61468505859375
3330,-80.7406997680664,-216.7589874267578,76.60997772216797,307.33563232421875
3331,-71.52184295654297,-208.32925415039062,73.24781036376953,309.70672607421875
3332,-83.92335510253906,-209.90000915527344,78.10594177246094,305.0281066894531
3333,-83.65034484863281,-220.5437774658203,77.82918548583984,296.70684814453125
3334,-82.78268432617188,-221.4114227294922,70.74208068847656,304.474609375
3335,-86.84795379638672,-212.88072204589844,68.16902923583984,312.5453186035156
3336,-82.55455017089844,-215.72677612304688,74.02944946289062,307.0813293457031
3337,-90.88330841064452,-223.05697631835938,72.16697692871094,299.3995666503906
3338,-78.44440460205078,-219.2535095214844,69.46303558349611,307.1336669921875
3339,-75.77411651611328,-215.08351135253903,69.2685546875,313.0651550292969
3340,-78.57904052734375,-216.35508728027344,70.09133148193361,307.1822814941406
3341,-91.56397247314452,-223.1205596923828,77.26820373535156,299.54541015625
3342,-88.59449005126953,-217.08062744140625,71.08240509033203,310.3612060546875
3343,-75.38516235351562,-210.7788848876953,74.66149139404297,315.2866516113281
3344,-78.7884750366211,-209.51480102539062,78.18447875976562,313.2147521972656
3345,-86.87039947509766,-221.26182556152344,79.24286651611328,306.5577392578125
3346,-84.1514892578125,-216.10824584960938,75.21873474121094,310.2490234375
3347,-75.80029296875,-208.61349487304688,73.43854522705078,320.9825134277344
3348,-82.6854476928711,-215.39767456054688,82.55268096923828,318.1589050292969
3349,-82.19926452636719,-220.20718383789062,77.58609771728516,301.5686950683594
3350,-74.86157989501953,-219.19366455078125,71.0749282836914,306.42681884765625
3351,-75.17198944091797,-208.26193237304688,73.3600082397461,314.5872802734375
3352,-70.93468475341797,-213.9989471435547,80.02076721191406,310.7052917480469
3353,-83.3698501586914,-219.32830810546875,77.48137664794922,298.9657287597656
3354,-83.40351104736328,-216.5906982421875,72.07347869873047,298.4945068359375
3355,-79.27091979980469,-212.5179443359375,68.09049224853516,305.4881286621094
3356,-82.49845123291016,-214.58236694335938,74.5679931640625,304.1679382324219
3357,-85.51280975341797,-220.00897216796875,73.16179656982422,300.0989074707031
3358,-81.7803955078125,-215.0087127685547,72.56714630126953,306.4642333984375
3359,-80.87159729003906,-209.8513946533203,68.49440002441406,307.1224670410156
3360,-88.09334564208984,-215.2293701171875,74.91580963134766,303.8388366699219
3361,-92.83179473876952,-225.59263610839844,73.62928009033203,298.4309387207031
3362,-85.6998062133789,-213.64739990234372,72.86260223388672,301.2395935058594
3363,-74.06497955322266,-206.94923400878903,76.052734375,312.1638488769531
3364,-82.2852783203125,-207.08761596679688,78.83522033691406,312.1526184082031
3365,-95.06451416015624,-215.528564453125,85.4885025024414,302.65325927734375
3366,-86.57494354248047,-209.45123291015625,80.26386260986328,306.9990234375
3367,-81.95243072509766,-203.1046142578125,74.97938537597656,316.5582275390625
3368,-90.96932983398438,-207.28208923339844,80.81362915039062,308.5024719238281
3369,-90.37842559814452,-216.80386352539062,80.73135375976562,298.5954895019531
3370,-84.84710693359375,-214.9002685546875,75.69744873046875,306.5502624511719
3371,-83.25391387939453,-208.1609649658203,80.04320526123047,315.0959167480469
3372,-88.61692810058594,-216.35508728027344,75.7535400390625,310.67535400390625
3373,-88.14569854736328,-224.95684814453125,73.80131530761719,299.11907958984375
3374,-85.64744567871094,-222.3912811279297,68.02317047119139,293.83831787109375
3375,-74.82791900634766,-215.951171875,71.00012969970703,311.5243225097656
3376,-80.79306030273438,-219.68359375,72.07722473144531,303.3526306152344
3377,-89.02083587646484,-221.18328857421875,71.70323181152344,292.24139404296875
3378,-88.16814422607422,-225.82077026367188,66.55712890625,291.9459533691406
3379,-79.9366226196289,-214.3056182861328,65.43515777587889,303.6106872558594
3380,-85.63996887207031,-221.69566345214844,71.052490234375,298.6665344238281
3381,-94.57833099365234,-225.5776824951172,74.5492935180664,291.07080078125
3382,-96.6801528930664,-216.7552490234375,70.37931060791016,298.18408203125
3383,-80.78932189941406,-204.02462768554688,74.444580078125,311.6402587890625
3384,-87.12471008300781,-208.3629150390625,78.21440124511719,309.6693115234375
3385,-90.1951675415039,-216.3700408935547,81.99543762207031,297.99334716796875
3386,-86.70210266113281,-209.7579040527344,82.72471618652344,311.8683776855469
3387,-84.79475402832031,-204.6342315673828,80.15166473388672,312.4817199707031
3388,-82.06462097167969,-207.0464782714844,81.9318618774414,310.4771423339844
3389,-87.23316955566406,-208.579833984375,84.06734466552734,301.0638122558594
3390,-82.53211212158203,-204.09942626953125,84.30669403076172,309.3327331542969
3391,-69.85011291503906,-199.77610778808597,81.78600311279297,315.3726806640625
3392,-79.955322265625,-202.49874877929688,86.91714477539062,311.90203857421875
3393,-89.61548614501953,-213.81195068359372,89.44157409667969,304.5643615722656
3394,-80.72947692871094,-204.2490234375,87.18641662597656,309.69549560546875
3395,-69.20684814453125,-201.2832794189453,84.0224609375,318.39825439453125
3396,-76.5819320678711,-210.0608367919922,84.47125244140625,310.4734191894531
3397,-86.26453399658203,-216.9684295654297,85.98590850830078,300.58135986328125
3398,-86.31689453125,-212.10281372070312,82.34698486328125,302.9861145019531
3399,-72.0042953491211,-209.8887939453125,79.26905059814453,304.1754150390625
3400,-80.48638916015625,-210.5470123291016,82.82943725585938,302.4737548828125
3401,-90.9356689453125,-223.72642517089844,83.16976165771484,297.70538330078125
3402,-88.71790313720703,-218.9094390869141,78.40513610839844,300.6786193847656
3403,-77.67771911621094,-207.9814453125,76.22850799560547,311.4270935058594
3404,-82.95845794677734,-210.3151397705078,78.47245025634766,305.4544677734375
3405,-95.9546127319336,-221.9013519287109,79.13441467285156,295.8055114746094
3406,-83.77001953125,-212.54039001464844,79.35881042480469,306.5539855957031
3407,-78.68375396728516,-208.4003143310547,77.90772247314453,313.958984375
3408,-82.44235229492188,-210.59190368652344,88.5813980102539,315.0323486328125
3409,-85.01166534423828,-214.63473510742188,90.09606170654295,305.8695983886719
3410,-83.34367370605469,-212.28607177734372,86.2925796508789,312.5901794433594
3411,-75.98728942871094,-206.549072265625,87.11161804199219,319.4379577636719
3412,-74.30432891845703,-210.9322204589844,96.28559112548828,312.82952880859375
3413,-91.3620147705078,-217.96697998046875,89.7445068359375,309.05596923828125
3414,-91.3358383178711,-212.58526611328125,83.83172607421875,312.43310546875
3415,-84.8919906616211,-207.4017639160156,83.20716094970703,313.27459716796875
3416,-85.6175308227539,-208.8416290283203,86.2888412475586,310.0283508300781
3417,-94.8924789428711,-213.88861083984372,85.24915313720703,291.340087890625
3418,-92.42788696289062,-204.9727020263672,77.8965072631836,303.1170349121094
3419,-88.8114013671875,-207.44102478027344,74.38099670410156,308.69696044921875
3420,-89.8959732055664,-209.337158203125,85.45110321044922,309.5272216796875
3421,-95.52078247070312,-213.6978759765625,80.66029357910156,301.1573181152344
3422,-88.32147979736328,-207.212890625,75.3122329711914,305.2674560546875
3423,-78.0068359375,-195.0283050537109,78.59587097167969,314.7406311035156
3424,-81.83649444580078,-206.5883331298828,83.23334503173828,308.5286560058594
3425,-87.52861785888672,-211.85037231445312,81.0118408203125,297.52587890625
3426,-84.76483154296875,-212.7329864501953,76.12379455566406,302.9898681640625
3427,-77.22893524169922,-213.89236450195312,70.7308578491211,305.2973937988281
3428,-78.7099380493164,-216.3345184326172,74.21644592285156,297.73529052734375
3429,-88.29904174804688,-219.53961181640625,74.74002838134766,295.3268127441406
3430,-80.64720153808594,-219.32269287109372,72.5559310913086,300.1101379394531
3431,-69.69677734375,-209.82334899902344,69.53782653808594,305.3833923339844
3432,-75.12336730957031,-218.3204040527344,80.38728332519531,305.1365661621094
3433,-87.02747344970703,-227.4607086181641,83.05008697509766,296.7030944824219
3434,-85.16873931884766,-218.1483612060547,78.43131256103516,302.5747375488281
3435,-72.3483657836914,-217.63226318359372,72.71674346923828,309.041015625
3436,-74.86157989501953,-220.50076293945312,77.2195816040039,299.10784912109375
3437,-74.82418060302734,-227.50933837890625,77.35047912597656,292.8248291015625
3438,-76.1593246459961,-220.68028259277344,69.42937469482422,290.812744140625
3439,-71.09175872802734,-209.842041015625,76.80819702148438,308.86151123046875
3440,-79.30458068847656,-221.01312255859372,77.50381469726562,302.4363708496094
3441,-87.97740936279297,-226.1741943359375,74.10050964355469,292.525634765625
3442,-87.83902740478516,-222.03038024902344,75.04669952392578,300.2185974121094
3443,-78.0255355834961,-214.32992553710938,75.62265014648438,307.97515869140625
3444,-78.83708953857422,-219.9771728515625,81.67754364013672,296.7741394042969
3445,-90.41956329345705,-227.2213592529297,78.60708618164062,287.6712341308594
3446,-83.03325653076172,-212.80030822753903,75.49549102783203,293.33343505859375
3447,-79.31205749511719,-205.23074340820312,78.74920654296875,306.7559509277344
3448,-87.58097839355469,-216.43548583984372,74.1640853881836,304.040771484375
3449,-82.47975158691406,-221.77980041503903,83.52131652832031,300.7384338378906
3450,-78.089111328125,-211.884033203125,82.82569122314453,307.04766845703125
3451,-74.35295104980469,-204.759521484375,84.44132995605469,315.7204895019531
3452,-78.33594512939453,-208.59292602539062,79.49718475341797,310.4621887207031
3453,-88.04098510742188,-214.49447631835938,83.0762710571289,305.7087707519531
3454,-88.54212951660156,-207.8935546875,78.96985626220703,307.9452209472656
3455,-72.87569427490234,-202.5716857910156,75.34215545654297,314.17218017578125
3456,-84.35718536376953,-209.8570098876953,86.90592193603516,307.2870178222656
3457,-88.00732421875,-219.3077392578125,86.68901062011719,301.3106384277344
3458,-82.3862533569336,-214.4383850097656,78.94367980957031,302.97491455078125
3459,-72.08283233642578,-214.2102508544922,79.01099395751953,311.19146728515625
3460,-79.36067962646484,-223.60861206054688,80.8659896850586,305.5255126953125
3461,-89.09563446044922,-221.0991516113281,82.78455352783203,301.1460876464844
3462,-87.66325378417969,-218.7130889892578,79.0409164428711,298.5992126464844
3463,-71.72380065917969,-211.94386291503903,79.26156616210938,307.72833251953125
3464,-78.70619201660156,-220.7588195800781,78.25927734375,302.75799560546875
3465,-86.21217346191406,-227.9768218994141,81.82340240478516,296.87139892578125
3466,-83.54562377929688,-219.6929473876953,76.4342041015625,293.0267639160156
3467,-82.47601318359375,-211.6409454345703,75.91436004638672,303.8350830078125
3468,-92.80935668945312,-215.1078186035156,77.24950408935547,301.0787658691406
3469,-92.39422607421876,-217.8641357421875,79.0446548461914,299.2536926269531
3470,-84.60401916503906,-215.56784057617188,78.08350372314453,301.3779602050781
3471,-79.92539978027344,-205.4850616455078,79.8449935913086,315.1482849121094
3472,-85.03410339355469,-211.4240264892578,81.80470275878906,313.53265380859375
3473,-83.15667724609375,-213.4884490966797,89.28823852539062,302.4924621582031
3474,-77.34113311767578,-210.5675811767578,82.57511901855469,305.3534851074219
3475,-70.28019714355469,-202.8858337402344,81.70372772216797,323.31622314453125
3476,-76.6230697631836,-213.5333251953125,85.24166870117188,310.836181640625
3477,-83.79619598388672,-219.3750457763672,86.16168212890625,300.9366455078125
3478,-78.36212158203125,-215.79222106933597,77.87032318115234,309.31402587890625
3479,-76.79510498046875,-205.8590545654297,80.36109924316406,313.125
3480,-79.110107421875,-211.203369140625,81.68502807617188,306.44927978515625
3481,-84.4731216430664,-219.1020355224609,81.40827178955078,298.7413330078125
3482,-78.54911804199219,-212.7778625488281,84.16831970214844,301.5238342285156
3483,-73.22724151611328,-205.0287933349609,83.16228485107422,307.7395324707031
3484,-83.13797760009766,-213.2752685546875,84.58718872070312,301.8978271484375
3485,-86.16729736328125,-214.7001800537109,88.74221801757812,299.8782653808594
3486,-79.82442474365234,-215.781005859375,80.25638580322266,302.3914794921875
3487,-77.51316833496094,-206.31532287597656,75.51792907714844,306.1687927246094
3488,-76.44729614257812,-208.58169555664062,79.0409164428711,303.535888671875
3489,-90.36346435546876,-212.92372131347656,73.96587371826172,296.4712219238281
3490,-85.98777770996094,-208.52186584472656,74.45954132080078,295.6409606933594
3491,-72.57649993896484,-203.7983703613281,74.8447494506836,310.2041320800781
3492,-86.6796646118164,-210.9004364013672,77.97504425048828,302.7280578613281
3493,-95.9396514892578,-216.30833435058597,79.13815307617188,298.37481689453125
3494,-89.4097900390625,-217.09371948242188,80.04320526123047,305.742431640625
3495,-86.63478088378906,-204.26585388183597,78.13585662841797,319.980224609375
3496,-80.89029693603516,-213.21543884277344,78.681884765625,312.6687316894531
3497,-85.54647064208984,-222.6923370361328,83.88782501220703,310.0133972167969
3498,-80.6995620727539,-218.7916259765625,82.45918273925781,311.78985595703125
3499,-70.7813491821289,-216.93289184570312,83.26325988769531,316.4273376464844
3500,-78.83708953857422,-222.81202697753903,76.69599914550781,304.5082702636719
3501,-81.71681213378906,-226.43223571777344,76.02281951904297,296.30291748046875
3502,-78.63887786865234,-224.04244995117188,75.09906005859375,298.9881591796875
3503,-76.17802429199219,-218.1932373046875,68.59163665771484,303.9996337890625
3504,-82.24787902832031,-226.2938690185547,70.6523208618164,302.3054504394531
3505,-79.86556243896484,-229.91783142089844,74.94572448730469,289.1559753417969
3506,-81.17826843261719,-221.99298095703125,77.1747055053711,293.11651611328125
3507,-79.6785659790039,-208.8285369873047,80.7874526977539,299.7249450683594
3508,-80.98005676269531,-213.6193389892578,81.99543762207031,301.4527587890625
3509,-92.07633972167969,-222.25477600097656,79.11571502685547,293.4718322753906
3510,-90.43077850341795,-216.6150054931641,77.52625274658203,297.8026123046875
3511,-89.19287109375,-208.8771514892578,79.53832244873047,308.3940124511719
3512,-90.46070098876952,-206.09466552734372,79.48222351074219,307.619873046875
3513,-92.9626922607422,-213.5295867919922,79.1269302368164,295.62225341796875
3514,-91.44803619384766,-205.63465881347656,81.10160064697266,305.8546142578125
3515,-83.511962890625,-198.6186065673828,81.18387603759766,320.71697998046875
3516,-86.15233612060547,-203.6973876953125,84.6432876586914,314.9912109375
3517,-89.5107650756836,-215.39205932617188,88.9628677368164,306.9915466308594
3518,-81.33534240722656,-209.3782958984375,81.14273834228516,307.8367614746094
3519,-76.71282958984375,-206.47239685058597,81.21379852294922,321.4724426269531
3520,-79.1325454711914,-211.543701171875,77.88902282714844,311.1839904785156
3521,-96.52307891845705,-226.4210205078125,82.70227813720703,298.98443603515625
3522,-82.62934875488281,-223.17852783203125,75.3907699584961,302.94873046875
