,T7,F8,Cz,P4
24000,-42.59558868408203,-237.9006500244141,62.58161544799805,341.1499328613281
24001,-69.33213806152344,-261.51437377929693,63.72602462768555,320.8796691894531
24002,-57.89926147460938,-259.6107788085937,54.64554977416992,317.6484069824219
24003,-32.658676147460945,-229.99822998046875,60.67426681518555,350.3052062988281
24004,-42.48713302612305,-241.21046447753903,64.75450134277344,342.4327087402344
24005,-63.337074279785156,-256.29348754882807,63.55025100708008,319.49591064453125
24006,-56.67631530761719,-253.75408935546875,57.50657272338867,323.8042907714844
24007,-45.13872146606445,-230.99305725097656,52.356727600097656,346.2137451171875
24008,-44.05789184570313,-239.00392150878903,54.23041915893555,342.802978515625
24009,-62.4320182800293,-254.77880859375,59.97116470336914,320.3897399902344
24010,-61.80371856689453,-255.95687866210938,53.246826171875,316.6423645019531
24011,-41.02483367919922,-233.42398071289062,58.92399215698242,348.58111572265625
24012,-40.08237838745117,-232.84056091308597,63.32959747314453,342.8777770996094
24013,-67.99699401855469,-259.16571044921875,57.03534317016602,317.4165344238281
24014,-59.90758895874024,-259.94735717773443,54.26408004760742,323.07501220703125
24015,-41.40256118774414,-234.7366943359375,55.63288116455078,352.31353759765625
24016,-39.2147216796875,-234.6544189453125,60.54336929321289,350.13690185546875
24017,-65.48004150390625,-261.20770263671875,60.33767700195313,318.9049987792969
24018,-55.36360931396485,-251.4091644287109,50.22124481201172,323.7781066894531
24019,-41.02109146118164,-230.9481658935547,48.3999137878418,350.7203369140625
24020,-33.72080612182617,-236.65151977539062,54.791404724121094,346.9393005371094
24021,-59.40644073486328,-257.80438232421875,52.30810928344727,320.0606384277344
24022,-70.3306884765625,-261.20022583007807,46.4215087890625,321.9006652832031
24023,-45.08636474609375,-233.10983276367188,44.12520980834961,351.7226257324219
24024,-31.45442771911621,-230.81727600097656,60.40873336791992,352.3172607421875
24025,-70.61492156982422,-260.2652587890625,54.45855331420898,323.5611877441406
24026,-58.30316925048828,-255.62777709960938,49.69766235351562,321.90814208984375
24027,-39.97018051147461,-231.26980590820312,53.58341598510742,345.8098449707031
24028,-40.09733581542969,-236.87591552734372,57.94787979125977,348.66339111328125
24029,-64.04391479492189,-254.82369995117188,51.38809585571289,317.9962158203125
24030,-62.89202880859375,-257.06015014648443,45.67352676391602,316.6573181152344
24031,-38.42560195922852,-232.51893615722656,46.24199295043945,348.7680969238281
24032,-42.244041442871094,-229.096923828125,59.90758895874024,348.12109375
24033,-59.11098861694336,-261.667724609375,57.55519104003906,318.5833740234375
24034,-57.042823791503906,-254.17669677734372,48.11194229125977,319.64178466796875
24035,-36.97077941894531,-227.8328399658203,53.71805191040039,348.3380126953125
24036,-38.34706497192383,-227.88519287109372,61.77379608154297,348.8616027832031
24037,-67.13681030273439,-255.1266326904297,56.22378540039063,318.4150695800781
24038,-68.32236480712889,-250.9566345214844,51.511512756347656,322.05401611328125
24039,-45.43417358398438,-234.2243194580078,52.1547737121582,351.0232849121094
24040,-44.64505386352539,-229.2091217041016,64.55628204345703,357.5119934082031
24041,-67.96333312988281,-255.5155792236328,57.764625549316406,318.8077697753906
24042,-63.16878128051758,-258.78799438476557,54.99335861206055,326.4259338378906
24043,-38.8444709777832,-226.9763946533203,56.84086990356445,356.90240478515625
24044,-42.81250381469727,-228.2591857910156,61.35866928100586,350.47723388671875
24045,-55.19157409667969,-251.66722106933597,56.55289840698242,319.2752685546875
24046,-59.87766647338867,-253.93359375,57.15502166748047,315.9654541015625
24047,-37.73371887207031,-237.47804260253903,56.71371459960938,339.7586975097656
24048,-39.2035026550293,-234.49359130859372,63.17251968383789,340.81707763671875
24049,-61.86729431152344,-260.4298095703125,59.96368408203125,313.0034484863281
24050,-57.48039245605469,-260.5008544921875,52.66340255737305,317.72320556640625
24051,-40.44514846801758,-234.2579803466797,51.64614868164063,341.84930419921875
24052,-45.20978164672852,-231.2810211181641,57.4729118347168,341.00408935546875
24053,-75.83582305908203,-255.9194793701172,59.709373474121094,316.8181457519531
24054,-66.35517120361328,-258.4027709960937,54.97092056274414,317.94012451171875
24055,-40.78921890258789,-233.0350341796875,58.42658615112305,346.183837890625
24056,-36.31629943847656,-230.3871917724609,62.28616333007813,339.26129150390625
24057,-57.36071395874024,-259.82394409179693,61.74013900756836,316.1487121582031
24058,-68.341064453125,-258.50750732421875,58.43406677246094,319.3949279785156
24059,-47.5247802734375,-234.9984893798828,60.34515762329102,347.3282470703125
24060,-42.22159957885742,-236.65151977539062,59.09228897094727,344.0520935058594
24061,-68.10918426513672,-256.46923828125,59.06237030029297,310.3892517089844
24062,-61.78875732421875,-254.07945251464844,58.83049774169922,313.6953430175781
24063,-41.96728897094727,-235.39491271972656,59.4101791381836,347.13751220703125
24064,-39.996360778808594,-237.76600646972656,61.02581787109375,341.5314025878906
24065,-70.26711273193361,-265.88632202148443,58.84545516967773,313.36248779296875
24066,-63.22861862182617,-261.9556884765625,56.54915618896485,318.4674377441406
24067,-34.66326141357422,-232.4179534912109,60.173118591308594,354.4415283203125
24068,-30.80368614196777,-232.04769897460938,63.827003479003906,353.1400451660156
24069,-62.6713752746582,-254.77880859375,64.62360382080078,324.95989990234375
24070,-56.77355194091797,-262.161376953125,53.90878677368164,320.6590270996094
24071,-38.82950973510742,-235.364990234375,55.1953125,345.0992736816406
24072,-36.91094207763672,-232.4852752685547,59.02497100830078,349.9461669921875
24073,-59.61213684082031,-262.07162475585943,52.506324768066406,321.9642333984375
24074,-63.08650207519531,-259.285400390625,55.28133010864258,323.8080139160156
24075,-41.00987243652344,-238.66732788085938,56.66509246826172,344.98333740234375
24076,-44.06911087036133,-233.9924468994141,60.98468017578125,349.1944580078125
24077,-65.62215423583984,-256.8095703125,58.68838119506836,320.21771240234375
24078,-70.57752227783203,-253.36138916015625,55.47206497192383,321.02178955078125
24079,-37.0268783569336,-230.6003570556641,53.66943359375,347.30206298828125
24080,-39.66350936889648,-228.9996795654297,66.33647918701172,346.46807861328125
24081,-59.04740905761719,-252.6470642089844,62.17022705078125,320.49072265625
24082,-59.47002029418945,-254.51702880859372,54.12570190429688,317.7568664550781
24083,-38.81829071044922,-231.7559967041016,56.470619201660156,350.8213195800781
24084,-43.22389221191406,-229.62799072265625,68.3822021484375,353.27093505859375
24085,-61.54192352294922,-259.52474975585943,62.611534118652344,321.5304260253906
24086,-63.02292251586914,-255.18646240234372,56.56411743164063,325.2852783203125
24087,-35.572059631347656,-229.54571533203125,62.79104995727539,355.6270751953125
24088,-40.17961502075195,-229.81124877929688,58.29943084716797,351.00457763671875
24089,-58.89407348632813,-256.057861328125,57.71600723266602,320.4122009277344
24090,-66.08964538574219,-250.4554901123047,53.186988830566406,320.82733154296875
24091,-41.00239181518555,-226.35183715820312,55.09807586669922,342.7506103515625
24092,-37.26997375488281,-218.2362518310547,64.59741973876953,350.009765625
24093,-58.31813049316406,-238.65235900878903,63.58016967773438,324.05859375
24094,-66.78900146484375,-252.5460968017578,50.46434020996094,316.43292236328125
24095,-35.79645156860352,-223.6703338623047,59.16334915161133,347.1150817871094
24096,-29.30024528503418,-219.8032684326172,68.37097930908203,357.06695556640625
24097,-65.91386413574219,-247.15689086914062,62.37592315673828,322.17742919921875
24098,-70.19231414794922,-250.68736267089844,57.34575653076172,324.5148620605469
24099,-40.63588333129883,-225.0017242431641,58.53130340576172,352.95306396484375
24100,-36.28263854980469,-222.78396606445312,66.69924926757811,357.32501220703125
24101,-56.6688346862793,-243.6638336181641,65.95126342773439,321.077880859375
24102,-57.18120193481445,-249.9618225097656,58.2059326171875,314.33111572265625
24103,-35.078392028808594,-228.61073303222656,57.01290512084961,345.8210754394531
24104,-40.11603546142578,-228.73040771484372,69.26481628417969,347.2833557128906
24105,-54.81758499145508,-249.71499633789062,59.97116470336914,320.8011474609375
24106,-56.91192626953125,-256.93673706054693,61.33996963500977,317.345458984375
24107,-42.92096328735352,-230.1964569091797,59.94124603271485,346.359619140625
24108,-38.98284530639648,-228.6930084228516,64.59368133544922,345.2862548828125
24109,-64.93027496337889,-251.33810424804688,67.78007507324219,321.264892578125
24110,-63.70358657836914,-258.16717529296875,57.74218368530274,321.01055908203125
24111,-38.051612854003906,-235.6679229736328,56.848350524902344,341.3967590332031
24112,-40.0075798034668,-234.7815704345703,58.62480163574219,339.9905700683594
24113,-53.9985466003418,-255.5342712402344,61.90469360351562,313.9982604980469
24114,-62.07299041748047,-254.68157958984372,56.52297973632813,315.0865783691406
24115,-48.53455352783203,-234.3028564453125,56.6089973449707,340.89935302734375
24116,-38.335845947265625,-229.9458770751953,64.76571655273439,345.4732666015625
24117,-55.59174346923828,-255.3248443603516,59.02497100830078,319.2640380859375
24118,-57.6243782043457,-250.8650054931641,60.40125274658203,312.1993713378906
24119,-39.343746185302734,-227.49436950683597,62.95934677124024,342.1297912597656
24120,-35.495391845703125,-228.29470825195312,70.38678741455078,347.7732849121094
24121,-59.8496208190918,-251.6129913330078,62.491859436035156,320.82733154296875
24122,-61.58867263793945,-253.40814208984372,60.53963088989258,312.0497741699219
24123,-39.07073593139648,-230.47882080078125,59.25310516357422,339.4071350097656
24124,-39.18292999267578,-230.3516540527344,58.33308792114258,345.9070739746094
24125,-62.64332580566406,-246.91567993164062,63.0939826965332,317.9887390136719
24126,-68.69448089599611,-253.3931884765625,54.65676879882813,315.16510009765625
24127,-39.33252716064453,-223.4253692626953,63.18000030517578,342.9039611816406
24128,-39.268951416015625,-224.82781982421875,64.25334930419922,344.9234924316406
24129,-59.9318962097168,-248.62106323242188,69.5677490234375,319.45477294921875
24130,-68.70570373535156,-246.0180969238281,58.037635803222656,317.64093017578125
24131,-41.640045166015625,-221.719970703125,58.74821853637695,345.2376403808594
24132,-39.23902893066406,-222.07525634765625,59.80287170410156,348.895263671875
24133,-69.53970336914061,-244.2640838623047,61.81867599487305,320.5094299316406
24134,-68.45138549804689,-249.2044982910156,58.87163543701172,315.7447814941406
24135,-42.96023178100586,-223.25706481933597,59.45132064819336,343.307861328125
24136,-36.32564926147461,-228.36203002929688,60.4124755859375,345.6265869140625
24137,-55.25702285766602,-249.38775634765625,58.27699279785156,321.18634033203125
24138,-60.93418884277344,-254.4029541015625,55.87971496582031,312.9772644042969
24139,-40.98556518554688,-228.2573089599609,53.115928649902344,341.34814453125
24140,-34.98302459716797,-228.5303192138672,63.97659683227539,343.8538818359375
24141,-59.1091194152832,-256.75161743164057,57.82072448730469,313.7663879394531
24142,-55.25702285766602,-254.93402099609372,64.7320556640625,314.2637939453125
24143,-40.76490783691406,-234.46554565429688,58.55374526977539,345.0281982421875
24144,-40.88832473754883,-230.92759704589844,59.14838790893555,341.7109069824219
24145,-63.92237091064453,-259.27230834960943,61.85233688354492,317.09490966796875
24146,-68.52993011474611,-264.58297729492193,52.1846923828125,314.33111572265625
24147,-36.89785385131836,-235.03775024414062,55.06067657470703,342.440185546875
24148,-39.43350601196289,-237.72674560546875,56.30606460571289,342.802978515625
24149,-61.33435821533203,-261.53494262695307,54.01724624633789,313.85614013671875
24150,-64.45343780517578,-260.06143188476557,51.48159408569336,314.78363037109375
24151,-46.73379135131836,-239.59295654296875,53.67317581176758,345.7163391113281
24152,-37.01005172729492,-234.19253540039062,57.64120864868164,347.4927978515625
24153,-61.977622985839844,-253.62879943847656,61.24273300170898,319.9559326171875
24154,-69.13578796386719,-255.0050811767578,58.14235305786133,312.6556396484375
24155,-38.32649612426758,-232.5843811035156,56.74363327026367,340.8507385253906
24156,-47.28729629516602,-226.8436279296875,61.33996963500977,342.7543640136719
24157,-62.31795120239258,-254.8218231201172,63.0528450012207,317.64093017578125
24158,-65.19019317626953,-261.11981201171875,56.44070053100586,312.80523681640625
24159,-42.92283248901367,-234.0541534423828,51.7620849609375,344.2353515625
24160,-44.54968643188477,-232.1468048095703,56.41078186035156,341.090087890625
24161,-68.06617736816406,-257.80252075195307,51.58631134033203,311.5448913574219
24162,-59.43822860717773,-264.65402221679693,45.69222640991211,313.76263427734375
24163,-42.15241241455078,-238.4971618652344,47.55095672607422,335.84674072265625
24164,-37.81412887573242,-233.99058532714844,58.81927490234375,342.3467102050781
24165,-59.47188949584961,-258.29620361328125,58.11243438720703,317.8241882324219
24166,-63.6568374633789,-260.05767822265625,55.67401885986328,310.407958984375
24167,-44.56464767456055,-239.5181579589844,51.57883071899414,338.9808044433594
24168,-40.6003532409668,-232.6965789794922,62.59657669067383,347.1001281738281
24169,-63.53342056274414,-255.19955444335938,59.2792854309082,320.61041259765625
24170,-67.35559844970703,-258.80856323242193,49.23017120361328,311.4364318847656
24171,-42.67226028442383,-231.56712341308597,54.604408264160156,343.7903137207031
24172,-47.87820053100586,-233.70260620117188,56.56411743164063,347.81817626953125
24173,-63.25666809082031,-254.7432861328125,61.16045379638672,323.2320861816406
24174,-61.54379272460938,-251.7364044189453,52.53250503540039,309.8020935058594
24175,-41.96915817260742,-232.3375396728516,54.92604064941406,336.0599365234375
24176,-37.1783447265625,-228.94918823242188,56.49305725097656,344.6093444824219
24177,-60.88557052612305,-247.55894470214844,56.11906814575195,315.7709655761719
24178,-68.92261505126953,-253.9279937744141,44.248626708984375,315.1202392578125
24179,-37.50371551513672,-222.8830718994141,53.11219024658203,343.7267150878906
24180,-38.16193771362305,-230.6882476806641,61.31753158569336,344.24658203125
24181,-53.63764572143555,-255.4127349853516,57.270957946777344,322.34197998046875
24182,-61.09126663208008,-253.9766082763672,46.75809860229492,319.1630554199219
24183,-40.5704345703125,-233.44454956054688,47.41258239746094,336.6919860839844
24184,-32.858760833740234,-228.6238250732422,61.09313583374024,345.0431823730469
24185,-56.34907150268555,-256.661865234375,55.9470329284668,315.1015319824219
24186,-66.97412872314453,-258.78237915039057,51.60126876831055,317.8802795410156
24187,-38.79024124145508,-226.8473663330078,56.80347061157226,348.5063171386719
24188,-38.84634017944336,-228.8706512451172,62.20014572143555,348.83917236328125
24189,-59.35595321655274,-251.79998779296875,59.60465621948242,316.6835021972656
24190,-66.35704803466797,-253.4268341064453,51.18614196777344,310.6772155761719
24191,-41.58020782470703,-230.9163818359375,50.51295852661133,340.585205078125
24192,-41.61012649536133,-222.7259979248047,60.82012176513672,348.1958923339844
24193,-65.91947937011719,-247.6150360107422,55.82361602783203,319.6455078125
24194,-63.91489028930664,-248.65098571777344,53.60211563110352,313.4559631347656
24195,-37.59721374511719,-227.19517517089844,50.35962295532226,344.9945373535156
24196,-35.66742706298828,-223.1224365234375,57.8843002319336,343.6182556152344
24197,-62.31421279907226,-254.01026916503903,54.38375473022461,317.81671142578125
24198,-62.28429412841797,-252.13282775878903,48.2989387512207,310.8230895996094
24199,-39.7551383972168,-230.79296875,51.53769302368164,341.1424560546875
24200,-40.42457962036133,-224.22195434570312,57.21112060546875,346.8308410644531
24201,-63.24918746948242,-255.35662841796875,47.13582992553711,317.9214172363281
24202,-61.0763053894043,-253.7035980224609,48.57194900512695,312.779052734375
24203,-44.134559631347656,-233.26878356933597,46.780540466308594,334.4480285644531
24204,-41.71858215332031,-226.6865539550781,56.24248504638672,345.1329345703125
24205,-61.899085998535156,-251.9346160888672,50.50173950195313,314.9407043457031
24206,-65.53052520751953,-256.54217529296875,48.89358139038086,312.7603454589844
24207,-44.134559631347656,-242.8017883300781,53.04487228393555,341.6884765625
24208,-44.08967971801758,-233.4034118652344,53.71057510375977,344.482177734375
24209,-65.30239105224611,-253.28099060058597,54.01350402832031,318.2617492675781
24210,-64.21781921386719,-257.85113525390625,53.55723571777344,312.5733642578125
24211,-46.01947021484375,-235.86801147460938,47.83145141601562,341.87921142578125
24212,-35.23733901977539,-228.57521057128903,62.28242492675781,344.22039794921875
24213,-56.80533981323242,-250.17686462402344,63.71106719970703,320.58795166015625
24214,-65.06304168701172,-259.70614624023443,57.63746643066406,312.9211730957031
24215,-38.13576126098633,-232.65170288085938,56.34720230102539,342.8216552734375
24216,-36.108734130859375,-230.77426147460938,63.72976684570313,347.5264587402344
24217,-52.26510238647461,-253.96913146972656,61.07069778442383,317.5736083984375
24218,-65.01068115234375,-257.17794799804693,55.69646072387695,308.99053955078125
24219,-47.7061653137207,-232.92845153808597,51.53021240234375,342.4701232910156
24220,-39.76261520385742,-236.04379272460938,58.9688720703125,346.59149169921875
24221,-61.34183883666992,-256.50479125976557,58.909034729003906,321.4892883300781
24222,-63.03975296020508,-259.8145751953125,54.903602600097656,315.4493408203125
24223,-47.57900619506836,-235.7109375,48.841224670410156,341.1387023925781
24224,-39.13805389404297,-228.35081481933597,54.38375473022461,345.7238464355469
24225,-50.40262985229492,-246.4145355224609,55.935813903808594,320.77496337890625
24226,-70.31011962890625,-253.67367553710938,46.8441162109375,310.20599365234375
24227,-38.89122009277344,-232.0383453369141,53.81155014038086,339.2538146972656
24228,-36.19101333618164,-227.9095001220703,58.77065658569336,344.4410400390625
24229,-55.06254577636719,-247.0390930175781,55.9395523071289,313.9234619140625
24230,-60.39564514160156,-252.72373962402344,50.53913879394531,309.4767150878906
24231,-36.695899963378906,-232.2328338623047,47.83893203735352,337.4923095703125
24232,-24.15975379943848,-224.49497985839844,58.183494567871094,347.1749267578125
24233,-63.30902481079102,-252.44325256347656,53.00747299194336,318.8376770019531
24234,-60.08897399902344,-258.8870849609375,49.55928421020508,311.78424072265625
24235,-37.66079330444336,-232.6965789794922,47.34900283813477,338.82745361328125
24236,-33.27389144897461,-229.36805725097656,56.54915618896485,348.4090881347656
24237,-50.00994110107422,-251.0707092285156,57.26721954345703,321.90814208984375
24238,-58.28260040283203,-262.33154296875,49.42838668823242,310.4416198730469
24239,-37.44013977050781,-239.2638397216797,48.04088592529297,334.5863952636719
24240,-30.25579071044922,-229.9327850341797,57.37941360473633,342.8441162109375
24241,-62.31421279907226,-258.63278198242193,58.35178756713867,315.29974365234375
24242,-64.43473815917969,-258.05682373046875,53.03364944458008,313.3587341308594
24243,-42.96397018432617,-239.6191253662109,47.28916549682617,330.95123291015625
24244,-34.014389038085945,-232.77511596679688,57.82820129394531,340.7160949707031
24245,-65.73995971679689,-254.8031311035156,53.77789306640625,313.93841552734375
24246,-72.54657745361328,-257.6454467773437,50.43442153930664,312.15447998046875
24247,-46.92078399658203,-232.31137084960938,46.4514274597168,332.01336669921875
24248,-41.11272048950195,-231.8401336669922,54.19676208496094,342.95257568359375
24249,-68.02503967285156,-256.2953491210937,57.615028381347656,315.0865783691406
24250,-75.59459686279297,-261.8715209960937,51.24224090576172,312.19189453125
24251,-40.80230712890625,-239.0880584716797,51.68354797363281,340.244873046875
24252,-34.728710174560554,-236.74688720703125,58.06007766723633,348.6970520019531
24253,-56.831520080566406,-258.26626586914057,57.75714492797852,322.0689697265625
24254,-61.15110397338867,-262.249267578125,53.94244766235352,317.03131103515625
24255,-37.32046127319336,-239.4620513916016,50.82337188720703,347.5638732910156
24256,-27.55558204650879,-233.3847198486328,57.083961486816406,354.5948791503906
24257,-53.38333129882813,-250.1880798339844,61.9570541381836,327.615234375
24258,-59.74116134643555,-256.14199829101557,59.88888931274414,320.9881286621094
24259,-42.16363143920898,-234.00927734375,58.17975234985352,344.6242980957031
24260,-38.43869018554688,-229.5288848876953,61.49330520629883,349.0261535644531
24261,-56.37525177001953,-253.28099060058597,60.12076187133789,327.98175048828125
24262,-67.98016357421875,-262.65692138671875,50.9580078125,312.07220458984375
24263,-44.38887405395508,-240.5952453613281,53.69561386108398,343.73046875
24264,-37.99738311767578,-223.1822662353516,55.38230895996094,349.20941162109375
24265,-67.24340057373047,-248.18724060058597,51.25345993041992,317.7493896484375
24266,-71.01696014404297,-259.98663330078125,51.58256912231445,310.056396484375
24267,-48.76081466674805,-238.0408935546875,58.2246322631836,340.92181396484375
24268,-40.83596801757813,-232.65170288085938,57.53274917602539,343.143310546875
24269,-61.255821228027344,-255.17710876464844,61.69152069091797,313.5644226074219
24270,-67.98016357421875,-264.0631103515625,57.86934280395508,314.28997802734375
24271,-41.550289154052734,-233.4632568359375,57.992759704589844,345.2376403808594
24272,-33.44592666625977,-225.9497985839844,61.55314254760742,351.9956359863281
24273,-52.41843795776367,-248.9651336669922,61.003379821777344,324.95989990234375
24274,-55.41409683227539,-262.8925170898437,56.09663009643555,316.346923828125
24275,-46.01572799682617,-239.7462921142578,55.4945068359375,340.13641357421875
24276,-32.12574005126953,-227.35226440429688,62.07299041748047,350.88116455078125
24277,-54.06399536132813,-248.96139526367188,63.05658340454102,324.2568054199219
24278,-55.87410354614258,-258.26626586914057,57.233558654785156,317.3230285644531
24279,-39.0744743347168,-233.5156097412109,59.7505111694336,343.8613586425781
24280,-39.04829406738281,-232.93592834472656,53.81155014038086,345.3685302734375
24281,-64.73392486572266,-256.26541137695307,56.638916015625,316.14495849609375
24282,-78.14521026611328,-261.82666015625,52.03509902954102,311.0175476074219
24283,-52.10802459716797,-236.2868804931641,54.97840118408203,335.42041015625
24284,-42.79567337036133,-225.2728729248047,56.05548858642578,344.9085388183594
24285,-62.5311279296875,-244.0509185791016,55.9881706237793,321.2611389160156
24286,-76.6679458618164,-262.1258544921875,47.93242645263672,311.9674987792969
24287,-43.01258850097656,-234.8320617675781,45.17238235473633,341.15740966796875
24288,-37.63087463378906,-227.62527465820312,54.20423889160156,346.21002197265625
24289,-53.499267578125,-253.44927978515625,56.893226623535156,318.2542724609375
24290,-66.54403686523439,-266.26593017578125,48.97211837768555,309.20745849609375
24291,-40.129127502441406,-242.85040283203125,52.02013778686523,339.15655517578125
24292,-28.987964630126953,-236.49256896972656,60.14694213867188,345.3573303222656
24293,-51.58443832397461,-254.6647491455078,63.36325454711914,322.35321044921875
24294,-55.48889541625977,-264.65774536132807,58.28446960449219,311.7655334472656
24295,-33.33746719360352,-244.5221405029297,55.30377197265625,341.8455505371094
24296,-24.53748321533203,-235.9540252685547,65.07987213134766,349.4076232910156
24297,-48.00535583496094,-257.19293212890625,66.10459899902344,326.2351989746094
24298,-58.99318313598633,-262.85885620117193,56.36590194702149,312.1170959472656
24299,-31.99858474731445,-236.6533966064453,57.36445617675781,343.1732177734375
24300,-33.520721435546875,-230.84906005859372,55.13921356201172,348.225830078125
24301,-55.73946762084961,-252.6190185546875,60.4835319519043,320.5318603515625
24302,-63.64187622070313,-258.9693603515625,56.2462272644043,311.2980651855469
24303,-45.63051986694336,-239.15164184570312,54.83628463745117,328.4193115234375
24304,-42.081356048583984,-228.3807373046875,51.975257873535156,338.7638854980469
24305,-65.42581176757811,-253.10520935058597,51.30207824707031,318.6133117675781
24306,-68.64586639404297,-259.02920532226557,53.04113006591797,309.0279235839844
24307,-47.25737762451172,-232.6030731201172,49.36854934692383,333.1016845703125
24308,-32.45111083984375,-228.27227783203125,58.46024703979492,344.6205749511719
24309,-61.4166374206543,-246.21630859375,57.14006042480469,320.501953125
24310,-60.5938606262207,-258.3111572265625,53.48617935180664,310.5799865722656
24311,-43.53243637084961,-230.84158325195312,59.68319320678711,339.059326171875
24312,-33.853572845458984,-230.9687347412109,59.57099533081055,344.8636474609375
24313,-47.67998504638672,-244.7203521728516,68.98432159423828,327.6601257324219
24314,-62.72560119628906,-255.9325714111328,61.98697280883789,316.47406005859375
24315,-38.247955322265625,-235.4304351806641,57.60754776000977,344.6803894042969
24316,-29.021623611450195,-233.83351135253903,58.76317977905274,349.905029296875
24317,-49.84538650512695,-251.3549346923828,65.81288909912111,323.7706298828125
24318,-56.046142578125,-257.46218872070307,54.26781845092773,319.70159912109375
24319,-42.077613830566406,-236.69265747070312,51.06833267211914,344.1904602050781
24320,-31.48995780944824,-232.4964904785156,56.34907150268555,347.62744140625
24321,-56.640785217285156,-262.53536987304693,46.804847717285156,315.17633056640625
24322,-62.81161880493164,-265.48614501953125,45.88483428955078,307.367431640625
24323,-41.37077331542969,-242.47080993652344,43.04250717163086,333.0268859863281
24324,-39.69529724121094,-235.2041778564453,54.434242248535156,338.3487548828125
24325,-59.95807647705078,-260.388671875,55.44027709960938,313.62054443359375
24326,-69.24798583984375,-268.81838989257807,52.29875946044922,306.5857849121094
24327,-51.99956893920898,-242.9682159423828,52.826087951660156,330.47625732421875
24328,-41.583946228027344,-234.1196136474609,57.39250564575195,344.3662414550781
24329,-58.76504898071289,-260.40737915039057,56.17703628540039,321.253662109375
24330,-66.24858856201172,-269.23727416992193,49.965065002441406,307.7301940917969
24331,-46.04938888549805,-251.5849456787109,41.38947296142578,329.63104248046875
24332,-38.39007186889648,-238.90293884277344,52.99438095092773,348.6484375
24333,-65.82224273681639,-261.046875,54.12383270263672,322.00537109375
24334,-64.30384063720703,-268.9866943359375,53.65260314941406,309.5403137207031
24335,-37.27184295654297,-245.39913940429688,51.36004638671875,337.2791442871094
24336,-37.99364471435547,-239.2694549560547,57.14192962646485,350.7315673828125
24337,-50.87012100219727,-251.2333831787109,59.5504264831543,323.306884765625
24338,-58.28634262084961,-258.5897827148437,53.56284713745117,320.1690979003906
24339,-45.64173889160156,-241.8686828613281,48.23722839355469,342.18963623046875
24340,-30.061315536499023,-234.695556640625,58.37983703613281,350.4922180175781
24341,-51.21419143676758,-257.13494873046875,55.97134399414063,317.9139404296875
24342,-63.92985153198242,-269.39434814453125,51.2403678894043,309.4093933105469
24343,-50.60084533691406,-250.21987915039062,47.35835266113281,325.4535827636719
24344,-37.5897331237793,-235.84744262695312,55.06254577636719,341.4079895019531
24345,-63.2529296875,-255.74745178222656,55.264503479003906,318.882568359375
24346,-72.71487426757812,-264.61102294921875,52.82234573364258,307.1430358886719
24347,-46.26630401611328,-248.5892791748047,53.39455032348633,332.67156982421875
24348,-37.81038665771485,-233.60723876953125,53.61146545410156,342.3242492675781
24349,-57.50844192504883,-257.22097778320307,60.97906875610352,325.161865234375
24350,-70.39239501953125,-268.88946533203125,46.89460372924805,308.12286376953125
24351,-42.735836029052734,-250.2797088623047,54.9540901184082,333.6065673828125
24352,-33.34120941162109,-237.4144592285156,60.36946487426758,351.453369140625
24353,-55.60857391357422,-253.35765075683597,57.19429016113281,322.6598815917969
24354,-64.50205230712889,-260.92721557617193,61.78314590454102,314.02069091796875
24355,-55.877845764160156,-240.3802032470703,55.65345001220703,336.40399169921875
24356,-36.53508377075195,-227.6832427978516,61.92152404785156,348.67462158203125
24357,-56.52484893798828,-249.1166076660156,61.81306457519531,324.02117919921875
24358,-64.3973388671875,-255.1752471923828,59.771080017089844,310.65106201171875
24359,-44.444969177246094,-234.2318115234375,58.27138137817383,337.33148193359375
24360,-36.14239501953125,-226.2059783935547,58.55561447143555,343.2854309082031
24361,-61.7382698059082,-249.71499633789062,60.61629867553711,317.91766357421875
24362,-64.08692932128906,-261.7799072265625,54.9727897644043,304.0389099121094
24363,-50.30913543701172,-244.92791748046875,49.59481430053711,328.6997985839844
24364,-43.603492736816406,-236.63656616210938,55.88532638549805,341.5650634765625
24365,-65.77362060546875,-253.94482421875,59.45318984985352,319.79510498046875
24366,-70.20914459228516,-259.59579467773443,49.76684951782226,306.1220397949219
24367,-55.18970489501953,-238.54391479492188,45.81751251220703,330.77545166015625
24368,-45.12189483642578,-232.7769775390625,49.80424880981445,343.01239013671875
24369,-63.05845260620117,-253.4474029541016,48.25967025756836,319.2191467285156
24370,-70.39613342285156,-264.24822998046875,46.09426879882813,310.5949401855469
24371,-48.40178680419922,-240.91500854492188,43.66707229614258,338.3487548828125
24372,-40.48441696166992,-228.5434112548828,56.1171989440918,348.9139709472656
24373,-62.84901809692383,-251.9439697265625,60.71727752685547,322.110107421875
24374,-72.43812561035156,-259.94735717773443,52.80738830566406,308.9007873535156
24375,-50.89255905151367,-238.1138153076172,50.98231506347656,332.6192321777344
24376,-36.61735916137695,-227.99365234375,63.02479553222656,349.927490234375
24377,-52.04070663452149,-247.48974609375,60.72101593017578,324.3353576660156
24378,-64.68531036376953,-263.182373046875,60.99776840209961,313.2427978515625
24379,-46.40841674804688,-244.3482360839844,55.16726303100586,339.93072509765625
24380,-35.36823272705078,-229.8710784912109,57.91983032226562,349.9087829589844
24381,-53.22625732421875,-246.87640380859372,60.16376876831055,321.2461853027344
24382,-62.8826789855957,-262.3782958984375,53.630165100097656,307.3636779785156
24383,-45.30140686035156,-241.17306518554688,48.72715759277344,328.96160888671875
24384,-41.965415954589844,-231.66622924804688,50.20815658569336,340.173828125
24385,-57.60942077636719,-257.60244750976557,50.00994110107422,315.655029296875
24386,-72.03795623779297,-265.8788452148437,43.81292724609375,300.0970458984375
24387,-47.01802062988281,-237.08160400390625,46.74874877929688,330.7380676269531
24388,-36.13491439819336,-233.30430603027344,52.68770980834961,343.19940185546875
24389,-64.10188293457031,-248.90342712402344,55.64223098754883,319.3537902832031
24390,-64.68157196044922,-265.42257690429693,53.4356918334961,306.0285339355469
24391,-55.31686019897461,-248.3574066162109,49.2208251953125,332.0096130371094
24392,-40.30116271972656,-235.91102600097656,61.84298706054688,345.2039794921875
24393,-55.04010772705078,-251.315673828125,64.23278045654297,322.345703125
24394,-65.73622131347656,-267.07186889648443,52.83730697631836,304.7719421386719
24395,-46.7038688659668,-242.2314453125,59.19513702392578,335.51763916015625
24396,-38.18063735961914,-233.3117828369141,66.31590270996094,346.7897033691406
24397,-51.09451293945313,-252.6134185791016,68.47008514404297,328.6960754394531
24398,-61.51013565063477,-262.8719482421875,62.29551315307617,312.790283203125
24399,-31.463777542114254,-242.33616638183597,62.03746032714844,338.2365417480469
24400,-26.104501724243164,-233.34544372558597,62.66576385498047,349.77789306640625
24401,-50.68686294555664,-250.5901336669922,66.95542907714844,324.6495056152344
24402,-70.46345520019531,-261.31988525390625,62.994873046875,317.9101867675781
24403,-52.96820449829102,-251.40542602539062,53.07292175292969,333.99176025390625
24404,-47.49673080444336,-239.38912963867188,58.94830322265625,342.8104553222656
24405,-65.08921813964844,-256.82827758789057,60.10393142700195,315.8532409667969
24406,-73.45911407470703,-268.72116088867193,52.90088653564453,310.396728515625
24407,-48.92911148071289,-245.07003784179688,46.01947021484375,331.0110778808594
24408,-44.31033325195313,-231.82704162597656,56.42013168334961,348.25201416015625
24409,-65.95687866210939,-252.0000762939453,55.23832321166992,317.9064636230469
24410,-76.91104125976562,-259.47613525390625,55.7656478881836,313.25775146484375
24411,-56.1396369934082,-243.56658935546875,50.656944274902344,332.0208435058594
24412,-38.93610000610352,-234.7404327392578,57.57949829101562,344.31390380859375
24413,-61.73078918457031,-253.15570068359372,62.60592651367188,326.10430908203125
24414,-66.99282836914061,-263.1449584960937,56.05361938476562,307.72271728515625
24415,-45.67165756225586,-245.95639038085938,48.22600936889648,332.7314147949219
24416,-31.456298828125,-229.942138671875,62.83779907226562,355.6607360839844
24417,-55.83296585083008,-251.4353485107422,65.29117584228516,330.7530212402344
24418,-69.59205627441406,-266.0321655273437,57.10827255249024,313.9197082519531
24419,-41.505409240722656,-248.3424530029297,57.32518768310547,337.89996337890625
24420,-31.90882682800293,-231.65875244140625,54.59505844116211,353.9441223144531
24421,-56.1396369934082,-252.35162353515625,59.25497436523438,329.1336364746094
24422,-76.8624267578125,-271.668212890625,53.94805526733398,313.1231384277344
24423,-52.39973831176758,-245.6197967529297,48.5401611328125,331.4710693359375
24424,-39.066993713378906,-237.9567413330078,53.92935562133789,345.5555419921875
24425,-62.49746704101562,-256.91055297851557,60.2535285949707,321.9866943359375
24426,-69.10961151123047,-267.08682250976557,56.21443557739258,308.5604553222656
24427,-60.23482894897461,-251.7794189453125,49.60603332519531,328.0677490234375
24428,-41.54280853271485,-230.3310852050781,59.09041976928711,346.688720703125
24429,-62.5834846496582,-257.10128784179693,61.06134796142578,318.19818115234375
24430,-67.63609313964844,-265.69558715820307,54.94660949707031,303.18994140625
24431,-50.196937561035156,-243.9293670654297,58.52569580078125,334.0366516113281
24432,-35.820762634277344,-230.73126220703125,61.36427688598633,347.6498718261719
24433,-57.399986267089844,-255.5567169189453,63.67927551269531,320.9769287109375
24434,-65.84841918945311,-266.7128295898437,61.22964096069336,313.5494689941406
24435,-48.72341537475586,-238.5065155029297,59.729942321777344,337.55963134765625
24436,-38.36763381958008,-228.53219604492188,63.55212020874024,352.47808837890625
24437,-61.04638671875,-246.33786010742188,63.90367126464844,333.9468994140625
24438,-61.7569694519043,-254.1542510986328,66.8095703125,321.3434143066406
24439,-41.21743774414063,-239.2769317626953,55.09620666503906,344.15679931640625
24440,-29.103900909423828,-226.0863037109375,59.33725357055664,354.91650390625
24441,-51.1693115234375,-251.89161682128903,56.81655883789063,335.8729248046875
24442,-62.10103988647461,-261.00949096679693,52.75128936767578,319.716552734375
24443,-44.96107864379883,-247.35885620117188,51.5283432006836,335.38299560546875
24444,-34.511795043945305,-234.60205078125,55.70954895019531,345.7088623046875
24445,-55.59361267089844,-256.31216430664057,51.70785522460938,321.9156188964844
24446,-72.19876861572266,-266.69039916992193,46.32987976074219,306.21551513671875
24447,-50.88134002685547,-245.5300445556641,43.330482482910156,330.9848937988281
24448,-40.551734924316406,-227.8552703857422,51.6031379699707,342.94134521484375
24449,-53.0056037902832,-248.0507354736328,52.26510238647461,321.7211608886719
24450,-69.99222564697266,-261.10299682617193,52.7475471496582,306.8176574707031
24451,-54.90921020507813,-245.4701995849609,48.35690689086914,331.52716064453125
24452,-38.14698028564453,-224.3958740234375,57.23542785644531,347.3170166015625
24453,-59.53546905517578,-250.02166748046875,58.23772048950195,317.95880126953125
24454,-66.74973297119139,-265.1009521484375,52.11924743652344,310.9539794921875
24455,-56.22565460205078,-244.04156494140625,56.62956619262695,334.9529113769531
24456,-33.614219665527344,-227.1446990966797,59.87579727172852,359.12762451171875
24457,-60.9753303527832,-246.7342834472656,58.626670837402344,333.976806640625
24458,-63.38756561279297,-258.80294799804693,62.30299377441406,324.656982421875
24459,-45.86613464355469,-241.28900146484372,56.84647750854492,341.4940185546875
24460,-24.76935768127441,-224.69505310058597,69.90621185302734,364.2026672363281
24461,-48.34194564819336,-247.37754821777344,68.79920196533203,334.0815124511719
24462,-72.87569427490234,-270.77810668945307,54.06025314331055,313.5756530761719
24463,-54.94660949707031,-245.41036987304688,53.84333801269531,335.2147216796875
24464,-40.56295394897461,-241.15435791015625,58.90342330932617,350.57073974609375
24465,-49.894004821777344,-256.58892822265625,58.95578384399414,326.7887268066406
24466,-60.46296310424805,-274.89572143554693,52.485755920410156,312.2255554199219
24467,-46.55427551269531,-257.5426025390625,42.38802719116211,330.5473327636719
24468,-36.65850067138672,-239.07872009277344,48.80569458007813,349.4487609863281
24469,-52.31745910644531,-263.5077514648437,49.965065002441406,327.3758850097656
24470,-69.37888336181639,-270.40786743164057,45.40612411499024,311.7169189453125
24471,-47.7473030090332,-254.04579162597656,38.62942504882813,326.26885986328125
24472,-40.73125076293945,-240.10345458984372,43.35292053222656,342.2943420410156
24473,-58.72390747070313,-253.65310668945312,52.79616928100586,318.9124755859375
24474,-65.15279388427734,-268.3060302734375,46.06434631347656,303.4928894042969
24475,-42.46282577514648,-245.23458862304688,52.11176681518555,332.4584045410156
24476,-31.32166290283203,-232.2534027099609,60.111412048339844,348.9289245605469
24477,-47.64258575439453,-250.6724090576172,61.409156799316406,323.5350036621094
24478,-54.74091720581055,-255.0967102050781,58.7687873840332,310.25836181640625
24479,-39.38862609863281,-235.18548583984372,52.60543441772461,335.009033203125
24480,-21.69890022277832,-220.6297912597656,62.29925155639648,358.2599792480469
24481,-48.8804931640625,-254.32254028320312,62.96121597290039,330.573486328125
24482,-60.2722282409668,-264.00515747070307,56.82403945922852,322.2933654785156
24483,-39.60927963256836,-247.42242431640625,54.36318588256836,343.27044677734375
24484,-22.704933166503906,-230.8733673095703,62.50868606567383,361.278076171875
24485,-54.78205490112305,-255.0780029296875,58.99318313598633,329.23834228515625
24486,-68.42147064208984,-270.6322631835937,49.74814987182617,313.34002685546875
24487,-55.09620666503906,-247.65805053710938,45.11441421508789,329.51885986328125
24488,-34.306102752685554,-232.0626678466797,45.77263641357422,347.0215759277344
24489,-61.255821228027344,-255.4258117675781,50.93743896484375,326.5044860839844
24490,-62.66950225830078,-268.5640869140625,48.1175537109375,310.58746337890625
24491,-49.87904739379883,-246.9512023925781,44.02984237670898,335.2034912109375
24492,-34.78854751586914,-233.9700164794922,51.96965026855469,351.5318908691406
24493,-56.98859405517578,-254.09066772460938,55.54873275756836,325.90985107421875
24494,-64.18790435791016,-266.75396728515625,53.89196014404297,308.9606018066406
24495,-48.92537307739258,-243.87326049804688,53.57406616210938,331.1756286621094
24496,-31.89386749267578,-229.0333404541016,60.305885314941406,352.02557373046875
24497,-52.77746963500977,-241.9135589599609,61.13988494873047,326.1117858886719
24498,-63.00609588623047,-254.38612365722656,62.03746032714844,313.06329345703125
24499,-42.4478645324707,-232.88543701171875,55.17848205566406,341.2696228027344
24500,-31.246864318847656,-221.8377685546875,62.089820861816406,356.43115234375
24501,-52.61291122436523,-237.8894195556641,66.05411529541016,336.8939208984375
24502,-56.19199752807617,-249.96929931640625,64.78254699707031,319.7689208984375
24503,-43.300559997558594,-234.45245361328125,57.84877395629883,340.02423095703125
24504,-29.376914978027344,-214.9675750732422,64.861083984375,362.2504577636719
24505,-44.56090927124024,-240.43255615234372,66.92925262451172,332.42474365234375
24506,-70.18669891357422,-264.29312133789057,52.485755920410156,315.3782958984375
24507,-45.316368103027344,-252.1122589111328,51.73029708862305,332.9034423828125
24508,-38.3526725769043,-234.7404327392578,56.47248840332031,346.7074279785156
24509,-65.56792449951172,-254.4758758544922,53.24495697021485,319.5295715332031
24510,-79.31205749511719,-273.3175048828125,45.74645614624024,305.58721923828125
24511,-61.66720962524414,-247.37380981445312,45.45100402832031,326.45587158203125
24512,-49.894004821777344,-227.96372985839844,54.75213623046875,344.6242980957031
24513,-60.6649169921875,-252.0412139892578,56.13589859008789,325.9248046875
24514,-70.65045166015625,-265.99478149414057,55.728248596191406,308.3285827636719
24515,-53.66008377075195,-247.68048095703125,48.44666290283203,334.657470703125
24516,-33.24023056030273,-231.61761474609372,57.89739227294922,355.01373291015625
24517,-49.35171890258789,-251.53631591796875,64.89100646972656,329.8330078125
24518,-54.84563446044922,-263.93408203125,63.7054557800293,314.04315185546875
24519,-40.54425430297852,-246.85397338867188,61.59241104125977,336.2170104980469
24520,-27.714529037475586,-229.3568420410156,65.00881195068361,357.98883056640625
24521,-38.807071685791016,-243.5348052978516,69.70612335205078,338.6647644042969
24522,-51.94908142089844,-251.53445434570312,68.57667541503906,320.68707275390625
24523,-42.00842666625977,-229.37554931640625,61.92339324951172,343.6014404296875
24524,-24.083086013793945,-220.25392150878903,71.59477233886719,368.5091857910156
24525,-44.29724502563477,-237.21810913085938,73.29268646240234,344.6411437988281
24526,-60.9360580444336,-249.5149078369141,67.13307189941406,325.8705749511719
24527,-49.00204086303711,-237.1059112548828,59.39896011352539,344.97772216796875
24528,-28.66820335388184,-222.3594970703125,65.40149688720703,355.097900390625
24529,-53.59463500976562,-249.16709899902344,59.4101791381836,331.342041015625
24530,-81.27737426757812,-262.22683715820307,59.63831329345703,317.3099365234375
24531,-58.09747695922852,-245.124267578125,52.05005645751953,336.3759460449219
24532,-34.06488037109375,-227.77487182617188,54.18553924560547,352.06109619140625
24533,-57.24851989746094,-252.60780334472656,54.40619277954102,327.6021423339844
24534,-61.89347457885742,-266.04153442382807,52.73072052001953,312.2984619140625
24535,-48.2989387512207,-245.82362365722656,50.13148880004883,330.5603942871094
24536,-37.85713577270508,-228.6313018798828,55.10929489135742,346.84393310546875
24537,-48.16430282592773,-246.2462310791016,61.48582458496094,331.1251220703125
24538,-58.759437561035156,-260.3456420898437,59.46627807617188,313.11376953125
24539,-41.84012985229492,-245.1205291748047,52.24827194213867,331.28594970703125
24540,-27.63973045349121,-229.82432556152344,61.08191680908203,349.55535888671875
24541,-36.71272659301758,-243.87887573242188,59.20448684692383,324.6214599609375
24542,-59.327903747558594,-263.5582275390625,57.87682342529297,308.5885009765625
24543,-36.5145149230957,-240.3297119140625,57.21112060546875,332.692138671875
24544,-22.445009231567386,-230.1497039794922,67.9595947265625,355.2175598144531
24545,-33.90780258178711,-243.78163146972656,70.86549377441406,342.6552429199219
24546,-53.57967758178711,-249.84776306152344,66.216796875,321.7529296875
24547,-39.427894592285156,-237.71925354003903,56.66509246826172,341.7838439941406
24548,-37.77859878540039,-226.03955078125,57.27843856811523,351.0625305175781
24549,-68.71131134033203,-251.8934783935547,57.28965759277344,329.1803894042969
24550,-72.16323852539062,-268.023681640625,51.87428283691406,310.30511474609375
24551,-56.28362274169922,-253.65122985839844,44.69367599487305,328.5408630371094
24552,-41.70175552368164,-233.65773010253903,56.68379211425781,354.8510437011719
24553,-62.54795837402344,-258.29620361328125,59.14464950561523,331.1139221191406
24554,-75.6525650024414,-272.3881225585937,55.13921356201172,314.36663818359375
24555,-56.6688346862793,-254.1187286376953,55.16165542602539,331.3757019042969
24556,-34.91009521484375,-234.7796936035156,55.73386001586914,350.43048095703125
24557,-53.6806526184082,-252.42828369140625,54.86620330810547,326.0650329589844
24558,-67.50332641601561,-268.41262817382807,54.4024543762207,317.62408447265625
24559,-52.55868530273438,-245.9058990478516,49.96693420410156,333.4326477050781
24560,-29.846271514892575,-232.0383453369141,56.54541778564453,348.3099670410156
24561,-42.72648620605469,-251.42599487304688,63.95415878295898,329.58056640625
24562,-57.25225830078125,-261.49380493164057,59.61587524414063,311.34478759765625
24563,-31.71996116638184,-240.5952453613281,58.609840393066406,334.909912109375
24564,-27.374197006225586,-226.6416778564453,61.87103652954102,351.1148986816406
24565,-41.96728897094727,-240.7523193359375,66.10459899902344,337.01922607421875
24566,-62.63023376464844,-254.21221923828125,63.06032180786133,320.7095031738281
24567,-43.01445770263672,-235.8380889892578,59.20074462890625,341.1817321777344
24568,-31.22255516052246,-224.7530212402344,57.693565368652344,349.2823486328125
24569,-51.28337860107422,-244.68295288085938,56.79973220825195,323.899658203125
24570,-63.68488693237305,-264.11920166015625,49.94075393676758,310.4060974121094
24571,-45.2883186340332,-243.9461975097656,46.27939224243164,329.2477111816406
24572,-33.81804656982422,-230.56109619140625,50.68499374389648,343.0628967285156
24573,-50.88694763183594,-247.8169860839844,59.04367065429688,326.16229248046875
24574,-68.78237152099611,-264.9457397460937,54.069602966308594,303.4237060546875
24575,-54.89986038208008,-246.42575073242188,50.10530853271485,321.02740478515625
24576,-36.24150085449219,-230.10482788085938,56.19386672973633,343.9716796875
24577,-48.41487503051758,-246.0517578125,64.11123657226561,322.362548828125
24578,-57.20363998413086,-262.81399536132807,57.16250228881836,304.5269775390625
24579,-32.66615676879883,-243.2842254638672,52.89153671264648,323.383544921875
24580,-23.25282859802246,-235.92784118652344,53.456260681152344,337.6512451171875
24581,-36.90346145629883,-248.5537567138672,61.81493759155274,319.0714416503906
24582,-55.83857727050781,-262.49237060546875,54.563270568847656,300.0091552734375
24583,-40.62840270996094,-246.23501586914062,53.55349731445313,325.65740966796875
24584,-22.822738647460934,-234.15513610839844,58.98383331298828,350.2023620605469
24585,-32.931690216064446,-250.3601226806641,67.55194091796875,327.4151611328125
24586,-61.848594665527344,-269.5233764648437,63.13138198852539,309.5272216796875
24587,-38.55649948120117,-250.9360656738281,56.54541778564453,330.7623596191406
24588,-37.46070861816406,-234.8918914794922,54.62310791015625,346.6045837402344
24589,-50.58401870727539,-244.7764587402344,60.39751434326172,326.7232666015625
24590,-65.36410522460939,-261.5536499023437,53.538536071777344,311.1129150390625
24591,-47.22184753417969,-249.9075927734375,47.63323593139648,332.1274108886719
24592,-37.12037658691406,-233.03317260742188,51.57883071899414,345.8192138671875
24593,-48.62430953979492,-251.0482635498047,59.690673828125,324.6027526855469
24594,-62.66763305664063,-265.0130615234375,49.723838806152344,306.83447265625
24595,-44.70489501953125,-248.5126190185547,45.43417358398438,324.3484191894531
24596,-39.6074104309082,-234.8283233642578,47.49860000610352,346.4886474609375
24597,-46.27939224243164,-242.5549468994141,66.34769439697266,328.19677734375
24598,-65.13597106933594,-265.05419921875,49.86969757080078,305.3497314453125
24599,-41.57833862304688,-249.08482360839844,51.21979904174805,324.4419250488281
24600,-32.48290252685547,-233.4183807373047,63.4530143737793,348.7063903808594
24601,-43.60910415649414,-246.8072204589844,64.16733551025389,336.4170837402344
24602,-54.03594589233398,-258.34481811523443,61.1866340637207,312.2311706542969
24603,-41.013614654541016,-243.6357879638672,58.04885864257813,332.8155517578125
24604,-26.38312339782715,-226.24899291992188,65.62963104248047,356.7023010253906
24605,-42.59185028076172,-244.47726440429688,68.49813842773439,336.7013244628906
24606,-61.78501892089844,-262.062255859375,55.322471618652344,313.64111328125
24607,-49.23017120361328,-239.6789703369141,51.511512756347656,331.188720703125
24608,-33.993820190429695,-227.62901306152344,58.66593933105469,356.1861877441406
24609,-48.7626838684082,-241.4703826904297,62.94812774658203,337.48297119140625
24610,-67.41356658935547,-263.90231323242193,53.09349060058594,313.59246826171875
24611,-59.96368408203125,-246.3958282470703,50.32970428466797,329.4571228027344
24612,-38.567718505859375,-231.8251800537109,50.32970428466797,350.26593017578125
24613,-59.440101623535156,-241.90794372558597,58.02641677856445,329.5169677734375
24614,-76.7146987915039,-261.7855224609375,56.76980972290039,313.723388671875
24615,-58.41162872314453,-246.78851318359372,52.36795043945313,330.2013854980469
24616,-33.24209976196289,-234.4805145263672,59.70563125610352,350.7783203125
24617,-44.2037467956543,-252.94065856933597,66.9385986328125,334.65185546875
24618,-61.41850662231445,-270.36111450195307,60.36759567260742,311.2961730957031
24619,-46.462646484375,-249.17083740234372,59.55229568481445,331.8955383300781
24620,-29.50594139099121,-225.58702087402344,65.08734893798828,356.51531982421875
24621,-43.010719299316406,-243.79286193847656,67.05453491210939,327.9686584472656
24622,-63.292198181152344,-261.75933837890625,61.91217422485352,310.0246276855469
24623,-46.7917594909668,-248.4752197265625,61.32875061035156,336.1478271484375
24624,-28.09225845336914,-224.50619506835938,63.87187957763672,351.96759033203125
24625,-44.55903625488281,-242.52877807617188,68.68513488769531,332.3667907714844
24626,-58.07129669189453,-257.1405639648437,63.082763671875,316.82000732421875
24627,-43.3809700012207,-242.1211242675781,55.30002975463867,331.5627136230469
24628,-34.558544158935554,-228.27227783203125,60.83882141113281,349.58154296875
24629,-48.08202362060547,-246.9717712402344,68.40090179443361,329.2215270996094
24630,-70.54759979248047,-268.52108764648443,59.11846923828125,314.0337829589844
24631,-48.91976165771485,-247.30462646484372,46.43646621704102,326.7681579589844
24632,-38.657474517822266,-229.28952026367188,55.49076461791992,351.6422119140625
24633,-54.57448959350586,-247.8730926513672,57.8843002319336,332.7482604980469
24634,-65.07987213134766,-264.86346435546875,54.7614860534668,313.64111328125
24635,-53.2281265258789,-245.86476135253903,50.00807189941406,332.0451354980469
24636,-26.3270263671875,-227.62527465820312,56.85956954956055,350.2995910644531
24637,-52.03509902954102,-249.8215789794922,59.44384002685547,327.8751525878906
24638,-67.67162322998047,-259.87442016601557,56.61273574829102,310.51080322265625
24639,-46.02507781982422,-245.27386474609372,48.09324264526367,326.8766174316406
24640,-33.9564208984375,-227.49810791015625,51.90793991088867,348.42218017578125
24641,-48.25779724121094,-241.87054443359372,60.1319808959961,332.34808349609375
24642,-57.28965759277344,-258.37472534179693,56.06296920776367,310.989501953125
24643,-49.10675811767578,-247.4803924560547,52.0724983215332,328.1893005371094
24644,-19.666263580322266,-228.4667510986328,56.71371459960938,353.97216796875
24645,-36.01710510253906,-241.28712463378903,62.3833999633789,334.03851318359375
24646,-57.75714492797852,-266.13876342773443,52.32680892944336,309.69549560546875
24647,-40.24319458007813,-242.70828247070312,51.892982482910156,326.88409423828125
24648,-30.12302398681641,-221.2449951171875,55.26263046264648,353.7440490722656
24649,-43.23137283325195,-235.5501251220703,59.05115127563477,335.2689514160156
24650,-71.97250366210938,-257.166748046875,56.08166885375977,314.3890686035156
24651,-41.675575256347656,-240.5391387939453,52.45770645141602,332.18353271484375
24652,-30.9046630859375,-229.59994506835938,54.260337829589844,353.2242126464844
24653,-48.42235565185547,-240.5503692626953,58.05259704589844,334.158203125
24654,-66.90868377685547,-263.6517333984375,55.42718887329102,308.4762878417969
24655,-57.43925476074219,-244.33888244628903,50.27360534667969,328.3388977050781
24656,-29.70415496826172,-224.6744842529297,59.89636611938477,356.16375732421875
24657,-42.22908020019531,-240.9318389892578,63.29967498779297,331.5140686035156
24658,-63.60634994506836,-260.94403076171875,56.72119140625,312.03668212890625
24659,-51.73590469360352,-248.1199188232422,54.29773712158203,330.9718017578125
24660,-22.78907966613769,-231.48858642578125,59.33538436889648,355.5167541503906
24661,-44.08032989501953,-240.8383331298828,63.47171020507813,334.0347595214844
24662,-58.59488296508789,-256.29159545898443,65.61841583251953,315.9673156738281
24663,-42.6180305480957,-244.2603454589844,59.84400939941406,335.69903564453125
24664,-25.919376373291016,-225.276611328125,63.13886260986328,355.50927734375
24665,-41.54093933105469,-241.32452392578125,68.39716339111328,336.447021484375
24666,-64.00277709960939,-264.38848876953125,61.20159149169922,314.4264831542969
24667,-53.587158203125,-248.1348876953125,61.56436157226562,330.5828552246094
24668,-36.05824661254883,-225.28782653808597,65.16962432861328,348.8298034667969
24669,-47.44250106811523,-233.3660125732422,70.18482971191406,333.982421875
24670,-71.80046844482422,-263.68539428710943,55.48328399658203,306.58392333984375
24671,-50.33718490600586,-245.9171142578125,54.28277969360352,331.7459411621094
24672,-34.67074203491211,-227.3859100341797,64.63481903076172,349.1402282714844
24673,-47.47241973876953,-240.2997894287109,71.38533782958984,326.88409423828125
24674,-60.99963760375977,-259.1713256835937,63.94293975830078,310.63421630859375
24675,-53.19072723388672,-242.7008056640625,60.72662734985352,329.0457458496094
24676,-31.72744178771973,-219.3040008544922,57.15876007080078,348.3211975097656
24677,-46.7842788696289,-240.9729766845703,64.24587249755861,326.08001708984375
24678,-61.91217422485352,-255.56607055664062,62.98552322387695,312.08905029296875
24679,-45.85678482055664,-245.8423309326172,61.45216751098633,333.8963928222656
24680,-27.20590209960937,-228.9304962158203,68.99180603027344,352.8202819824219
24681,-47.81275177001953,-240.3184967041016,76.34070587158203,336.01690673828125
24682,-57.83942413330078,-259.64630126953125,69.04042053222656,310.7875671386719
24683,-44.21122741699219,-240.56906127929688,64.42912292480469,331.5664367675781
24684,-23.91852951049805,-222.92047119140625,66.19809722900389,353.654296875
24685,-43.010719299316406,-239.0244903564453,62.67885208129883,332.3406066894531
24686,-56.3285026550293,-258.81228637695307,58.9576530456543,307.10748291015625
24687,-38.57519912719727,-248.2620391845703,57.52901077270508,325.30584716796875
24688,-27.66217041015625,-232.2328338623047,56.88948822021485,347.06085205078125
24689,-37.11663818359375,-240.94305419921875,66.35143280029297,333.30548095703125
24690,-60.95101928710938,-258.54302978515625,61.10061645507813,304.57183837890625
24691,-46.15597534179688,-248.505126953125,55.6067008972168,322.714111328125
24692,-19.969196319580078,-227.93194580078125,55.94329452514648,350.91668701171875
24693,-36.39483642578125,-244.23416137695312,60.44987106323242,329.3411865234375
24694,-54.75774383544922,-270.4134521484375,57.36071395874024,306.4829406738281
24695,-39.59619140625,-251.3399810791016,53.38520050048828,323.0394592285156
24696,-22.12337875366211,-229.06138610839844,61.32500839233398,348.7699890136719
24697,-38.97162628173828,-247.95162963867188,64.53384399414061,329.5618591308594
24698,-58.21341323852539,-264.60165405273443,61.22029113769531,304.7289123535156
24699,-50.10530853271485,-250.5284118652344,56.43696212768555,323.9482727050781
24700,-19.894397735595703,-225.48231506347656,63.8644027709961,353.4299011230469
24701,-38.82577133178711,-241.8892517089844,66.49729156494139,336.106689453125
24702,-51.95655822753906,-257.0208740234375,66.27289581298828,314.29931640625
24703,-33.32437896728516,-246.9343719482422,64.93401336669922,330.0667419433594
24704,-18.260061264038086,-220.9532928466797,65.09857177734375,354.8360900878906
24705,-28.07729911804199,-234.88815307617188,71.30680084228516,333.3204650878906
24706,-41.825172424316406,-251.4783477783203,67.97454833984375,323.054443359375
24707,-44.51041793823242,-238.1231689453125,57.955360412597656,332.40045166015625
24708,-23.136890411376953,-218.5373077392578,60.27783584594727,357.5325622558594
24709,-42.71526718139648,-236.54867553710938,66.02232360839844,338.642333984375
24710,-59.95994567871094,-252.753662109375,59.59717559814453,313.7532958984375
24711,-49.40594863891602,-241.4703826904297,51.12630081176758,332.46026611328125
24712,-32.703556060791016,-229.2147216796875,50.66629409790039,349.1177978515625
24713,-56.51549911499024,-242.6708831787109,55.285072326660156,333.395263671875
24714,-77.23080444335938,-261.98373413085943,48.56072998046875,310.7464294433594
24715,-53.48617935180664,-248.11618041992188,51.27589797973633,321.9100036621094
24716,-33.67218780517578,-231.61573791503903,50.39328384399414,342.90582275390625
24717,-45.531410217285156,-245.69273376464844,54.20423889160156,323.0357360839844
24718,-61.11931610107422,-265.47305297851557,50.77101135253906,299.6763000488281
24719,-42.36371612548828,-245.24020385742188,51.57135009765625,317.68768310546875
24720,-25.03302001953125,-229.0015563964844,49.39098739624024,344.9814758300781
24721,-32.088340759277344,-239.20774841308597,61.01085662841797,331.2073974609375
24722,-55.84792709350586,-261.37039184570307,54.14813995361328,313.09881591796875
24723,-36.93525314331055,-244.36880493164062,56.17890548706055,330.4444580078125
24724,-13.5421781539917,-227.2998962402344,65.49874114990234,349.334716796875
24725,-23.3519344329834,-238.8487091064453,74.5081558227539,337.1763000488281
24726,-47.57152557373047,-258.35601806640625,63.9578971862793,320.7917785644531
24727,-27.73509788513184,-249.63458251953125,61.003379821777344,330.53424072265625
24728,-11.788165092468262,-232.5395050048828,58.950172424316406,357.0389099121094
24729,-33.68527984619141,-247.44674682617188,57.85812377929688,334.9585266113281
24730,-52.21274185180664,-262.3427734375,50.61019515991211,317.8896179199219
24731,-47.07786178588867,-255.4576110839844,47.5247802734375,330.1864318847656
24732,-21.051897048950195,-229.12496948242188,54.409934997558594,349.9181213378906
24733,-38.61446762084961,-245.8759765625,59.350341796875,331.6337585449219
24734,-69.34148406982422,-264.89712524414057,57.0727424621582,308.67449951171875
24735,-45.60808181762695,-256.67681884765625,45.06392288208008,321.8688659667969
24736,-32.795181274414055,-234.6525421142578,51.399314880371094,349.0018615722656
24737,-40.42083740234375,-244.58197021484372,56.02556991577149,331.4879150390625
24738,-64.57685089111328,-267.57489013671875,59.78417205810547,305.895751953125
24739,-43.12852478027344,-261.40029907226557,53.33658218383789,318.70867919921875
24740,-27.31996917724609,-233.25755310058597,55.25515365600586,343.23492431640625
24741,-44.093421936035156,-247.05404663085938,58.21341323852539,319.9203796386719
24742,-61.749488830566406,-264.90460205078125,53.95740509033203,300.2560119628906
24743,-47.93803787231445,-251.41477966308597,53.75171279907226,320.2308044433594
24744,-29.305856704711914,-226.15174865722656,57.15876007080078,346.2492980957031
24745,-35.783363342285156,-234.5291290283203,68.59911346435547,338.3506164550781
24746,-56.60338592529297,-254.5413360595703,63.17626190185547,312.74725341796875
24747,-45.61182022094727,-242.7008056640625,61.52322387695313,329.5469055175781
24748,-23.486572265625,-228.5078887939453,66.35891723632811,350.5614013671875
24749,-40.020668029785156,-237.4125823974609,67.20413208007811,341.9297180175781
24750,-59.12407684326172,-261.23574829101557,64.01773834228516,315.9785461425781
24751,-56.80908203125,-251.5157470703125,52.8541374206543,329.0046081542969
24752,-28.830888748168945,-231.63070678710938,54.91856002807617,353.6879577636719
24753,-45.67913818359375,-243.28797912597656,56.61647415161133,335.4634094238281
24754,-73.86676025390625,-264.033203125,48.54577255249024,311.3934326171875
24755,-59.46440887451172,-249.55604553222656,50.5952377319336,326.2894287109375
24756,-43.29308319091797,-233.2052001953125,58.2657699584961,351.7020568847656
24757,-50.0136833190918,-240.5765380859375,62.3908805847168,336.260009765625
24758,-67.44535827636719,-267.6197509765625,51.70598602294922,305.68634033203125
24759,-58.21154403686523,-258.1615600585937,44.8844108581543,318.4730529785156
24760,-33.27014923095703,-231.7578582763672,57.54022979736328,346.20068359375
24761,-51.36752700805664,-251.0108642578125,60.31523513793945,325.5826110839844
24762,-67.35186004638672,-267.34674072265625,62.34600067138672,307.9714050292969
24763,-50.94865798950195,-248.5836639404297,55.75255966186523,321.6295166015625
24764,-28.617713928222656,-228.163818359375,62.72747039794922,349.4095153808594
24765,-40.4993782043457,-242.59608459472656,63.28471755981445,331.27099609375
24766,-59.692543029785156,-262.47366333007807,59.81409072875977,308.9363098144531
24767,-49.49383544921875,-242.5661773681641,61.10435485839844,328.6007080078125
24768,-26.190519332885746,-218.00624084472656,68.24756622314453,360.23651123046875
24769,-47.49298858642578,-245.69647216796875,64.91157531738281,343.90435791015625
24770,-55.39913940429688,-258.78610229492193,60.92483901977539,319.6062316894531
24771,-43.27438354492188,-240.1352386474609,61.76257705688477,333.90386962890625
24772,-28.11282730102539,-227.93194580078125,62.43576049804688,355.6551208496094
24773,-39.37366485595703,-238.53829956054688,65.52865600585939,337.89434814453125
24774,-58.47707748413086,-260.371826171875,58.33308792114258,313.1437072753906
24775,-52.56803512573242,-253.8120574951172,47.80153274536133,323.9894104003906
24776,-25.6108341217041,-231.90745544433597,49.95945358276367,350.3968505859375
24777,-47.4256706237793,-241.97900390625,53.36650085449219,332.26953125
24778,-68.90391540527344,-257.37619018554693,54.40619277954102,313.360595703125
24779,-48.218528747558594,-245.6702880859375,51.03280639648438,328.1332092285156
24780,-32.911121368408196,-225.9984130859375,52.72697830200195,346.4400329589844
24781,-44.06724166870117,-239.45083618164062,58.568702697753906,328.20428466796875
24782,-64.49831390380861,-259.81832885742193,61.01833724975586,307.0738220214844
24783,-56.681922912597656,-251.897216796875,51.03654479980469,323.1666259765625
24784,-30.97759056091309,-225.8862152099609,57.35323715209961,352.21441650390625
24785,-43.977481842041016,-242.4913787841797,62.28242492675781,335.826171875
24786,-57.31022644042969,-256.37014770507807,65.14718627929689,317.85595703125
24787,-43.83910751342773,-256.6244506835937,53.265525817871094,328.4436340332031
24788,-23.737144470214844,-230.7368621826172,61.347450256347656,353.725341796875
24789,-38.113319396972656,-239.3386383056641,67.37990570068361,340.5010681152344
24790,-59.00814056396485,-264.56051635742193,62.611534118652344,315.0099182128906
24791,-45.1256332397461,-246.9717712402344,57.67112731933594,330.0368347167969
24792,-25.962385177612305,-220.8560485839844,61.28387069702149,361.5230407714844
24793,-43.599754333496094,-236.0550079345703,65.00132751464844,343.571533203125
24794,-62.81536102294922,-258.34854125976557,56.75859069824219,315.062255859375
24795,-53.49552917480469,-248.58741760253903,50.38580322265625,324.898193359375
24796,-34.10414886474609,-232.4871368408203,53.949928283691406,346.3352966308594
24797,-42.73209762573242,-245.15792846679688,55.99939346313477,333.41021728515625
24798,-57.76649475097656,-262.28665161132807,55.5468635559082,308.7568054199219
24799,-49.284400939941406,-250.15817260742188,51.16370010375977,319.9278869628906
24800,-36.4041862487793,-225.1531982421875,54.99335861206055,350.1499938964844
24801,-49.69953155517578,-243.99481201171875,55.958251953125,336.4656982421875
24802,-66.28972625732422,-260.9178466796875,51.38435363769531,313.69720458984375
24803,-52.97568130493164,-247.40185546875,48.23910140991211,321.6519775390625
24804,-30.416606903076172,-229.0539093017578,54.20423889160156,352.4126281738281
24805,-49.31806182861328,-240.8832092285156,54.73904418945313,329.9844665527344
24806,-65.58662414550781,-257.002197265625,54.97092056274414,314.6284484863281
24807,-52.69892883300781,-247.16624450683597,54.03594589233398,327.8302917480469
24808,-31.426380157470703,-223.5450439453125,59.76547241210938,354.8735046386719
24809,-36.68467712402344,-235.98020935058597,64.45156860351561,344.4952697753906
24810,-51.2291488647461,-254.9901123046875,64.80685424804689,323.1142578125
24811,-46.43085861206055,-248.03390502929688,54.46977233886719,330.29486083984375
24812,-20.367494583129886,-231.5596466064453,60.60321044921875,356.8257141113281
24813,-34.758628845214844,-243.11593627929688,66.14199829101561,336.9818115234375
24814,-59.95433807373047,-260.04647827148443,56.45191955566406,314.31427001953125
24815,-44.71050262451172,-249.3653106689453,54.069602966308594,325.3282775878906
24816,-32.06216049194336,-238.4971618652344,58.79309844970703,345.1609802246094
24817,-42.67973709106445,-241.216064453125,59.95620727539063,335.2726745605469
24818,-66.21492767333984,-257.20040893554693,60.745323181152344,313.8168640136719
24819,-62.38527297973633,-246.00314331054688,56.71371459960938,330.81097412109375
24820,-38.52470779418945,-227.4794158935547,56.3509407043457,357.5699768066406
24821,-49.75563049316406,-240.43443298339844,56.298583984375,340.9423828125
24822,-69.16571044921875,-261.18338012695307,56.14524841308594,320.98626708984375
24823,-64.64043426513672,-251.8186798095703,47.82397079467773,329.3038024902344
24824,-36.34060668945313,-230.4638519287109,49.8659553527832,352.86517333984375
24825,-54.94660949707031,-238.82627868652344,56.42573928833008,336.2301025390625
24826,-74.47636413574219,-263.4759521484375,55.8759765625,305.9481201171875
24827,-58.21528244018555,-248.27325439453125,54.944740295410156,323.1217346191406
24828,-28.034290313720703,-227.0268859863281,61.556884765625,347.86492919921875
24829,-41.62882614135742,-239.19651794433597,65.58101654052734,331.0877380371094
24830,-59.10163879394531,-257.17794799804693,60.18059921264648,310.46966552734375
24831,-41.34085464477539,-247.46170043945312,58.31813049316406,323.8360595703125
24832,-18.198352813720703,-224.3117218017578,59.04367065429688,351.84417724609375
24833,-34.02186965942383,-238.41114807128903,65.96248626708984,337.3707580566406
24834,-52.73258972167969,-255.0724029541016,62.151527404785156,312.5789794921875
24835,-51.21792984008789,-248.71083068847656,50.38954162597656,324.8570556640625
24836,-29.94911956787109,-228.5527648925781,51.99395751953125,348.3772888183594
24837,-46.74126815795898,-242.37168884277344,55.595481872558594,334.5172119140625
24838,-71.2637939453125,-259.87442016601557,56.18638610839844,308.70068359375
24839,-63.02479553222656,-252.30487060546875,44.27106475830078,325.1749572753906
24840,-31.94996452331543,-231.8588409423828,45.57629013061523,354.0956115722656
24841,-47.97917556762695,-244.38375854492188,56.126548767089844,338.9639587402344
24842,-64.65913391113281,-267.7020263671875,50.92060852050781,311.8160400390625
24843,-50.63076400756836,-249.2905120849609,48.40365600585938,331.8095397949219
24844,-32.065902709960945,-221.2075958251953,51.67232894897461,355.5317077636719
24845,-43.323001861572266,-240.23995971679688,51.14126205444336,338.0776062011719
24846,-64.80124664306639,-263.20294189453125,51.743385314941406,314.65087890625
24847,-58.17414474487305,-255.56607055664062,47.5771369934082,318.17010498046875
24848,-28.08664894104004,-231.99346923828125,55.45710754394531,352.9250183105469
24849,-37.32794189453125,-237.43502807617188,60.41621398925781,335.6728515625
24850,-51.1805305480957,-261.16470336914057,53.90130996704102,308.453857421875
24851,-39.938392639160156,-251.9420928955078,53.04487228393555,323.0805969238281
24852,-17.633628845214844,-228.97911071777344,61.32126998901367,349.84332275390625
24853,-30.18847274780273,-241.87054443359372,63.79334259033203,327.4488220214844
24854,-59.99173355102539,-258.5018920898437,60.03848266601562,303.91363525390625
24855,-49.15724563598633,-246.75860595703125,50.80467224121094,315.671875
24856,-29.35821533203125,-225.08587646484372,55.39726638793945,341.5781555175781
24857,-42.27209091186523,-234.67872619628903,54.95970153808594,334.4237365722656
24858,-64.10562133789061,-257.84365844726557,52.9364128112793,309.53094482421875
24859,-55.54499435424805,-253.22488403320312,49.56302261352539,320.8441467285156
24860,-40.52181625366211,-233.0256805419922,48.6504898071289,349.1140441894531
24861,-48.45040512084961,-235.4902801513672,56.43321990966797,336.3497619628906
24862,-73.68350982666016,-258.3373413085937,52.49136734008789,318.701171875
24863,-60.60133743286133,-250.45736694335938,44.81709289550781,325.238525390625
24864,-37.55233383178711,-227.9431610107422,51.81444549560547,349.6600646972656
24865,-47.62388610839844,-240.55784606933597,50.27360534667969,337.1127014160156
24866,-67.14242553710939,-261.82666015625,52.39786911010742,311.3822021484375
24867,-56.0573616027832,-250.57330322265625,46.62720108032226,316.8985595703125
24868,-42.90413284301758,-230.29556274414062,55.83109664916992,346.4437561035156
24869,-54.68481826782226,-244.0247344970703,60.60321044921875,337.3932189941406
24870,-65.05181884765625,-263.36749267578125,56.66509246826172,308.93255615234375
24871,-58.91838455200195,-254.2870178222656,55.04945755004883,323.5780029296875
24872,-28.31104278564453,-228.69862365722656,57.00542449951172,343.54534912109375
24873,-39.12683486938477,-240.7560577392578,60.58076858520508,331.09893798828125
24874,-57.594459533691406,-254.6236114501953,64.68717956542969,309.0036315917969
24875,-43.266902923583984,-241.1562347412109,60.98468017578125,316.7302551269531
24876,-18.80421638488769,-215.5940093994141,65.03498840332031,346.89630126953125
24877,-28.50177764892578,-225.4000244140625,68.21764373779297,340.4449768066406
24878,-59.30359268188477,-242.8728485107422,62.88828659057617,313.1212463378906
24879,-52.92332458496094,-234.1289520263672,50.05669021606445,319.2359924316406
24880,-34.65017318725586,-214.0494384765625,62.06550979614258,343.42193603515625
24881,-41.39695358276367,-233.4482879638672,67.12933349609375,334.92486572265625
24882,-64.34123992919922,-257.7950439453125,63.72602462768555,308.865234375
24883,-63.39878463745117,-254.8031311035156,52.31185150146485,320.1859130859375
24884,-40.27498245239258,-230.40028381347656,60.8650016784668,349.9031677246094
24885,-38.65934753417969,-234.5553131103516,59.19326782226562,334.9622802734375
24886,-58.66781234741211,-259.7958984375,49.8023796081543,311.92822265625
24887,-55.3766975402832,-249.2905120849609,46.41402816772461,323.5293884277344
24888,-31.74427032470703,-228.98284912109372,54.72408676147461,349.9742431640625
24889,-46.55427551269531,-237.4387664794922,61.84111404418945,335.2016296386719
24890,-62.74804306030274,-267.72073364257807,54.31269836425781,306.071533203125
24891,-49.2320442199707,-254.33563232421875,61.50452423095703,322.1082458496094
24892,-26.41117286682129,-231.720458984375,57.4542121887207,341.8175048828125
24893,-33.726417541503906,-241.61997985839844,62.92194747924805,337.0827941894531
24894,-53.61894607543945,-265.9442749023437,56.17890548706055,311.2101745605469
24895,-48.8917121887207,-256.06719970703125,51.64614868164063,320.0961608886719
24896,-30.85043525695801,-223.5300750732422,57.0802230834961,346.1183776855469
24897,-32.383792877197266,-229.8692169189453,69.68368530273439,337.09027099609375
24898,-56.528587341308594,-258.27001953125,66.72168731689453,321.43505859375
24899,-43.2519416809082,-245.9058990478516,60.75654602050781,328.32769775390625
24900,-24.316829681396484,-219.2965087890625,65.65207672119139,359.51470947265625
24901,-42.17111206054688,-232.917236328125,67.33502960205078,347.7677001953125
24902,-62.280555725097656,-257.95587158203125,57.70852661132813,319.0041198730469
24903,-56.8502197265625,-251.8186798095703,54.80636215209961,322.9534606933594
24904,-33.591781616210945,-232.38616943359372,53.538536071777344,345.2283020019531
24905,-43.48755645751953,-245.55435180664062,65.4127197265625,334.5209655761719
24906,-61.53631210327149,-260.62240600585943,57.70478820800781,310.7651062011719
24907,-59.22131729125977,-252.14779663085938,50.23994445800781,323.85101318359375
24908,-32.93729782104492,-234.78343200683597,52.75315856933594,348.3062438964844
24909,-45.5594596862793,-241.91168212890625,55.50946426391602,339.1921081542969
24910,-64.83864593505861,-262.49984741210943,53.02617263793945,307.14862060546875
24911,-54.80449295043945,-256.15322875976557,47.38640213012695,317.6427917480469
24912,-30.78685569763184,-234.51791381835938,53.82276916503906,345.3928527832031
24913,-36.91281127929688,-240.31100463867188,54.38375473022461,330.76983642578125
24914,-63.64935684204102,-261.25070190429693,56.99794387817383,306.9205017089844
24915,-46.39345932006836,-248.65098571777344,54.31269836425781,318.34588623046875
24916,-27.07313537597656,-230.51622009277344,57.45795440673828,346.92620849609375
24917,-40.215145111083984,-237.0760040283203,60.5059700012207,337.64752197265625
24918,-62.50494766235352,-256.40753173828125,60.19556045532226,313.8841857910156
24919,-53.31227493286133,-249.2718048095703,54.301475524902344,325.1637268066406
24920,-28.86080741882324,-228.5527648925781,58.32561111450195,357.128662109375
24921,-42.17485046386719,-236.6272125244141,68.763671875,346.3427734375
24922,-54.68481826782226,-254.3992156982422,64.79189300537111,328.5296325683594
24923,-53.73862075805664,-249.76922607421875,52.56242370605469,329.8572998046875
24924,-31.37402153015137,-229.2109832763672,58.43406677246094,359.9635009765625
24925,-43.52869415283203,-239.865966796875,56.45940017700195,344.2933349609375
24926,-68.08113861083984,-263.36001586914057,55.16165542602539,310.0321044921875
24927,-60.7247543334961,-255.70443725585938,49.873435974121094,324.74859619140625
24928,-38.30779647827149,-229.3531036376953,50.2661247253418,342.9320068359375
24929,-46.31866073608398,-245.25889587402344,55.01579666137695,328.45111083984375
24930,-70.48589324951172,-265.52914428710943,55.80117797851562,306.90179443359375
24931,-68.86277770996094,-256.09713745117193,51.62744903564453,316.0234069824219
24932,-36.12743377685547,-234.7198638916016,54.16310119628906,341.36871337890625
24933,-41.63630676269531,-241.9827423095703,54.87742233276367,333.9898986816406
24934,-57.91983032226562,-260.1661376953125,55.87223434448242,313.536376953125
24935,-57.171852111816406,-256.79647827148443,50.37832260131836,319.5650939941406
24936,-33.064456939697266,-226.7314300537109,54.60815048217773,347.2066955566406
24937,-30.43156623840332,-239.55929565429688,63.30341720581055,339.0537109375
24938,-61.26704025268555,-259.69491577148443,61.66534042358398,318.8470458984375
24939,-50.346534729003906,-243.73675537109372,59.50741958618164,330.8072509765625
24940,-38.06096267700195,-220.16790771484372,60.98093795776367,355.9917297363281
24941,-48.330726623535156,-225.7553253173828,65.86524963378906,348.22021484375
24942,-67.64730834960939,-240.2100372314453,64.79937744140625,321.1470642089844
24943,-62.63958358764648,-236.49256896972656,57.70104598999024,332.2171936035156
24944,-30.439044952392575,-215.3209991455078,61.28013229370117,364.417724609375
24945,-43.76430892944336,-231.87005615234372,57.74592590332031,351.44775390625
24946,-69.17693328857422,-254.2870178222656,60.4723129272461,324.0716857910156
24947,-62.84153747558594,-246.8932342529297,49.90709686279297,329.6441345214844
24948,-42.74331665039063,-226.75387573242188,51.61996841430664,355.438232421875
24949,-50.17449951171875,-239.6527862548828,59.900108337402344,340.5683898925781
24950,-75.35150146484375,-260.89169311523443,52.95137405395508,315.8850402832031
24951,-68.42894744873047,-247.46170043945312,51.34321594238281,319.5239562988281
24952,-51.5694808959961,-228.1600799560547,53.14210891723633,352.65948486328125
24953,-47.69868469238281,-229.4727783203125,56.40703964233398,345.9949645996094
24954,-67.43413543701172,-251.5942840576172,56.15646743774414,313.8991394042969
24955,-62.77796173095703,-244.45481872558597,50.79344940185547,322.2765197753906
24956,-41.62134552001953,-227.11289978027344,53.52357864379883,345.5162658691406
24957,-45.18173217773438,-226.18540954589844,58.16105270385742,343.24615478515625
24958,-63.91862869262695,-252.6264953613281,60.363853454589844,317.0406799316406
24959,-52.99438095092773,-243.4824523925781,61.02955627441406,331.0540771484375
24960,-30.08001518249512,-215.1040802001953,62.76861190795898,354.1255187988281
24961,-40.9406852722168,-228.87440490722656,67.48836517333984,346.6943359375
24962,-54.25846862792969,-246.56411743164062,64.53010559082031,326.2632751464844
24963,-47.23493576049805,-239.5630340576172,64.30197143554689,332.2358703613281
24964,-28.66259384155273,-221.0467834472656,63.50537109375,355.2175598144531
24965,-38.2703971862793,-232.2178649902344,65.82036590576172,347.99957275390625
24966,-62.63958358764648,-255.9288330078125,61.94209289550781,316.2178955078125
24967,-60.74345397949219,-254.2421417236328,60.49101257324219,323.6116638183594
24968,-34.14154815673828,-234.23741149902344,60.25539779663086,347.7452392578125
24969,-47.05168151855469,-239.71263122558597,62.44697952270508,338.7059020996094
24970,-65.97183227539061,-268.81277465820307,61.9981918334961,312.362060546875
24971,-60.09645080566406,-260.76077270507807,52.62226104736328,317.9120788574219
24972,-36.815574645996094,-232.87234497070312,60.31523513793945,347.4797058105469
24973,-38.20681762695313,-236.39907836914062,68.04560852050781,338.6124267578125
24974,-65.53800964355469,-261.66958618164057,59.219444274902344,314.2207946777344
24975,-51.79387283325195,-255.0088195800781,55.24767303466797,319.6025085449219
24976,-30.63726043701172,-234.50294494628903,58.48268508911133,348.3099670410156
24977,-34.17520523071289,-249.05490112304688,66.79273986816406,338.99761962890625
24978,-65.10044097900389,-267.1260986328125,60.12824249267578,314.2918395996094
24979,-55.3131217956543,-261.98745727539057,51.7733039855957,324.29608154296875
24980,-33.46836471557617,-231.1781768798828,62.64519500732422,351.2495422363281
24981,-35.88433837890625,-234.0504150390625,69.48921203613281,344.6224365234375
24982,-55.12238693237305,-258.40463256835943,70.21101379394531,322.9684143066406
24983,-54.80449295043945,-254.67970275878903,60.61816787719727,328.301513671875
24984,-26.91231918334961,-222.31460571289062,63.32585525512695,356.7434387207031
24985,-39.28017044067383,-235.2845916748047,66.53842926025389,347.9920959472656
24986,-57.94601058959961,-260.394287109375,55.01953887939453,314.9575500488281
24987,-44.261714935302734,-261.7855224609375,47.62949752807617,317.38848876953125
24988,-27.76501655578613,-234.443115234375,52.424049377441406,346.70556640625
24989,-42.14119338989258,-247.4990997314453,59.97864532470703,333.2793273925781
24990,-66.89933013916016,-273.97384643554693,52.92145538330078,304.39605712890625
24991,-60.82947158813477,-263.95840454101557,45.81190490722656,313.3793029785156
24992,-29.720985412597656,-240.1988220214844,49.02447891235352,340.8825378417969
24993,-41.29971694946289,-245.17662048339844,55.83483505249024,337.4044189453125
24994,-64.49083709716797,-263.97711181640625,57.68234634399414,313.207275390625
24995,-60.261009216308594,-255.4688262939453,51.79574584960938,313.98516845703125
24996,-35.637508392333984,-236.96006774902344,55.1541748046875,349.18511962890625
24997,-40.32734298706055,-244.40994262695312,65.25564575195311,340.0559997558594
24998,-57.41494369506836,-266.20980834960943,65.18458557128906,315.7915344238281
24999,-55.08498764038086,-254.4814910888672,59.78791046142578,326.869140625
25000,-37.06614685058594,-226.8099670410156,56.79598999023438,352.1246643066406
25001,-32.955997467041016,-231.4773712158203,69.47051239013672,345.7743225097656
25002,-56.45378875732422,-260.51394653320307,63.15756225585938,317.2500915527344
25003,-43.26316452026367,-245.9582672119141,65.37158203125,325.8668212890625
25004,-27.405986785888672,-226.72021484375,65.61467742919922,356.92669677734375
25005,-33.42722702026367,-235.3332061767578,74.45205688476562,352.3228759765625
25006,-60.79207229614258,-256.67681884765625,66.50102996826172,318.6376037597656
25007,-57.56454086303711,-253.0154571533203,58.14983367919922,317.268798828125
25008,-38.54340744018555,-232.3936462402344,55.25889205932617,346.4998474121094
25009,-43.19210433959961,-242.88780212402344,60.31897735595703,335.4895935058594
25010,-69.30782318115234,-271.29608154296875,54.35383605957031,306.65496826171875
25011,-61.0763053894043,-272.78082275390625,45.94280242919922,305.1739807128906
25012,-39.62797927856445,-241.48907470703125,55.9470329284668,340.2878723144531
25013,-46.95070266723633,-242.9214630126953,61.04077529907226,334.0347595214844
25014,-61.81680679321289,-264.55679321289057,60.76028442382813,310.39111328125
25015,-61.04264831542969,-263.09823608398443,52.78307723999024,317.37725830078125
25016,-31.93500518798828,-235.3668670654297,51.13752365112305,347.1131896972656
25017,-37.39152145385742,-240.8159027099609,61.25395202636719,344.0202941894531
25018,-63.63813781738281,-265.23370361328125,57.33827590942383,312.3433532714844
25019,-60.6836166381836,-258.30368041992193,54.09578323364258,319.9690246582031
25020,-35.55896759033203,-234.1102600097656,53.074790954589844,346.70556640625
25021,-37.09980773925781,-238.2765045166016,61.68030166625977,344.32696533203125
25022,-61.53631210327149,-265.69744873046875,55.76751708984375,312.8145751953125
25023,-54.72595596313477,-253.84945678710938,55.78995895385742,317.6726989746094
25024,-29.79204368591309,-223.5076446533203,53.81528854370117,346.8925476074219
25025,-31.201984405517575,-230.65084838867188,66.20558166503906,346.76165771484375
25026,-57.98714828491211,-252.4582061767578,68.43830108642578,318.618896484375
25027,-47.09656143188477,-249.0100250244141,59.16334915161133,327.13092041015625
25028,-23.92040061950684,-225.22052001953125,63.02292251586914,354.5182189941406
25029,-35.3009147644043,-231.48110961914062,60.67052841186523,345.48260498046875
25030,-65.09669494628906,-260.74581909179693,57.001686096191406,314.8528137207031
25031,-59.78229904174805,-257.19293212890625,49.263832092285156,320.9114685058594
25032,-37.66827392578125,-236.1110992431641,52.57738494873047,345.9126892089844
25033,-49.52749633789063,-242.08746337890625,55.75629806518555,330.837158203125
25034,-64.97328186035156,-263.5844116210937,57.24103927612305,311.6365051269531
25035,-62.89763641357422,-255.3042755126953,48.73650741577149,320.2681884765625
25036,-41.25109481811523,-234.39822387695312,49.03943634033203,347.09075927734375
25037,-45.8399543762207,-240.7560577392578,54.37627410888672,344.1549377441406
25038,-73.34317779541016,-262.249267578125,55.37482833862305,314.8490905761719
25039,-58.57431411743164,-255.1210174560547,47.00493240356445,320.1148681640625
25040,-31.18702507019043,-227.8721008300781,49.19277572631836,346.6307678222656
25041,-36.91655349731445,-230.6396331787109,67.76511383056639,345.6658630371094
25042,-63.7166748046875,-260.74209594726557,56.10036849975586,309.4299621582031
25043,-58.41349792480469,-252.25999450683597,55.95451354980469,317.3136901855469
25044,-22.9293270111084,-223.9227752685547,62.69007110595703,346.13336181640625
25045,-32.40997314453125,-230.1871032714844,63.64000701904297,338.1673583984375
25046,-51.13191223144531,-247.8768310546875,64.608642578125,320.3729248046875
25047,-51.81631469726562,-244.79888916015625,60.16564178466797,322.55328369140625
25048,-31.770450592041016,-222.11265563964844,63.40439224243164,354.4770812988281
25049,-29.47789192199707,-227.9468994140625,76.16493225097656,349.9742431640625
25050,-56.29671478271485,-249.0062713623047,68.15406799316406,327.7330322265625
25051,-44.89376068115234,-250.0272674560547,59.369041442871094,331.50286865234375
25052,-35.196197509765625,-233.99432373046875,60.4648323059082,355.15399169921875
25053,-37.24940490722656,-237.44998168945312,64.94149017333984,351.0625305175781
25054,-61.27452087402344,-261.13851928710943,57.97406005859375,317.85595703125
25055,-57.71039581298828,-259.42190551757807,49.67896270751953,323.5032043457031
25056,-30.16229248046875,-233.13787841796875,54.432373046875,348.76251220703125
25057,-35.41685104370117,-235.6735382080078,60.37507629394531,343.41070556640625
25058,-61.86168670654297,-260.9403076171875,56.59403610229492,316.7601623535156
25059,-60.96410751342773,-256.07467651367193,53.93122863769531,320.9675598144531
25060,-38.49105072021485,-232.93966674804688,55.07937622070313,344.6934814453125
25061,-37.41769790649414,-234.67124938964844,66.15322113037111,338.0364685058594
25062,-62.80413818359375,-261.30682373046875,70.31946563720703,310.82122802734375
25063,-54.50530242919922,-253.49415588378903,55.69646072387695,316.0870056152344
25064,-32.675506591796875,-227.39340209960938,55.5655632019043,346.1258850097656
25065,-36.25085067749024,-225.4935302734375,71.73689270019531,342.8572082519531
25066,-56.30793380737305,-245.6777648925781,69.39197540283203,317.79986572265625
25067,-45.97832870483398,-245.56182861328125,61.33622741699219,318.5964660644531
25068,-36.052635192871094,-214.8796844482422,60.10954284667969,348.7699890136719
25069,-35.84694290161133,-222.3370513916016,67.05827331542969,351.343017578125
25070,-61.14362335205078,-250.0796356201172,61.48208618164063,323.383544921875
25071,-59.06423950195313,-243.40391540527344,55.81239700317383,327.4114074707031
25072,-38.71170425415039,-227.8833312988281,50.37458419799805,347.4946594238281
25073,-39.05951690673828,-237.5023498535156,55.07189559936523,340.7217102050781
25074,-66.11769104003906,-265.20751953125,53.67691421508789,311.54302978515625
25075,-61.106224060058594,-256.7628173828125,57.19615936279297,315.1221008300781
25076,-35.6823844909668,-237.8202362060547,55.00457763671875,335.4185485839844
25077,-36.056373596191406,-235.01905822753903,64.91157531738281,334.0235595703125
25078,-64.40481567382811,-257.73895263671875,63.4754524230957,307.6871643066406
25079,-62.45259094238281,-252.56292724609372,57.79828262329102,315.1482849121094
25080,-29.73968505859375,-234.9367828369141,62.27868270874024,341.6641845703125
25081,-38.247955322265625,-231.60826110839844,63.79708480834961,334.3601379394531
25082,-62.82658004760742,-258.28121948242193,64.39173126220703,311.6477355957031
25083,-52.19030380249024,-251.41477966308597,59.249366760253906,317.1902770996094
25084,-34.76610946655273,-224.6333465576172,63.5352897644043,341.8661193847656
25085,-34.089187622070305,-224.5435943603516,71.20208740234375,339.28558349609375
25086,-56.77168273925781,-250.1843414306641,66.96477508544922,315.0248718261719
25087,-52.253883361816406,-245.2925567626953,63.00048446655274,323.1479187011719
25088,-33.176651000976555,-215.20880126953125,63.67366790771485,352.3827209472656
25089,-41.924278259277344,-225.70669555664062,62.7723503112793,349.7273864746094
25090,-65.68012237548828,-249.4101867675781,68.09423065185547,318.1439514160156
25091,-60.88557052612305,-248.87538146972656,58.09373474121094,325.30584716796875
25092,-40.05432891845703,-224.50245666503903,56.53045654296875,350.5726013183594
25093,-44.10464096069336,-227.9282073974609,58.609840393066406,344.6411437988281
25094,-66.31590270996094,-255.77549743652344,56.37338256835938,314.19085693359375
25095,-56.60338592529297,-247.9628448486328,55.91337585449219,317.7138366699219
25096,-43.26316452026367,-235.112548828125,51.87054061889648,343.83331298828125
25097,-42.66103744506836,-233.39219665527344,62.09917068481445,349.147705078125
25098,-69.49481964111328,-258.27374267578125,58.30691146850586,317.6951599121094
25099,-61.10996627807617,-256.2579345703125,52.93267440795898,316.6891174316406
25100,-34.347240447998054,-234.5366058349609,52.41282653808594,346.38018798828125
25101,-37.66827392578125,-237.90625,58.16105270385742,344.33447265625
25102,-53.54788589477539,-260.00906372070307,58.25081253051758,310.98577880859375
25103,-54.25846862792969,-257.62673950195307,57.68234634399414,318.6376037597656
25104,-38.56210708618164,-227.92446899414062,60.74906539916992,349.0168151855469
25105,-40.76865005493164,-233.751220703125,69.14888000488281,348.4034729003906
25106,-63.46984100341797,-252.55918884277344,63.75968551635742,321.0049743652344
25107,-60.14133071899414,-248.0077209472656,55.2065315246582,327.5909118652344
25108,-38.50975036621094,-223.5787048339844,58.63976287841797,346.9897766113281
25109,-48.820655822753906,-225.4561309814453,72.6830825805664,342.1092224121094
25110,-72.45307922363281,-250.2666320800781,68.34480285644531,322.1942443847656
25111,-65.74369812011719,-247.59259033203125,61.48208618164063,325.1861572265625
25112,-38.57706832885742,-226.26768493652344,61.78875732421875,348.22021484375
25113,-41.40443420410156,-232.1804656982422,67.21160888671875,344.7757568359375
25114,-71.31615447998047,-256.37014770507807,59.69441223144531,314.84161376953125
25115,-69.53595733642578,-256.07467651367193,55.367347717285156,312.1451416015625
25116,-47.45933151245117,-234.91433715820312,55.25889205932617,339.9961853027344
25117,-40.11042785644531,-239.15164184570312,60.93980026245117,335.9944763183594
25118,-71.55924224853516,-268.506103515625,56.276145935058594,313.7420654296875
25119,-59.24749374389648,-260.27835083007807,56.98298645019531,323.2040100097656
25120,-42.17111206054688,-239.58546447753903,49.77993774414063,344.558837890625
25121,-39.8261947631836,-235.4977569580078,57.82820129394531,342.09051513671875
25122,-63.07341384887695,-259.87442016601557,53.94618606567383,309.4710998535156
25123,-62.49559783935547,-259.04043579101557,46.20459365844727,316.2814636230469
25124,-38.87065124511719,-234.02798461914062,50.96548843383789,349.1365051269531
25125,-42.32257843017578,-236.4215087890625,55.8946762084961,340.8974914550781
25126,-75.12898254394531,-252.3310546875,56.089149475097656,319.62493896484375
25127,-73.15431213378906,-259.42938232421875,52.00891876220703,318.86199951171875
25128,-42.73770523071289,-226.10313415527344,59.18578720092773,349.91064453125
25129,-49.0618782043457,-230.3740997314453,61.63916015625,347.0271911621094
25130,-67.20413208007811,-251.4334716796875,66.08589935302734,322.18304443359375
25131,-69.40693664550781,-247.28965759277344,57.44673156738281,321.4051208496094
25132,-43.33235168457031,-223.60861206054688,61.18289184570313,350.4753723144531
25133,-41.97102737426758,-228.44430541992188,61.620460510253906,343.90435791015625
25134,-68.75618743896484,-255.61094665527344,61.95331192016602,315.8999938964844
25135,-62.51429748535156,-263.15057373046875,51.15996170043945,315.0510559082031
25136,-37.63648223876953,-237.2742156982422,49.09927749633789,336.8771057128906
25137,-37.06801986694336,-237.0760040283203,54.32765579223633,337.8868713378906
25138,-61.67282104492188,-258.06805419921875,50.05295181274414,311.352294921875
25139,-67.7838134765625,-263.47219848632807,45.15368270874024,313.7458190917969
25140,-37.72624206542969,-241.12631225585938,48.28397750854492,341.3013916015625
25141,-38.14884948730469,-242.46519470214844,54.07334518432617,338.80316162109375
25142,-67.71649932861328,-266.00787353515625,54.72408676147461,310.68658447265625
25143,-60.76776504516602,-263.12066650390625,47.25176620483398,313.80938720703125
25144,-38.68365478515625,-238.1605682373047,51.552650451660156,342.9619140625
25145,-37.670143127441406,-240.3259735107422,58.76317977905274,339.9512939453125
25146,-59.08855056762695,-260.42794799804693,57.34575653076172,316.0346374511719
25147,-65.99614715576172,-258.10919189453125,45.88296127319336,320.6908264160156
25148,-36.58183288574219,-232.37120056152344,51.3394775390625,347.71533203125
25149,-36.619232177734375,-231.8064727783203,56.01435089111328,349.94805908203125
25150,-61.43720626831055,-254.84800720214844,57.31957626342773,320.1186218261719
25151,-65.91012573242189,-248.8491973876953,56.73615264892578,321.9736022949219
25152,-37.135337829589844,-225.0933532714844,57.29713821411133,355.0642395019531
25153,-34.55106735229492,-227.63275146484372,63.22861862182617,346.77288818359375
25154,-56.21256637573242,-257.80252075195307,63.29967498779297,318.0653991699219
25155,-55.5880012512207,-254.4066925048828,59.06237030029297,318.20751953125
25156,-29.22170829772949,-228.0703125,61.79623794555664,346.20068359375
25157,-27.789325714111328,-230.8378448486328,64.47400665283203,346.02490234375
25158,-54.92604064941406,-256.979736328125,66.68802642822266,319.826904296875
25159,-50.77475357055664,-263.5469970703125,55.01205825805664,314.96875
25160,-28.66820335388184,-235.71841430664062,55.29254913330078,345.415283203125
25161,-43.47820663452149,-238.340087890625,55.41222763061523,341.3836669921875
25162,-67.3612060546875,-260.196044921875,54.18553924560547,315.38763427734375
25163,-63.22861862182617,-257.1966552734375,51.7620849609375,319.4154968261719
25164,-45.73710632324219,-234.8245849609375,49.57798385620117,347.53955078125
25165,-48.3101577758789,-233.5754547119141,51.82940292358398,344.7944641113281
25166,-66.45989227294922,-259.68368530273443,47.55095672607422,320.0325927734375
25167,-60.95849990844727,-259.3321533203125,47.13582992553711,319.8343811035156
25168,-37.55794525146485,-224.4800109863281,54.92977905273438,350.2434997558594
25169,-42.53201293945313,-231.3876037597656,60.15816116333008,348.86346435546875
25170,-63.07528305053711,-254.9564666748047,63.0939826965332,319.6436462402344
25171,-64.10375213623047,-257.24526977539057,52.03509902954102,318.5889892578125
25172,-33.08876419067383,-231.82891845703125,56.43696212768555,346.3502502441406
25173,-29.31520652770996,-231.978515625,67.30136871337889,345.71075439453125
25174,-55.67776107788086,-255.52867126464844,62.94812774658203,320.7506408691406
25175,-55.49076461791992,-252.2786865234375,54.66798782348633,314.3516845703125
25176,-32.59509658813477,-223.5824432373047,60.54711151123047,350.684814453125
25177,-37.50558853149414,-227.91323852539062,64.75823974609375,347.36004638671875
25178,-52.03883743286133,-250.18060302734372,67.0208740234375,325.4217834472656
25179,-51.42549514770508,-251.0071258544922,59.23440551757813,321.3826904296875
25180,-36.25271987915039,-227.33729553222656,54.069602966308594,346.9299621582031
25181,-39.64480972290039,-229.9402618408203,55.77499771118164,350.4566650390625
25182,-59.85149002075195,-251.25021362304688,63.75968551635742,323.1591491699219
25183,-58.12365341186523,-252.0542907714844,52.697059631347656,318.9517517089844
25184,-46.122314453125,-231.46240234375,46.11857604980469,346.23431396484375
25185,-34.558544158935554,-227.3971405029297,57.55892944335938,347.2590637207031
25186,-61.39232635498047,-254.42913818359372,57.92544174194336,319.0938720703125
25187,-60.8575210571289,-257.98202514648443,48.02966690063477,319.13128662109375
25188,-29.382524490356445,-228.2498321533203,57.20363998413086,349.5890197753906
25189,-35.93482971191406,-224.91384887695312,61.66160202026367,348.0107727050781
25190,-60.39751434326172,-249.9150695800781,61.56436157226562,321.0498352050781
25191,-55.92459487915039,-250.28158569335938,52.5250244140625,318.36834716796875
25192,-34.6370849609375,-227.28494262695312,54.18928146362305,349.4955139160156
25193,-29.95098876953125,-227.67015075683597,66.62445068359375,350.1387939453125
25194,-52.32680892944336,-252.248779296875,68.3822021484375,321.3228454589844
25195,-55.13921356201172,-255.13597106933597,60.0609245300293,322.3139343261719
25196,-27.25452041625977,-229.49148559570312,64.948974609375,350.0751953125
25197,-25.09285926818848,-227.9356842041016,70.11377716064453,349.75732421875
25198,-61.93087387084961,-255.31549072265625,61.32875061035156,320.9600830078125
25199,-50.58401870727539,-253.3856964111328,60.55084991455078,325.930419921875
25200,-36.97452163696289,-229.1025238037109,58.27699279785156,353.62811279296875
25201,-33.25706100463867,-229.5625457763672,60.97345733642578,348.5194091796875
25202,-59.83652877807617,-252.72000122070312,57.97406005859375,318.2299499511719
25203,-58.1348762512207,-248.505126953125,47.9361686706543,321.0947265625
25204,-44.18130874633789,-226.19288635253903,53.44878005981445,346.6457214355469
25205,-43.37722778320313,-224.74180603027344,58.03015899658203,348.9494934082031
25206,-62.0206298828125,-246.9343719482422,55.00831985473633,323.0955810546875
25207,-68.67391204833984,-249.6645050048828,49.58546447753906,319.4304504394531
25208,-37.3896484375,-228.73228454589844,50.52417755126953,346.1146545410156
25209,-32.879329681396484,-224.50245666503903,63.68114471435547,347.23663330078125
25210,-59.7205924987793,-251.3811187744141,55.96199417114258,316.7452087402344
25211,-62.22258377075195,-248.6771697998047,56.21630477905274,312.78839111328125
25212,-33.78812789916992,-230.48629760742188,62.69007110595703,340.5870666503906
25213,-33.93772125244141,-225.42620849609372,65.62215423583984,340.81146240234375
25214,-54.65676879882813,-247.61129760742188,63.65122604370117,317.62408447265625
25215,-52.61852264404297,-251.20159912109372,55.27385330200195,319.24346923828125
25216,-37.24379348754883,-231.27166748046875,57.1026611328125,345.14227294921875
25217,-36.83614349365234,-219.1132659912109,66.18313598632811,351.92645263671875
25218,-62.46941757202149,-244.0658721923828,62.47689819335938,322.7926330566406
25219,-70.08011627197266,-247.7421875,55.61792373657226,319.74462890625
25220,-48.68414688110352,-226.9820098876953,54.20050048828125,348.20526123046875
25221,-43.51560592651367,-223.27577209472656,59.66823196411133,354.5107116699219
25222,-73.82001495361328,-253.0715484619141,51.7733039855957,317.1229553222656
25223,-75.97793579101562,-253.6026153564453,51.11882400512695,314.74810791015625
25224,-48.47471237182617,-229.3418884277344,48.64674758911133,346.2754821777344
25225,-44.13642883300781,-231.6493988037109,49.48822784423828,340.5609130859375
25226,-73.95838928222656,-254.71710205078125,50.79719161987305,312.45556640625
25227,-69.24237823486328,-259.24612426757807,47.59957504272461,314.217041015625
25228,-46.47012710571289,-233.2949523925781,49.67896270751953,341.2004089355469
25229,-40.28433227539063,-226.99322509765625,60.52841186523438,340.1495056152344
25230,-61.50452423095703,-250.7939453125,59.97490692138672,318.8283386230469
25231,-58.5350456237793,-255.49501037597656,49.67148208618164,310.8847961425781
25232,-36.76508712768555,-226.5519256591797,50.6288948059082,341.5482482910156
25233,-21.113605499267575,-221.83590698242188,62.62275314331055,349.7760009765625
25234,-55.43840789794922,-249.49620056152344,61.68404006958008,312.6575012207031
25235,-59.57099533081055,-248.32188415527344,56.96054458618164,316.96588134765625
25236,-23.6978759765625,-223.7095947265625,62.19640731811523,351.4589538574219
25237,-33.77316665649414,-220.7363739013672,66.10086059570311,350.1163330078125
25238,-56.10036849975586,-246.2125701904297,63.58390808105469,321.82025146484375
25239,-60.8051643371582,-255.7343597412109,58.49016571044922,319.74462890625
25240,-31.091657638549805,-229.9589691162109,59.83279037475586,350.5314636230469
25241,-30.796205520629886,-225.6767883300781,64.03269958496094,350.015380859375
25242,-56.7099723815918,-254.35060119628903,59.369041442871094,315.89251708984375
25243,-53.76293182373047,-253.7709045410156,53.35154342651367,316.8760986328125
25244,-34.57724380493164,-232.7003173828125,48.08202362060547,344.28582763671875
25245,-38.492919921875,-234.05789184570312,55.84979629516602,344.1960754394531
25246,-65.56979370117189,-257.75765991210943,58.94269180297852,314.6695861816406
25247,-63.25105667114258,-262.24551391601557,44.424400329589844,307.28326416015625
25248,-33.380477905273445,-238.17552185058597,44.70863342285156,338.3244323730469
25249,-33.739505767822266,-238.6093597412109,51.06646347045898,338.71337890625
25250,-57.48039245605469,-261.29559326171875,53.5684585571289,312.74725341796875
25251,-56.49305725097656,-262.77658081054693,55.1653938293457,305.67510986328125
25252,-38.664955139160156,-237.6407165527344,52.9177131652832,337.71484375
25253,-27.946401596069336,-231.63070678710938,63.23609924316406,339.8727722167969
25254,-53.650733947753906,-253.1800079345703,61.848594665527344,313.95526123046875
25255,-46.780540466308594,-251.8860015869141,59.71685409545898,319.1836242675781
25256,-31.51426696777344,-229.4727783203125,54.42489242553711,347.63677978515625
25257,-33.39169692993164,-221.79103088378903,59.39522171020508,348.1192321777344
25258,-49.95571517944336,-250.4835357666016,59.83279037475586,325.5489501953125
25259,-52.48388671875,-249.21571350097656,56.72493362426758,320.4065856933594
25260,-28.12217712402344,-223.82179260253903,63.74472427368164,352.8427429199219
25261,-29.651796340942386,-224.91758728027344,64.01025390625,346.4662170410156
25262,-55.86101531982422,-247.6748809814453,58.63976287841797,325.5601501464844
25263,-61.60550308227539,-256.08590698242193,53.89382934570313,324.02679443359375
25264,-38.20120620727539,-223.90032958984372,50.00059127807617,350.62872314453125
25265,-36.76134490966797,-235.31825256347656,57.52901077270508,343.8819274902344
25266,-56.90818786621094,-259.29473876953125,56.52671813964844,317.13043212890625
25267,-63.8569221496582,-260.0053100585937,53.45251846313477,312.0628662109375
25268,-35.20180892944336,-235.81939697265625,47.21810531616211,344.68975830078125
25269,-36.01710510253906,-234.28228759765625,54.71660614013672,345.49383544921875
25270,-59.058631896972656,-254.81434631347656,51.05150604248047,317.2164306640625
25271,-62.7947883605957,-255.5922393798828,52.24827194213867,317.6166076660156
25272,-21.659629821777344,-233.8559417724609,55.88345336914063,345.2021179199219
25273,-38.657474517822266,-233.6240692138672,58.1760139465332,350.1350402832031
25274,-58.800575256347656,-253.3856964111328,64.08131408691406,325.2160949707031
25275,-57.1026611328125,-254.1935272216797,55.72264099121094,319.54266357421875
25276,-32.53152084350586,-228.86691284179688,60.76028442382813,353.5570373535156
25277,-24.12048530578613,-226.8623352050781,67.45844268798828,357.14361572265625
25278,-48.05210494995117,-254.24961853027344,65.50621795654297,331.09893798828125
25279,-48.50837326049805,-255.47630310058597,64.18977355957031,323.383544921875
25280,-33.365516662597656,-233.5754547119141,66.94607543945311,356.47418212890625
25281,-33.70958709716797,-226.60427856445312,72.52227020263672,360.4983215332031
25282,-60.15068054199219,-256.47860717773443,72.20811462402344,329.3598937988281
25283,-62.95934677124024,-258.0830078125,61.38110733032226,324.3521728515625
25284,-33.73202896118164,-231.69053649902344,65.07612609863281,357.91778564453125
25285,-37.10167694091797,-231.8551025390625,64.33188629150389,353.6842041015625
25286,-58.21341323852539,-257.21536254882807,65.20702362060547,320.9638366699219
25287,-64.07009887695311,-265.92184448242193,54.20798110961914,316.5694274902344
25288,-36.70898818969727,-239.0618896484375,58.71081924438477,342.04937744140625
25289,-35.889949798583984,-235.13873291015625,62.3908805847168,348.07061767578125
25290,-57.73844528198242,-255.6782531738281,57.71226501464844,315.8027648925781
25291,-63.91302108764648,-260.28207397460943,56.55663681030274,308.8166198730469
25292,-43.26877212524414,-239.5331115722656,51.02532577514648,338.75079345703125
25293,-27.98754119873047,-225.792724609375,66.44493103027344,345.2918701171875
25294,-56.97176742553711,-258.44204711914057,63.81952285766602,316.07952880859375
25295,-60.59946823120117,-261.07119750976557,54.57823181152344,318.02801513671875
25296,-31.95931434631348,-235.1985626220703,57.20363998413086,343.7547607421875
25297,-22.65444374084473,-228.19000244140625,62.7312126159668,351.8105163574219
25298,-49.07683563232422,-249.72059631347656,64.81059265136719,320.5860900878906
25299,-48.83000564575195,-247.8805694580078,60.56206893920898,325.9004821777344
25300,-36.9146842956543,-228.3433380126953,58.58740234375,345.19464111328125
25301,-38.35828399658203,-227.75616455078125,60.67800521850586,344.5177001953125
25302,-51.7733039855957,-250.05345153808597,61.93087387084961,319.5239562988281
25303,-57.17745971679688,-259.42938232421875,51.07020568847656,315.9673156738281
25304,-31.607765197753906,-236.638427734375,53.878868103027344,346.600830078125
25305,-28.17827606201172,-230.16465759277344,61.10061645507813,350.72967529296875
25306,-60.58824920654297,-255.69322204589844,61.28013229370117,319.97650146484375
25307,-59.13342666625977,-254.8442687988281,53.01121139526367,316.7190246582031
25308,-33.12990188598633,-235.39303588867188,56.61273574829102,338.69842529296875
25309,-36.39109802246094,-232.37493896484372,60.67052841186523,343.94549560546875
25310,-56.34346389770508,-259.09652709960943,62.43949890136719,319.7109680175781
25311,-61.56062316894531,-269.362548828125,54.32391738891602,312.1900329589844
25312,-33.077545166015625,-241.44793701171875,55.4945068359375,338.1299743652344
25313,-32.950389862060554,-235.1536865234375,59.15960693359375,346.3614807128906
25314,-57.652427673339844,-263.47970581054693,54.90734100341797,319.37811279296875
25315,-61.18289184570313,-269.11196899414057,56.71371459960938,312.5191345214844
25316,-29.86123085021973,-243.9162750244141,61.04077529907226,343.60516357421875
25317,-29.80887222290039,-235.84556579589844,62.44697952270508,345.32177734375
25318,-49.55180358886719,-259.23117065429693,67.41730499267578,316.5544738769531
25319,-59.51489639282226,-263.19918823242193,60.67052841186523,313.26336669921875
25320,-32.131351470947266,-235.13499450683597,59.54855728149414,339.663330078125
25321,-28.92625617980957,-233.5829315185547,61.67282104492188,343.724853515625
25322,-51.69850540161133,-253.95042419433597,66.65436553955078,319.7259216308594
25323,-70.40922546386719,-259.08529663085943,61.919654846191406,318.8171081542969
25324,-41.75785446166992,-238.3774871826172,57.82820129394531,342.5056457519531
25325,-31.56662559509277,-229.9851531982422,67.43226623535156,351.63848876953125
25326,-52.04631805419922,-257.08447265625,64.79937744140625,321.9100036621094
25327,-60.45735168457031,-262.48486328125,59.46253967285156,314.23199462890625
25328,-37.10541915893555,-236.88900756835938,57.61876678466797,346.6531982421875
25329,-29.49472045898437,-229.5550537109375,63.69610595703125,350.6324462890625
25330,-53.86391067504883,-261.43023681640625,58.35926818847656,322.08953857421875
25331,-60.64060592651367,-266.826904296875,57.656166076660156,314.9014587402344
25332,-38.34332275390625,-238.1830139160156,58.5761833190918,341.5220642089844
25333,-34.569766998291016,-236.8516082763672,64.87791442871094,344.570068359375
25334,-54.43985366821289,-255.51744079589844,65.98118591308594,319.7670593261719
25335,-54.34635543823242,-264.35858154296875,62.83966827392578,313.46905517578125
25336,-40.48628616333008,-241.91917419433597,52.02761840820313,335.6279602050781
25337,-36.98200225830078,-224.6146545410156,65.89142608642578,344.74957275390625
25338,-49.43212890625,-244.49595642089844,69.20124053955078,323.7051696777344
25339,-57.10640335083008,-253.55026245117188,60.61442947387695,317.3810119628906
25340,-43.42584991455078,-229.19976806640625,64.56376647949219,342.1690673828125
25341,-28.922515869140625,-223.29820251464844,68.73001098632811,345.7444152832031
25342,-49.86221694946289,-249.09603881835938,68.40090179443361,319.5277099609375
25343,-62.4320182800293,-256.26541137695307,59.2792854309082,317.796142578125
25344,-34.87643814086914,-232.71527099609372,60.30775833129883,346.20068359375
25345,-38.474220275878906,-227.05307006835938,59.47002029418945,352.64453125
25346,-60.57703018188477,-252.51055908203125,59.3204231262207,327.0448913574219
25347,-60.049705505371094,-258.51309204101557,53.59463500976562,319.0115966796875
25348,-40.83409881591797,-234.51416015625,54.09204483032226,340.57586669921875
25349,-35.21302795410156,-228.7098388671875,61.62420272827149,355.0567626953125
25350,-55.01953887939453,-254.55255126953125,63.1126823425293,325.085205078125
25351,-73.30390930175781,-258.27749633789057,50.6064567565918,316.8985595703125
25352,-45.23595809936523,-235.21353149414062,51.0103645324707,345.4190368652344
25353,-42.89104080200195,-228.35829162597656,58.49016571044922,351.1597900390625
25354,-68.40837860107422,-260.371826171875,54.42489242553711,317.9943542480469
25355,-61.80371856689453,-259.16384887695307,52.43152618408203,313.9477844238281
25356,-34.20325469970703,-229.3306579589844,55.25889205932617,341.9334411621094
25357,-34.16959762573242,-230.8303680419922,53.45251846313477,345.1235656738281
25358,-51.17492294311523,-254.46653747558597,57.0727424621582,318.68621826171875
25359,-58.295692443847656,-255.99989318847656,57.14380264282226,314.9313659667969
25360,-27.90152359008789,-233.51187133789062,62.08420944213867,345.61724853515625
25361,-30.08562469482422,-223.2047119140625,65.00881195068361,349.3047790527344
25362,-48.59439086914063,-248.73699951171875,63.24357986450195,326.05755615234375
25363,-57.50657272338867,-257.8212280273437,60.41621398925781,317.0107421875
25364,-36.53695297241211,-236.0550079345703,63.80830383300781,344.46160888671875
25365,-26.282146453857425,-231.75411987304688,71.30680084228516,352.9324951171875
25366,-55.73011779785156,-254.7133636474609,68.16902923583984,330.7249755859375
25367,-60.98093795776367,-259.5677490234375,60.77150344848633,317.7250671386719
25368,-36.47337341308594,-239.8135986328125,57.1026611328125,342.6814270019531
25369,-28.26803398132324,-227.4382781982422,62.4133186340332,348.68023681640625
25370,-56.39956283569336,-254.9452362060547,61.74013900756836,326.7232666015625
25371,-68.45700073242189,-259.09652709960943,54.51465225219727,318.42816162109375
25372,-45.19482040405274,-238.23536682128903,49.90335464477539,338.92657470703125
25373,-36.05076599121094,-232.45721435546875,54.92230224609375,344.1885986328125
25374,-58.9576530456543,-255.02377319335938,55.07937622070313,321.76416015625
25375,-74.48197937011719,-260.196044921875,43.16779708862305,311.52056884765625
25376,-47.94364929199219,-233.78488159179688,49.4022102355957,333.0960693359375
25377,-33.18600082397461,-222.16876220703125,59.93002700805664,341.03961181640625
25378,-54.25285720825195,-249.88140869140625,55.30751037597656,314.6994934082031
25379,-63.07902145385742,-255.51744079589844,58.99505233764648,307.47027587890625
25380,-38.16381072998047,-231.1931304931641,59.372779846191406,338.04022216796875
25381,-26.18490982055664,-223.14486694335938,64.24587249755861,344.7682800292969
25382,-52.996253967285156,-248.8379821777344,65.73061370849611,319.2621765136719
25383,-60.82760238647461,-250.7490692138672,67.99699401855469,314.7967224121094
25384,-32.44550323486328,-231.1632232666016,62.57787704467773,337.86444091796875
25385,-27.340538024902344,-225.1494598388672,72.15576171875,351.7394714355469
25386,-37.25127410888672,-244.17433166503903,70.19605255126953,325.4516906738281
25387,-54.14813995361328,-259.89688110351557,59.40270233154297,313.0352478027344
25388,-28.387710571289066,-232.2664794921875,58.55374526977539,340.2280578613281
25389,-25.751081466674805,-223.2907257080078,71.9388427734375,351.5823974609375
25390,-52.19965362548828,-257.3612060546875,63.96537780761719,314.28436279296875
25391,-60.68174743652344,-262.9149780273437,55.35239028930664,310.67535400390625
25392,-37.6589241027832,-240.546630859375,57.53274917602539,337.4380798339844
25393,-31.35719108581543,-232.87608337402344,61.68030166625977,344.1100769042969
25394,-48.93846130371094,-262.05105590820307,57.76836395263672,322.0259704589844
25395,-64.36554718017578,-263.9696044921875,51.3506965637207,312.20123291015625
25396,-47.13208770751953,-233.39593505859372,55.1953125,340.5459289550781
25397,-35.83759307861328,-233.90830993652344,68.00820922851561,357.6821594238281
25398,-62.41706085205078,-259.9716796875,63.01918411254883,321.188232421875
25399,-60.15816116333008,-260.6822509765625,56.50053787231445,315.0697326660156
25400,-45.912879943847656,-235.7483367919922,55.56930160522461,341.1405944824219
25401,-30.11554527282715,-224.607177734375,65.42394256591797,353.3102111816406
25402,-54.85872268676758,-246.83714294433597,66.74038696289061,328.2379150390625
25403,-58.27325057983398,-251.34371948242188,61.17915344238281,321.3377990722656
25404,-40.26563262939453,-231.4250030517578,56.96054458618164,343.86322021484375
25405,-29.606918334960934,-224.1696014404297,58.59114456176758,353.63934326171875
25406,-56.85582733154297,-247.659912109375,60.625648498535156,326.33807373046875
25407,-58.36301040649414,-258.8160400390625,55.27759170532226,316.66668701171875
25408,-37.09045791625977,-232.79754638671875,55.07563781738281,343.3471374511719
25409,-32.797054290771484,-225.65060424804688,58.43780517578125,350.92041015625
25410,-50.2362060546875,-253.2360992431641,56.68379211425781,326.8354797363281
25411,-64.34310913085939,-258.8309936523437,57.11014175415039,317.8634338378906
25412,-44.345863342285156,-240.09410095214844,52.34925079345703,348.1042785644531
25413,-34.01251983642578,-229.3418884277344,58.228370666503906,356.59759521484375
25414,-65.87646484375,-255.9662322998047,55.03449630737305,325.5826110839844
25415,-67.79129791259766,-257.63796997070307,48.86366271972656,316.6517333984375
25416,-44.46554183959961,-235.0676727294922,56.048011779785156,343.18255615234375
25417,-37.89827728271485,-226.1629638671875,60.01604461669922,352.210693359375
25418,-57.16997909545898,-253.0790252685547,62.23754501342773,321.1134338378906
25419,-67.95211029052734,-261.2806396484375,57.31957626342773,312.0329284667969
25420,-44.936767578125,-231.1519927978516,58.41536712646485,344.17364501953125
25421,-41.903709411621094,-224.4912414550781,63.63252639770508,348.654052734375
25422,-52.99999237060547,-254.07757568359372,62.85462951660156,323.0207824707031
25423,-66.88998413085939,-261.8677978515625,61.99445343017578,314.6845397949219
25424,-38.91178894042969,-231.61573791503903,56.429481506347656,347.2029724121094
25425,-33.967639923095696,-222.25103759765625,66.22428131103516,355.1614685058594
25426,-58.94269180297852,-247.17372131347656,64.54880523681639,323.0619201660156
25427,-63.374473571777344,-256.28787231445307,57.32705688476562,317.3024597167969
25428,-48.14560317993164,-234.2486267089844,52.67462158203125,339.2332458496094
25429,-29.606918334960934,-224.7530212402344,60.9360580444336,349.3160095214844
25430,-52.33055114746094,-251.99819946289062,60.4236946105957,321.775390625
25431,-62.70877075195313,-262.24551391601557,50.85702896118164,311.1727600097656
25432,-42.18420028686523,-238.47845458984372,52.07997512817383,338.0925598144531
25433,-31.054258346557614,-228.26480102539062,58.34804916381836,345.426513671875
25434,-52.00518035888672,-254.0177459716797,56.893226623535156,320.55242919921875
25435,-65.86151123046875,-263.80133056640625,51.66484832763672,312.2386474609375
25436,-41.07719039916992,-234.29351806640625,54.99335861206055,346.1707458496094
25437,-30.38107681274414,-230.55735778808597,60.4236946105957,353.7066345214844
25438,-48.70284652709961,-255.9176177978516,58.68838119506836,326.0052185058594
25439,-63.68862533569336,-261.94631958007807,54.00228500366211,315.2342834472656
25440,-36.65288925170898,-233.1640625,51.72842788696289,346.3614807128906
25441,-33.33559799194336,-229.7944183349609,57.55144882202149,353.41119384765625
25442,-56.72493362426758,-249.33538818359372,61.54940414428711,331.99652099609375
25443,-62.22258377075195,-258.2587890625,58.800575256347656,319.37811279296875
25444,-40.92759704589844,-238.7589569091797,55.61792373657226,342.1241760253906
25445,-25.840839385986328,-225.8301239013672,68.18772888183594,352.8576965332031
25446,-54.95222091674805,-253.9242401123047,60.95475769042969,321.9474182128906
25447,-57.26347732543945,-268.24807739257807,54.27529907226562,310.11810302734375
25448,-40.09733581542969,-242.09494018554688,55.135475158691406,336.70880126953125
25449,-32.99526596069336,-234.79840087890625,59.55229568481445,349.4581298828125
25450,-59.87018966674805,-258.528076171875,57.26721954345703,319.31451416015625
25451,-60.79768371582031,-266.4454345703125,52.87283706665039,313.6822509765625
25452,-41.83264923095703,-241.97900390625,54.58570861816406,338.0215148925781
25453,-40.97995376586914,-233.6465148925781,55.84979629516602,346.4437561035156
25454,-66.64688873291016,-254.4515686035156,56.702491760253906,320.55242919921875
25455,-71.21704864501953,-258.07553100585943,58.11991500854492,311.8646545410156
25456,-55.76377868652344,-239.361083984375,51.18614196777344,339.43145751953125
25457,-41.78029251098633,-228.65374755859372,55.707679748535156,348.560546875
25458,-59.18578720092773,-249.1745758056641,58.29195022583008,325.0403137207031
25459,-72.24925994873047,-260.60745239257807,56.16394805908203,314.9500732421875
25460,-41.671836853027344,-238.8412322998047,54.85498428344727,342.22515869140625
25461,-29.43488311767578,-223.17105102539062,61.46338653564453,357.0987243652344
25462,-54.62685012817383,-249.5410919189453,61.31378936767578,325.3133239746094
25463,-61.9084358215332,-256.67681884765625,59.05115127563477,319.57257080078125
25464,-36.43971633911133,-234.07286071777344,56.88948822021485,352.4276123046875
25465,-26.88053131103516,-222.5016021728516,67.77259826660156,355.71124267578125
25466,-50.49799728393555,-249.44384765625,73.0196762084961,326.1024475097656
25467,-53.3478012084961,-261.10858154296875,64.83677673339844,323.15167236328125
25468,-31.734920501708984,-234.87319946289062,59.858970642089844,349.16265869140625
25469,-22.747941970825195,-228.3358459472656,62.955604553222656,354.2751159667969
25470,-52.4427490234375,-251.2203063964844,64.22343444824219,323.701416015625
25471,-61.25395202636719,-263.52084350585943,58.44902801513672,313.2371826171875
25472,-43.392189025878906,-239.443359375,60.8575210571289,338.7433166503906
25473,-33.59739303588867,-236.53370666503903,61.95331192016602,350.26593017578125
25474,-53.11219024658203,-257.99325561523443,60.89118194580078,321.8127746582031
25475,-58.6173210144043,-263.2328491210937,54.51839065551758,314.744384765625
25476,-43.28373336791992,-239.28628540039062,61.77753829956055,335.83740234375
25477,-35.8226318359375,-230.47506713867188,66.8974609375,349.3421936035156
25478,-55.81987762451172,-249.33538818359372,67.65292358398439,318.4356384277344
25479,-61.69152069091797,-257.60055541992193,63.1239013671875,312.10772705078125
25480,-43.582923889160156,-242.68585205078125,57.502830505371094,336.0057067871094
25481,-35.59823608398437,-230.9986572265625,60.8650016784668,344.6299133300781
25482,-60.34889602661133,-256.76657104492193,64.03643798828125,320.3093566894531
25483,-55.62166213989258,-267.67587280273443,63.68488693237305,312.3807678222656
25484,-27.538753509521484,-242.38291931152344,61.9084358215332,343.9081115722656
25485,-30.369857788085934,-233.7549743652344,70.6897201538086,349.1177978515625
25486,-48.77390670776367,-251.1492462158203,67.30885314941406,326.7270202636719
25487,-54.58197021484375,-261.64715576171875,67.06949615478516,325.71722412109375
25488,-38.26478576660156,-242.4502410888672,58.837974548339844,342.6739501953125
25489,-28.110958099365234,-230.0262908935547,66.75160217285156,358.0599060058594
25490,-48.80382537841797,-259.7547607421875,68.93196868896484,327.87890625
25491,-60.56206893920898,-263.446044921875,61.2689094543457,315.55218505859375
25492,-45.74458694458008,-250.6518402099609,51.34321594238281,334.7378845214844
