,T7,F8,Cz,P4
600,143.6776123046875,29.2030086517334,244.2771759033203,-6.946864128112793
601,52.60356140136719,-59.96742630004883,144.58639526367188,-94.65499877929688
602,64.36928558349611,-52.76437759399414,161.12423706054688,-82.34324645996094
603,102.94822692871094,-15.546764373779295,199.8976593017578,-40.98556518554688
604,147.90182495117188,26.55702972412109,246.10784912109372,-2.475813865661621
605,56.046142578125,-65.66142272949219,154.84681701660156,-92.86919403076172
606,68.48878479003906,-45.9222297668457,169.51097106933594,-69.81271362304689
607,96.92698669433594,-10.991565704345703,209.37081909179688,-38.072181701660156
608,145.67283630371094,32.83258056640625,258.59912109375,6.533605098724365
609,57.84877395629883,-63.62317657470703,164.0619354248047,-90.2737045288086
610,73.74334716796875,-53.45064926147461,178.8607177734375,-81.43632507324219
611,107.85123443603516,-6.657021999359131,225.22799682617188,-42.077613830566406
612,150.3589324951172,38.820159912109375,265.97793579101557,2.314998149871826
613,63.45114135742188,-50.86264038085938,176.02212524414062,-83.25391387939453
614,75.25426483154297,-42.52266311645508,188.0945281982422,-72.0080337524414
615,104.97151184082031,-12.19581413269043,222.1612701416016,-30.16229248046875
616,144.29281616210938,29.504070281982425,258.4345703125,4.738453388214111
617,57.24664688110352,-55.305641174316406,160.9578094482422,-82.09828186035156
618,66.43558502197266,-51.32264709472656,167.5400390625,-74.52124786376953
619,97.1401596069336,-15.397168159484865,203.89935302734372,-37.006309509277344
620,140.54917907714844,25.435060501098636,243.6021270751953,3.971773862838745
621,47.82210159301758,-71.47696685791016,153.05540466308594,-85.9990005493164
622,67.14242553710939,-53.11032104492188,166.08895874023438,-78.98294830322266
623,102.82855224609376,-13.026071548461914,209.0043029785156,-40.00944900512695
624,142.75572204589844,31.022470474243164,254.97889709472656,-0.23935359716415405
625,55.7170295715332,-65.15279388427734,161.66091918945312,-89.4322280883789
626,69.60327911376953,-42.118751525878906,178.2174530029297,-80.30313110351562
627,100.16200256347656,-5.385456085205078,209.19129943847656,-44.418792724609375
628,143.46255493164062,33.374866485595696,255.01629638671875,-10.333343505859377
629,60.7060546875,-55.35052108764648,162.20693969726562,-93.41522216796876
630,71.99681091308594,-42.81437301635742,176.63172912597656,-82.09454345703125
631,111.24332427978516,-6.679461479187013,218.2418670654297,-30.9102725982666
632,151.79505920410156,22.450618743896484,256.3626708984375,8.04078483581543
633,64.50953674316406,-58.07316589355469,170.7937469482422,-78.42570495605469
634,65.71004486083984,-52.11924743652344,174.2008056640625,-73.14496612548828
635,111.1311264038086,-8.788764953613281,215.2611541748047,-32.72786331176758
636,153.7173614501953,33.969512939453125,257.42105102539057,10.423101425170898
637,56.13216018676758,-67.73706817626953,155.16844177246094,-88.2055435180664
638,67.912841796875,-52.11176681518555,171.34352111816406,-73.31700134277344
639,104.27589416503906,-12.008818626403807,211.12109375,-43.75682830810547
640,142.50140380859375,27.869733810424805,249.1895294189453,0.7891188859939575
641,55.043846130371094,-60.06653213500977,160.92041015625,-88.35139465332031
642,64.62547302246094,-50.20441818237305,174.67202758789062,-79.02782440185547
643,105.70452880859376,-7.737853050231934,217.6958312988281,-39.66911697387695
644,149.02005004882812,32.15940093994141,264.30621337890625,0.2879723012447357
645,68.85903930664061,-59.12407684326172,172.95541381835938,-83.45960998535156
646,78.8744888305664,-43.06120681762695,190.23748779296875,-78.85205078125
647,114.4035415649414,-7.749072551727295,229.5924530029297,-36.44158554077149
648,155.50877380371094,31.142147064208984,267.3729248046875,1.847510576248169
649,65.15279388427734,-58.46585464477539,170.27391052246094,-89.8510971069336
650,72.19876861572266,-46.53183364868164,176.1904296875,-76.85120391845703
651,103.47180938720705,-8.328757286071777,208.26754760742188,-45.36872482299805
652,147.97662353515625,34.14154815673828,250.7715148925781,-4.046571731567384
653,53.58528518676758,-62.04867935180664,156.2642364501953,-93.73311614990234
654,69.91742706298828,-52.90088653564453,167.93646240234375,-84.18888854980469
655,105.00143432617188,-10.180007934570312,213.6305694580078,-39.366188049316406
656,149.59225463867188,38.00486373901367,256.49728393554693,-2.9582607746124268
657,50.87012100219727,-52.04444885253906,159.6114501953125,-94.93362426757812
658,65.66889953613281,-44.16073989868164,174.97496032714844,-81.68689727783203
659,97.46927642822266,-3.5790841579437256,219.04220581054688,-41.89809799194336
660,143.56353759765625,42.38428497314453,262.18194580078125,-1.0247325897216797
661,60.02913284301758,-54.662376403808594,171.51181030273438,-85.45297241210938
662,74.46888732910156,-42.85551452636719,185.1400146484375,-73.48529052734375
663,112.09228515625,-4.072751045227052,227.060546875,-33.92837142944336
664,156.0922088623047,33.142993927001946,263.5731811523437,3.997952938079834
665,64.90970611572266,-61.05386734008789,169.97097778320312,-82.89488220214844
666,80.04882049560547,-49.6135139465332,180.26318359375,-70.80752563476562
667,118.27433776855469,-7.906148433685303,221.4768829345703,-35.820762634277344
668,150.10836791992188,26.70662498474121,257.11065673828125,-3.2649326324462886
669,61.33061981201172,-61.67469024658203,163.6019287109375,-92.5849609375
670,79.110107421875,-49.965065002441406,177.03564453125,-76.57445526123047
671,110.09143829345705,-1.196768045425415,217.0226593017578,-36.94272994995117
672,141.87310791015625,37.9113655090332,251.53445434570312,-9.14779567718506
673,50.765403747558594,-53.78350067138672,160.755859375,-90.80850982666016
674,58.48081588745117,-38.77154159545898,175.21804809570312,-79.873046875
675,99.4888153076172,0.938714861869812,215.7099456787109,-46.39719772338867
676,136.20341491699222,38.93235778808594,247.56642150878903,-9.525525093078613
677,57.32144546508789,-45.52580261230469,165.96180725097656,-89.11433410644531
678,57.6842155456543,-43.44267654418945,167.0314178466797,-85.63996887207031
679,95.74517822265624,-2.8423240184783936,204.32196044921875,-49.95758438110352
680,141.2635040283203,38.6930046081543,254.04766845703125,-6.260592460632324
681,52.94950485229492,-48.83187484741211,160.04901123046875,-90.77859497070312
682,71.5031509399414,-35.6524658203125,176.71026611328125,-70.77760314941406
683,100.57713317871094,-0.9985532760620116,210.3469390869141,-35.61880874633789
684,135.78828430175778,34.89700698852539,250.62939453125,-5.363016605377197
685,49.59855270385742,-57.75153350830078,149.1808624267578,-93.81539154052734
686,65.27621459960939,-37.60469436645508,162.28921508789062,-86.18599700927734
687,100.97730255126952,-8.938361167907715,198.36802673339844,-49.6135139465332
688,143.032470703125,35.57392883300781,240.9654998779297,-7.722893238067628
689,46.49069595336914,-60.67239761352539,145.9608154296875,-100.65567016601562
690,63.20804977416992,-43.68951034545898,163.69541931152344,-83.21277618408203
691,100.1545181274414,-2.9171218872070312,203.8507232666016,-43.85780715942383
692,138.89241027832028,34.98676300048828,250.17312622070312,-6.0474181175231925
693,53.80594253540039,-54.78579330444336,161.77685546875,-91.96414184570312
694,63.48854064941406,-41.56524658203125,173.83055114746094,-81.95990753173828
695,96.19022369384766,-4.166248321533203,210.6947479248047,-44.7366828918457
696,140.30982971191406,41.52410888671875,256.1981201171875,-8.556891441345215
697,61.37923812866211,-54.15375137329102,161.79180908203125,-96.0144500732422
698,69.20310974121094,-43.08364868164063,173.20973205566406,-82.79764556884766
699,107.88489532470705,-13.310303688049315,216.40182495117188,-42.04769515991211
700,145.9570770263672,29.62748718261719,260.7645263671875,-3.33599066734314
701,64.40481567382811,-60.47044372558594,169.3202362060547,-88.96473693847656
702,78.04048919677734,-44.91619873046875,176.0931854248047,-72.7260971069336
703,105.28565979003906,-10.022932052612305,212.47119140625,-41.74850463867188
704,147.98410034179688,34.49309539794922,255.4725646972656,0.9162755012512208
705,51.47224426269531,-58.70520782470703,150.332763671875,-93.37034606933594
706,63.54090118408203,-40.66393280029297,169.84381103515625,-77.24015045166016
707,100.29663848876952,-4.128849506378174,212.729248046875,-42.12249374389648
708,148.0364532470703,31.41515922546387,257.73519897460943,-3.6651020050048833
709,54.89051055908203,-55.12238693237305,160.8755340576172,-94.4062957763672
710,67.00030517578125,-35.50661087036133,171.42579650878906,-84.8957290649414
711,102.4433364868164,7.857529640197754,209.5615539550781,-45.14059066772461
712,140.61650085449222,37.346641540527344,245.53564453125,-11.7432861328125
713,54.774574279785156,-46.40841674804688,160.1163330078125,-93.94255065917969
714,66.07281494140625,-32.181838989257805,169.73910522460938,-81.22689056396484
715,105.36420440673828,2.528172254562378,212.8676300048828,-36.25833129882813
716,148.47402954101562,43.07242965698242,259.75100708007807,6.937514305114746
717,59.06423950195313,-49.280662536621094,162.7080841064453,-73.50773620605469
718,66.32338714599611,-39.4783821105957,174.1634063720703,-66.12142944335939
719,103.68872833251952,-6.039938449859619,214.51318359375,-29.474151611328125
720,144.8538055419922,27.806156158447266,253.62132263183597,-1.783932328224182
721,58.30503845214844,-63.81765365600586,155.35543823242188,-94.50353240966795
722,66.3046875,-49.83790588378906,170.28512573242188,-88.92733764648438
723,105.01638793945312,-7.304024696350098,208.42462158203125,-49.011390686035156
724,150.6356964111328,30.79059600830078,254.6236114501953,-11.859222412109375
725,67.09754180908203,-57.6243782043457,164.0694122314453,-106.28795623779295
726,75.82646942138672,-42.54136276245117,183.6926727294922,-88.4486312866211
727,111.8978042602539,0.003739899955689907,223.49267578125,-45.60808181762695
728,144.20680236816406,36.35930633544922,260.06515502929693,-2.7824854850769043
729,59.99547576904297,-48.1474723815918,167.21092224121094,-91.57518768310548
730,64.24400329589844,-41.66622543334961,177.4619903564453,-74.52124786376953
731,98.94279479980469,3.53794527053833,216.9141998291016,-36.42288589477539
732,140.51925659179688,34.676353454589844,255.6745147705078,-3.257452964782715
733,52.81112670898438,-51.36378479003906,167.22589111328125,-88.83758544921875
734,68.91513824462889,-40.41709899902344,179.72088623046875,-77.51316833496094
735,98.36310577392578,-4.218606948852538,212.12338256835938,-40.162784576416016
736,139.12802124023438,42.18981170654297,256.43746948242193,1.5146595239639282
737,52.72885131835938,-51.54704284667969,162.31539916992188,-86.49640655517578
738,66.91802978515625,-37.55607604980469,176.16424560546875,-71.39469146728516
739,101.493408203125,-3.2462332248687744,212.0934600830078,-44.7553825378418
740,141.83197021484375,37.05118942260742,256.77032470703125,-4.899269104003906
741,49.553672790527344,-57.81511306762695,155.73690795898438,-96.88211059570312
742,64.62547302246094,-44.13829803466797,169.5296630859375,-83.06317901611328
743,101.08201599121094,-9.488125801086426,212.8115234375,-44.90497970581055
744,142.4004364013672,32.978439331054695,254.3206787109375,-6.974913597106934
745,52.485755920410156,-60.33954620361328,164.05445861816406,-92.95147705078124
746,64.82742309570311,-54.6212387084961,175.44618225097656,-82.1805648803711
747,103.34091186523438,-11.30571746826172,214.18780517578125,-40.28246307373047
748,149.3155059814453,29.73220443725586,259.94174194335943,-5.213420391082764
749,62.42266845703125,-57.35136413574219,168.95745849609375,-87.87642669677734
750,74.47636413574219,-43.95504379272461,182.52581787109372,-79.46913146972656
751,107.6193618774414,-7.423701286315918,218.42886352539062,-45.032135009765625
752,149.96998596191406,34.814727783203125,264.0780639648437,-9.01689910888672
753,62.96121597290039,-53.15519714355469,172.4991455078125,-94.31279754638672
754,72.7298355102539,-35.98531723022461,187.14459228515625,-81.81779479980469
755,108.35612487792969,-0.02243939973413944,230.58726501464844,-43.315521240234375
756,154.8617706298828,35.158798217773445,271.64016723632807,1.3388842344284058
757,63.13325119018555,-55.41783905029297,178.69241333007812,-86.31314849853516
758,73.50025177001953,-48.69723892211914,188.2366485595703,-77.18779754638672
759,109.73614501953124,-2.831104278564453,220.36985778808597,-35.70856475830078
760,142.7482452392578,34.64269256591797,258.3822021484375,-7.3302040100097665
761,55.7581672668457,-58.29756164550781,163.69541931152344,-92.91033172607422
762,64.55815124511719,-50.55222702026367,171.49685668945312,-79.14376068115234
763,96.3173828125,-20.337575912475586,211.77557373046875,-42.8891716003418
764,143.64207458496094,32.810142517089844,255.70069885253903,-0.9424548149108888
765,45.80629348754883,-60.878089904785156,155.0338134765625,-88.7478256225586
766,57.9834098815918,-47.82583999633789,169.1631622314453,-73.9565200805664
767,99.90020751953124,-1.0621316432952879,212.7068023681641,-36.587440490722656
768,139.03077697753906,34.30984115600586,256.7740478515625,-9.166494369506836
769,51.25159072875977,-59.59530639648438,163.74403381347656,-89.74263763427734
770,63.48480224609375,-43.87276458740234,180.4576568603516,-72.03047180175781
771,102.3199234008789,1.1668487787246704,222.93170166015625,-32.50347137451172
772,138.35011291503906,28.782270431518555,256.568359375,-10.352043151855467
773,48.87675094604492,-54.92790985107422,170.57308959960938,-93.6283950805664
774,64.88352203369139,-42.58998107910156,186.0226287841797,-81.52981567382812
775,106.02242279052734,-4.749672889709473,226.81370544433597,-40.34978103637695
776,156.91871643066406,38.50226974487305,273.2183837890625,1.439861536026001
777,58.99318313598633,-57.79641342163086,169.38380432128906,-86.70957946777344
778,71.95941162109375,-42.95648956298828,189.4633331298828,-72.10527038574219
779,106.28795623779295,-9.1814546585083,224.46505737304688,-30.67840003967285
780,150.8825225830078,35.93669891357422,265.24118041992193,10.280984878540039
781,55.48141479492188,-59.29985427856445,170.7526092529297,-85.22857666015625
782,64.36367797851561,-49.43025588989258,171.8147430419922,-77.29624938964844
783,101.23161315917969,-14.04332447052002,215.4032745361328,-34.014389038085945
784,142.03765869140625,29.70602607727051,255.4688262939453,3.594043970108032
785,52.2725830078125,-57.53836059570313,167.7158203125,-86.27574920654297
786,60.63873672485352,-47.418190002441406,183.42713928222656,-72.22869110107422
787,103.7635269165039,-7.625656127929687,219.7565155029297,-40.794830322265625
788,154.70469665527344,33.711456298828125,267.7020263671875,-1.7203539609909058
789,59.8795394897461,-64.59555053710939,175.54342651367188,-90.296142578125
790,78.0068359375,-42.76575469970703,191.33702087402344,-74.3791275024414
791,110.23728942871094,-6.57474422454834,226.53321838378903,-37.30550384521485
792,150.59080505371094,31.8676872253418,264.87466430664057,-9.417068481445312
793,58.14422607421875,-55.95638275146485,176.06326293945312,-101.94967651367188
794,75.11589050292969,-44.04854202270508,190.42074584960938,-82.20674133300781
795,112.61212921142578,-9.69382095336914,228.7135772705078,-39.62424087524414
796,152.80857849121094,30.98133087158203,267.24951171875,1.3650634288787842
797,55.043846130371094,-54.68481826782226,165.7972412109375,-89.82492065429688
798,67.34812164306639,-38.45738983154297,179.8854522705078,-74.20709228515625
799,98.07887268066406,0.8975759744644165,219.74903869628903,-36.67345809936523
800,145.00714111328125,42.00655746459961,265.90313720703125,6.211973667144775
801,48.80943298339844,-53.34967422485352,168.1309356689453,-86.34680938720703
802,60.7247543334961,-35.44677352905273,182.2565460205078,-78.78472900390625
803,95.97331237792969,0.8190380930900574,221.27117919921875,-42.46282577514648
804,139.79933166503906,40.211402893066406,260.13995361328125,-5.477083683013916
805,50.9991455078125,-55.50011444091797,160.4604034423828,-101.3868179321289
806,66.91989898681639,-40.09172821044922,183.13916015625,-88.40188598632812
807,112.93936920166016,-6.376529216766357,225.58328247070312,-49.69018173217773
808,154.3625030517578,35.45051193237305,265.14019775390625,-15.66831111907959
809,70.60369873046875,-54.2397689819336,176.2278289794922,-101.39804077148438
810,78.90254211425781,-50.0136833190918,188.1581115722656,-92.16422271728516
811,118.45571899414062,-12.061177253723145,226.1592254638672,-49.0805778503418
812,155.18902587890625,29.178699493408203,265.87322998046875,-5.125533103942871
813,69.28725433349611,-66.88436889648439,172.4131317138672,-90.20825958251952
814,76.56510162353516,-47.3845329284668,184.72862243652344,-75.47305297851562
815,101.14372253417969,-11.186040878295898,220.30255126953125,-42.61054992675781
816,138.9241943359375,29.63870620727539,260.64111328125,1.0789611339569092
817,49.50692749023438,-52.50071716308594,171.55294799804688,-85.13695526123047
818,59.3316421508789,-42.20476913452149,181.6918182373047,-77.73568725585938
819,89.13490295410156,-6.552304744720459,215.42198181152344,-43.34730911254883
820,127.521240234375,32.866241455078125,253.16505432128903,-10.002362251281738
821,42.47217559814453,-53.68626403808594,162.77540588378906,-97.0111312866211
822,59.40270233154297,-38.494789123535156,176.45970153808594,-83.82798767089844
823,93.34976959228516,1.525879144668579,218.3204040527344,-50.71865463256836
824,143.51678466796875,37.006309509277344,263.0234375,-14.019015312194824
825,59.60839462280274,-53.53292846679688,173.52761840820312,-98.34628295898438
826,73.57318115234375,-46.80858612060547,189.51194763183597,-85.17809295654297
827,118.08173370361328,-12.868995666503904,225.9198760986328,-48.98707962036133
828,153.5920867919922,25.517337799072266,261.05624389648443,-8.40168571472168
829,60.75654602050781,-64.43473815917969,169.23046875,-93.4582290649414
830,76.310791015625,-52.10802459716797,185.18862915039062,-75.12149810791016
831,108.33929443359376,-11.002785682678224,230.9687347412109,-35.78523254394531
832,147.2342529296875,26.83752250671387,264.6502685546875,4.908618927001953
833,54.50717163085938,-59.37839126586914,171.75115966796875,-85.95973205566406
834,62.59657669067383,-48.521461486816406,186.9987335205078,-73.79009246826172
835,101.30079650878906,-6.092297077178955,227.1876983642578,-36.32378005981445
836,137.02432250976562,38.36763381958008,265.76101684570307,-1.561408281326294
837,45.722145080566406,-57.72909545898438,165.28488159179688,-100.53411865234376
838,58.5761833190918,-41.55402755737305,182.9185028076172,-85.59322357177734
839,90.60094451904295,0.5198460817337036,219.2666015625,-52.24453353881836
840,133.73321533203122,39.39236450195313,251.42225646972656,-19.602685928344727
841,49.29001235961914,-60.86687088012695,167.117431640625,-107.60253143310548
842,72.15202331542969,-45.0657958984375,183.62535095214844,-88.54399871826172
843,109.82403564453124,-9.82471752166748,219.8163604736328,-50.05669021606445
844,151.8156280517578,21.76995849609375,264.72134399414057,-12.321100234985352
845,62.3609619140625,-66.10646820068361,169.43617248535156,-90.20451354980469
846,72.33527374267578,-51.67419815063477,178.86819458007812,-66.216796875
847,106.11031341552734,-16.287263870239258,212.5721740722656,-29.56951904296875
848,140.53608703613278,28.77853012084961,256.71420288085943,4.467310428619385
849,47.48363876342773,-62.21697616577149,163.889892578125,-88.86563110351562
850,57.13632202148438,-56.74924087524414,174.066162109375,-80.55183410644531
851,96.16217803955078,-10.830750465393066,219.41244506835938,-42.898521423339844
852,140.86146545410156,37.80290985107422,267.26821899414057,-1.5539283752441406
853,43.0593376159668,-57.47104263305664,172.09149169921875,-101.37934112548828
854,61.18289184570313,-38.99593734741211,188.9472198486328,-88.94416809082031
855,100.3246841430664,-10.034152030944824,228.4891815185547,-60.03848266601562
856,143.91322326660156,38.90243911743164,264.960693359375,-22.635744094848636
857,54.50717163085938,-53.14397811889648,166.0552978515625,-110.99088287353516
858,68.32610321044922,-35.86938095092773,181.79653930664062,-92.77008819580078
859,105.93453979492188,1.2491265535354614,221.9630584716797,-44.09529113769531
860,141.66180419921875,31.546056747436523,258.30740356445307,-2.2607696056365967
861,50.74109268188477,-58.7687873840332,164.85479736328125,-84.85646057128906
862,62.92942810058594,-50.06230163574219,175.68179321289062,-66.32151794433594
863,105.1192398071289,-8.515751838684082,214.22894287109372,-22.041099548339844
864,134.03240966796878,24.00641822814941,246.6426696777344,6.213843822479247
865,51.7022476196289,-66.59639739990234,155.08242797851562,-86.00834655761719
866,61.51948547363281,-54.202369689941406,172.21116638183594,-74.98686218261719
867,95.466552734375,-12.528664588928224,211.45394897460938,-44.009273529052734
868,137.83587646484378,24.803016662597656,253.31089782714844,-7.2310967445373535
869,48.29145812988281,-63.95228958129883,166.41058349609375,-101.34941864013672
870,64.94523620605469,-49.79302978515625,185.03903198242188,-90.00630187988281
871,98.96710205078124,-11.773204803466795,219.2217102050781,-65.09108734130861
872,141.60943603515625,28.95056533813477,263.5283203125,-32.4716796875
873,61.01459884643555,-61.72704696655274,171.88580322265625,-120.50892639160156
874,71.60225677490234,-49.6546516418457,185.62619018554688,-107.8942413330078
875,112.0230941772461,-7.827610492706299,226.44346618652344,-60.03474426269531
876,145.27828979492188,24.70951843261719,262.77285766601557,-21.764347076416016
877,60.21799850463867,-66.61135864257811,168.9799041748047,-98.43977355957031
878,63.61008834838867,-44.25049591064453,177.7013397216797,-78.76416015625
879,98.53701782226562,-11.750765800476074,220.4371795654297,-35.53839874267578
880,137.08790588378906,24.27569007873535,254.03643798828125,4.822600841522217
881,48.51585388183594,-68.99741363525389,157.41238403320312,-83.940185546875
882,64.77320098876953,-59.16521835327149,175.34521484375,-72.98601531982422
883,102.75188446044922,-11.324417114257812,216.121337890625,-38.324623107910156
884,141.13821411132812,24.309349060058594,259.81832885742193,-4.2167372703552255
885,50.22124481201172,-64.40481567382811,168.0598907470703,-95.6236343383789
886,59.27554321289063,-46.6215934753418,183.2364044189453,-92.09690856933594
887,99.45703125,-2.614190101623535,223.94894409179688,-55.70394134521485
888,139.03265380859378,31.68069267272949,268.3228759765625,-20.82937240600586
889,46.361671447753906,-58.506996154785156,173.1760711669922,-115.97990417480469
890,65.15092468261719,-41.32963562011719,184.2199859619141,-97.168212890625
891,98.32383728027344,-9.263731956481934,216.1587371826172,-63.34455490112305
892,136.72138977050778,32.49972915649414,258.98806762695307,-22.12337875366211
893,52.78307723999024,-57.62063980102539,166.02163696289062,-99.32239532470705
894,61.49704360961914,-50.13335800170898,176.80003356933594,-82.14503479003906
895,102.01885986328124,-7.973466873168945,213.4510498046875,-38.41812133789063
896,138.41557312011722,29.30211639404297,251.2053375244141,2.0513350963592534
897,40.755558013916016,-61.27825927734375,158.16036987304688,-93.34976959228516
898,57.312095642089844,-40.80978775024414,171.67636108398438,-71.1534652709961
899,95.19728088378906,-7.26662540435791,209.0828399658203,-40.82661819458008
900,138.95785522460938,29.982778549194336,255.1060485839844,-2.0214159488677983
901,48.76642608642578,-73.97895812988281,163.5084228515625,-97.75911712646484
902,60.25913619995117,-51.37874603271485,180.5698547363281,-91.76779174804688
903,100.76973724365234,-12.083617210388185,215.51547241210938,-55.75629806518555
904,137.95556640625,31.48995780944824,259.0067749023437,-16.891258239746097
905,50.3072624206543,-56.84273910522461,170.8760223388672,-108.1672592163086
906,62.55917739868164,-42.01777648925781,185.33074951171875,-91.8500747680664
907,107.42301940917969,2.45337438583374,229.24464416503903,-48.25405883789063
908,136.53813171386722,36.64353942871094,262.64944458007807,-15.391558647155762
909,43.60162353515625,-52.332420349121094,162.6258087158203,-105.21647644042969
910,57.80950546264648,-43.17340469360352,173.56875610351562,-91.8725128173828
911,92.40357971191406,-7.045971393585205,207.54200744628903,-51.15248107910156
912,131.74732971191406,33.73763656616211,244.0172576904297,-11.83491325378418
913,43.051856994628906,-57.42990493774414,153.40321350097656,-98.70905303955078
914,57.8057632446289,-47.145179748535156,168.03744506835938,-81.16517639160156
915,91.83885192871094,-14.09194278717041,201.29263305664062,-47.9473876953125
916,132.40180969238278,28.96178436279297,251.46713256835938,-8.985109329223633
917,52.29689025878906,-57.9721908569336,163.03346252441406,-93.58912658691406
918,66.06346130371094,-49.62099075317383,178.74851989746094,-88.24855041503906
919,104.36377716064452,-6.234413146972656,220.67654418945312,-52.60356140136719
920,150.29348754882812,28.84958839416504,264.74005126953125,-15.892704963684082
921,62.61901473999024,-58.0133285522461,171.9456329345703,-105.45208740234376
922,70.06889343261719,-38.83138275146485,190.9106750488281,-88.57392120361328
923,108.06627655029295,-2.5917506217956543,229.21847534179688,-46.06621932983398
924,146.28431701660156,23.97649955749512,267.24203491210943,-8.45030403137207
925,56.87078857421875,-63.17438888549805,173.69964599609375,-96.17340087890624
926,68.43081665039061,-43.57357406616211,186.09368896484372,-82.67235565185547
927,99.20645904541016,-12.906394958496096,210.30953979492188,-46.21955490112305
928,140.21072387695312,28.60275459289551,248.8417205810547,-5.458384037017822
929,46.14849472045898,-59.1689567565918,155.22828674316406,-88.37196350097656
930,55.9283332824707,-53.13275909423828,159.53665161132812,-83.2408218383789
931,94.80085754394531,-8.620469093322754,213.9596710205078,-40.19831466674805
932,135.21047973632812,30.00147819519043,253.49041748046875,-9.871465682983398
933,50.939308166503906,-65.13409423828125,163.6879425048828,-102.86033630371094
934,70.81687927246094,-46.67769241333008,182.77264404296875,-80.82110595703125
935,101.8505630493164,-16.171327590942386,219.80514526367188,-46.8553352355957
936,145.30819702148438,21.878414154052734,259.9716796875,-10.350172996520996
937,56.96428680419922,-62.95747756958008,173.58370971679688,-100.47801971435548
938,76.59127807617188,-45.52206039428711,190.87327575683597,-83.06504821777344
939,115.68819427490234,-8.007125854492188,230.95004272460938,-46.44768905639648
940,147.94857788085938,28.830888748168945,268.3228759765625,-11.154252052307127
941,57.0727424621582,-63.82139205932617,170.838623046875,-94.71109771728516
942,69.47051239013672,-46.25508117675781,188.76397705078125,-77.26446533203125
943,97.49732208251952,-7.281585216522218,218.90008544921875,-41.42500305175781
944,141.5982208251953,29.15999984741211,264.81109619140625,-0.6488726139068604
945,49.80611801147461,-62.572265625,166.70977783203125,-91.36388397216795
946,62.10664749145508,-54.6436767578125,172.48419189453125,-80.66403198242188
947,97.41504669189452,-16.283523559570312,211.2482452392578,-45.2583999633789
948,142.6528778076172,21.2688102722168,253.0154571533203,-7.500369548797607
949,55.35987091064453,-65.74744415283203,158.8859100341797,-97.60203552246094
950,66.84136199951172,-57.572021484375,169.69796752929688,-85.2267074584961
951,103.34652709960938,-16.552797317504886,212.8077850341797,-47.2255859375
952,138.09019470214844,24.68708038330078,249.66824340820312,-12.653951644897461
953,48.7701644897461,-62.38153076171875,160.94659423828125,-103.20066833496094
954,69.25360107421875,-50.89255905151367,178.85324096679688,-84.01498413085938
955,101.75706481933594,-18.452667236328125,216.297119140625,-44.32342529296875
956,143.99549865722656,29.42553329467773,262.87008666992193,-2.6048402786254883
957,62.2899055480957,-62.018760681152344,172.26353454589844,-89.95768737792969
958,66.07468414306639,-54.65863800048828,179.71714782714844,-82.01787567138672
959,102.82293701171876,-7.562077522277832,224.48748779296875,-39.75700759887695
960,142.099365234375,38.43869018554688,260.8617553710937,0.9031858444213868
961,47.30786514282226,-52.83356857299805,162.54727172851562,-94.20620727539062
962,55.745079040527344,-45.701576232910156,176.55319213867188,-82.97528839111328
963,98.36872100830078,1.656775712966919,222.63624572753903,-48.56072998046875
964,137.62644958496094,31.90882682800293,262.36892700195307,-16.917436599731445
965,53.19820785522461,-61.52883529663086,172.7833709716797,-96.83161926269531
966,65.24442291259766,-45.701576232910156,182.47720336914062,-89.49019622802734
967,100.57525634765624,-6.70564079284668,223.0775451660156,-47.588356018066406
968,146.35911560058594,27.52940368652344,263.34878540039057,-0.9181454181671144
969,57.81698226928711,-65.882080078125,166.96035766601562,-94.75597381591795
970,70.7757339477539,-45.29018783569336,186.3330383300781,-78.18821716308594
971,108.41034698486328,-12.906394958496096,220.9607696533203,-36.00214767456055
972,149.0443572998047,25.64075469970703,260.99639892578125,-0.4394382536411285
973,56.21256637573242,-73.62741088867188,162.76419067382812,-89.5612564086914
974,70.4316635131836,-53.34219360351562,179.7508087158203,-72.16697692871094
975,108.53376770019531,-7.894928932189941,220.3773498535156,-32.29216766357422
976,136.97944641113278,16.646295547485348,249.51116943359372,-8.693397521972656
977,53.456260681152344,-59.82344055175781,161.56741333007812,-95.2608642578125
978,59.3914794921875,-51.70037841796875,174.6084442138672,-90.79167938232422
979,98.35749816894531,-7.577037334442139,215.2125396728516,-53.79285049438477
980,138.42304992675778,32.81388092041016,254.63108825683597,-20.50026130676269
981,52.72697830200195,-53.69748306274414,171.0555419921875,-109.72305297851562
982,65.99240112304689,-39.32504653930664,185.28211975097656,-92.7326889038086
983,104.12442779541016,-6.0249786376953125,221.23377990722656,-55.29254913330078
984,146.26187133789062,26.77394294738769,261.65835571289057,-8.670958518981934
985,54.19301986694336,-63.54090118408203,164.63787841796875,-95.16736602783205
986,67.15177154541016,-47.13396072387695,183.232666015625,-72.11087799072266
987,109.84647369384766,-9.686341285705566,224.79791259765625,-26.020353317260746
988,146.49374389648438,18.142253875732425,256.38510131835943,6.0941667556762695
989,55.56930160522461,-66.35704803466797,162.4163818359375,-83.08748626708984
990,69.23115539550781,-55.05132675170898,177.85842895507812,-69.91555786132811
991,108.61604309082031,-11.245879173278807,218.2493438720703,-35.23920822143555
992,145.6522674560547,26.620607376098636,261.44143676757807,0.469357430934906
993,56.63143539428711,-62.89015579223633,171.5566864013672,-87.57537078857422
994,65.4949951171875,-51.05337524414063,179.72088623046875,-84.65450286865234
995,110.59071350097656,-11.07758331298828,220.6578369140625,-44.17756652832031
996,140.31918334960938,27.155412673950195,256.474853515625,-21.820446014404297
997,51.14500045776367,-57.57575988769531,164.30128479003906,-109.06483459472656
998,69.41815185546875,-43.30430221557617,185.9814910888672,-94.42686462402344
999,107.58009338378906,-6.0511579513549805,221.9219207763672,-52.65966033935547
1000,146.852783203125,38.52845001220703,264.52685546875,-10.496028900146484
1001,58.11243438720703,-52.88218688964844,171.0929412841797,-94.0566177368164
1002,62.56291580200195,-46.01198959350586,182.2528076171875,-81.89071655273438
1003,101.95528411865234,-7.842570304870605,220.1379852294922,-36.06572341918945
1004,143.5018310546875,27.82485580444336,256.79275512695307,0.5329357385635376
1005,48.7290267944336,-63.95602798461914,152.84783935546875,-90.31297302246094
1006,59.690673828125,-48.38308715820313,164.1124267578125,-73.97708892822266
1007,103.38392639160156,-9.95561408996582,208.9164276123047,-36.30881881713867
1008,142.67904663085938,30.801816940307614,249.80848693847656,-7.601346492767334
1009,49.36854934692383,-56.85395812988281,158.48013305664062,-95.41793823242188
1010,62.94438552856445,-54.42676544189453,175.1675567626953,-89.78939056396484
1011,100.99412536621094,-6.683201313018799,220.50262451171875,-53.53105926513672
1012,143.57289123535156,23.531450271606445,258.73190307617193,-24.22146224975586
1013,58.34804916381836,-61.61859130859375,164.4415283203125,-115.99112701416016
1014,71.78550720214844,-46.59541320800781,183.3916015625,-98.42855834960938
1015,106.93682861328124,-5.7482261657714835,222.32769775390625,-50.46807861328125
1016,151.38180541992188,23.91666030883789,269.14004516601557,-16.87255859375
1017,65.55109405517578,-61.4054183959961,178.24176025390625,-96.33795166015624
1018,75.49549102783203,-48.899192810058594,184.4425201416016,-80.15166473388672
1019,102.28065490722656,-18.890233993530273,213.58755493164062,-44.28976440429688
1020,141.83383178710938,19.971065521240234,250.36573791503903,-4.381292819976807
1021,46.122314453125,-67.96894073486328,151.4715576171875,-89.21343994140625
1022,61.41102600097656,-48.42796325683594,163.19615173339844,-73.17301177978516
1023,97.86756896972656,-5.104963302612305,211.89712524414062,-35.171890258789055
1024,140.86146545410156,25.285463333129886,258.44390869140625,-4.340153694152832
1025,47.80153274536133,-65.03685760498047,164.23583984375,-95.85176849365234
1026,58.64350128173828,-44.11959838867188,179.56195068359375,-78.57342529296875
1027,101.64861297607422,-9.342269897460938,221.32167053222656,-40.7705192565918
1028,143.3671875,29.466670989990234,262.49423217773443,-5.757575988769531
1029,48.538291931152344,-61.19972229003906,163.8581085205078,-102.1497573852539
1030,63.45675277709961,-48.09137344360352,180.3697662353516,-86.24396514892578
1031,108.6721420288086,0.3814697861671448,234.07098388671875,-38.20868682861328
1032,139.90779113769528,34.33228302001953,264.78677368164057,-8.738276481628418
1033,52.42778778076172,-52.253883361816406,170.5413055419922,-94.26979064941406
1034,68.0830078125,-40.402137756347656,188.92665100097656,-74.40718078613281
1035,100.7435531616211,-7.752812385559082,219.23480224609372,-35.93856811523437
1036,141.2504119873047,36.81931686401367,256.48794555664057,0.6301731467247009
1037,51.28337860107422,-59.84587860107422,163.132568359375,-83.940185546875
1038,63.8157844543457,-50.38019180297852,178.1856689453125,-72.98601531982422
1039,96.21453857421876,-10.408141136169434,211.8522491455078,-32.965347290039055
1040,142.6192169189453,26.72158432006836,253.95230102539062,0.5104963183403015
1041,53.67691421508789,-64.73018646240234,158.0949249267578,-89.47149658203125
1042,59.98986434936523,-54.64741897583008,171.47254943847656,-86.37860107421875
1043,98.4734344482422,-8.515751838684082,219.90798950195312,-39.9888801574707
1044,145.4503173828125,30.63352012634277,264.27069091796875,-2.4253251552581787
1045,49.14041519165039,-55.3467788696289,171.03123474121094,-102.2282943725586
1046,66.18688201904297,-42.799415588378906,189.90277099609372,-83.84294891357422
1047,102.19837951660156,-4.81325101852417,227.88145446777344,-47.6369743347168
1048,144.45924377441406,40.925724029541016,262.52041625976557,-1.9914966821670528
1049,59.140907287597656,-51.41614532470703,180.3361053466797,-84.15335845947266
1050,74.36978149414062,-42.56380081176758,195.2283935546875,-73.90603637695312
1051,107.15748596191406,2.8909425735473637,232.7807159423828,-39.5849723815918
1052,138.59881591796878,32.103302001953125,259.56588745117193,-5.8473334312438965
1053,56.60525512695313,-58.08064651489258,166.12448120117188,-90.9487533569336
1054,66.09712219238281,-40.1179084777832,175.3433380126953,-79.702880859375
1055,100.41070556640624,-0.7816390991210938,214.2158660888672,-44.70489501953125
1056,141.2504119873047,33.24023056030273,258.8927001953125,-2.8180146217346187
1057,57.67112731933594,-58.13674545288086,165.6270751953125,-89.85296630859375
1058,66.53469085693361,-54.07895278930664,176.36807250976562,-77.21210479736328
1059,99.55052947998048,-12.296791076660154,216.8263092041016,-41.76533126831055
1060,145.82431030273438,26.725324630737305,261.24508666992193,-7.4741902351379395
1061,57.51405334472656,-63.86627197265625,174.3709716796875,-93.0767593383789
1062,71.97998809814453,-47.40323257446289,185.3438262939453,-86.44965362548828
1063,100.11151123046876,-0.4600076973438263,226.2583312988281,-46.27191162109375
1064,142.92588806152344,38.031044006347656,266.585693359375,-5.8211541175842285
1065,54.91856002807617,-56.00126266479492,163.14752197265625,-100.07037353515624
1066,58.90529251098633,-46.91330337524414,174.09420776367188,-95.982666015625
1067,107.3669204711914,-0.93497496843338,218.3372344970703,-44.44684219360352
1068,149.62405395507812,35.379451751708984,259.4200439453125,-9.220723152160645
1069,54.05464553833008,-59.1913948059082,162.70248413085938,-100.41818237304688
1070,64.98262786865234,-41.91679763793945,181.9554901123047,-83.96636199951172
1071,109.6968765258789,-4.809511184692383,221.8377685546875,-44.910587310791016
1072,140.32666015625,30.35302734375,264.192138671875,-12.448257446289062
1073,50.46807861328125,-59.25497436523438,168.7573699951172,-99.93199920654295
1074,66.94233703613281,-40.04310989379883,184.12835693359372,-80.20028686523438
1075,101.7645492553711,-11.750765800476074,219.03659057617188,-39.85424423217773
1076,139.75445556640622,26.16434097290039,254.027099609375,-6.045548439025879
1077,47.09843063354492,-61.73452758789063,163.62623596191406,-93.12163543701172
1078,62.60779571533203,-49.32928085327149,176.42791748046875,-79.8487319946289
1079,95.90038299560548,-13.231765747070312,217.8585205078125,-41.5035400390625
1080,139.37298583984378,33.329986572265625,259.35272216796875,-0.14024624228477478
1081,51.167442321777344,-60.20491027832031,161.10928344726562,-89.68840789794922
1082,64.50766754150389,-43.00885009765625,178.86257934570312,-76.7520980834961
1083,100.09654998779295,-8.478353500366211,218.59153747558597,-45.41173553466797
1084,137.06919860839844,27.09931564331055,259.861328125,-15.447656631469727
1085,54.58197021484375,-55.57117462158203,168.8172149658203,-102.8266830444336
1086,69.16010284423828,-46.50565719604492,179.2328338623047,-98.17798614501952
1087,112.6663589477539,-1.522139310836792,222.84754943847656,-50.9991455078125
1088,141.64683532714844,30.356767654418945,259.02734375,-19.20999526977539
1089,49.06561660766602,-60.62751770019531,166.74905395507812,-106.85455322265624
1090,68.01569366455078,-49.14602661132813,181.00180053710938,-90.9263153076172
1091,107.9727783203125,-7.951027393341064,224.8521423339844,-42.00468444824219
1092,144.87811279296875,27.959491729736328,264.2744140625,3.902585506439209
1093,52.73072052001953,-64.11684417724611,166.28155517578125,-89.35929870605469
1094,70.24467468261719,-46.232643127441406,184.38267517089844,-67.97454833984375
1095,99.36353302001952,-21.545562744140625,213.51649475097656,-33.78064727783203
1096,144.78836059570312,21.2388916015625,254.16546630859372,2.219630718231201
1097,50.6887321472168,-69.15448760986328,160.01722717285156,-93.72376251220705
1098,66.81892395019531,-50.46247100830078,176.6111602783203,-79.0820541381836
1099,104.84622192382812,-11.227179527282717,218.38958740234372,-40.57978439331055
1100,143.13531494140625,29.332035064697266,264.697021484375,-2.0401153564453125
1101,60.05718231201172,-61.828025817871094,173.6416778564453,-97.86009216308594
1102,68.13536834716797,-50.27921676635742,189.31935119628903,-85.88119506835938
1103,107.28463745117188,-8.960800170898438,230.86962890625,-40.41522979736328
1104,143.09417724609375,27.49948501586914,264.5175170898437,-6.101646900177003
1105,50.6288948059082,-62.86397933959961,168.8097381591797,-90.24191284179688
1106,65.80541229248047,-50.578407287597656,186.47702026367188,-77.11112976074219
1107,106.98918914794922,-15.606602668762207,222.29779052734372,-36.11060333251953
1108,144.77713012695312,25.49115753173828,264.64093017578125,-4.4598307609558105
1109,56.71745300292969,-62.83406066894531,170.00650024414062,-93.8583984375
1110,70.712158203125,-47.7959213256836,184.97732543945312,-80.5069580078125
1111,109.6146011352539,-13.112089157104492,225.4243469238281,-45.00408554077149
1112,147.49978637695312,26.05588340759277,264.4090576171875,-9.538615226745604
1113,59.94498825073242,-53.31601333618164,174.33731079101562,-97.63943481445312
1114,68.81228637695311,-48.01657485961914,187.17263793945312,-85.27906799316406
1115,107.8269271850586,-9.64894199371338,226.9315185546875,-44.64879608154297
1116,149.84095764160156,30.23335075378418,272.72659301757807,-2.9077723026275635
1117,55.38230895996094,-66.24485015869139,166.34140014648438,-95.81063079833984
1118,67.80999755859375,-42.17859268188477,187.27735900878903,-76.3294906616211
1119,101.09884643554688,-2.5132126808166504,226.3069610595703,-34.16959762573242
1120,132.04277038574222,28.83836936950684,255.5118408203125,-0.761069655418396
1121,42.37493515014648,-65.21263885498047,159.50860595703125,-88.54399871826172
1122,61.6279411315918,-54.86807250976562,171.85775756835938,-74.98312377929688
1123,102.9687957763672,-12.128495216369627,212.89193725585938,-41.20808792114258
1124,146.4713134765625,27.54062271118164,255.1228790283203,-6.958083629608153
1125,46.29435348510742,-67.03396606445311,155.4470672607422,-103.9972686767578
1126,63.41187286376953,-45.78011703491211,174.0979461669922,-90.548583984375
1127,108.79556274414062,-6.19327449798584,219.66488647460938,-48.14934158325195
1128,144.4667205810547,24.301870346069336,253.9298553466797,-20.55261993408203
1129,62.06550979614258,-65.05555725097656,166.93231201171875,-105.63160705566406
1130,75.21499633789062,-45.23408889770508,190.53482055664062,-87.7735824584961
1131,108.79181671142578,1.1780685186386108,232.50022888183597,-42.81624603271485
1132,149.2650146484375,33.46836471557617,273.46710205078125,-0.7797691226005554
1133,60.434913635253906,-56.35281372070313,176.53636169433594,-89.62109375
1134,72.4773941040039,-42.11127471923828,188.9042205810547,-71.99120330810547
1135,108.83670043945312,-11.204740524291992,230.15158081054688,-29.32268524169922
1136,152.28684997558594,26.92728042602539,266.69412231445307,2.4552443027496342
1137,54.8325424194336,-63.3763427734375,164.13485717773438,-84.82279968261719
1138,65.72312927246094,-51.20296859741211,179.0570526123047,-76.89421081542969
1139,100.02549743652344,-6.3204307556152335,213.01161193847656,-43.46698760986328
1140,140.72682189941406,30.906532287597656,252.55357360839844,-10.114559173583984
1141,48.04836654663086,-57.785194396972656,154.81129455566406,-99.26255798339844
1142,65.82036590576172,-38.259178161621094,180.4408264160156,-83.84294891357422
1143,97.45244598388672,-0.5011466145515442,222.5221710205078,-46.71321868896485
1144,141.7552947998047,36.0040168762207,259.02359008789057,-8.947710990905762
1145,55.00457763671875,-58.89968490600586,169.71478271484375,-91.68551635742188
1146,65.32670593261719,-44.130821228027344,182.1649169921875,-78.67066192626953
1147,108.60856628417969,-4.600077152252197,220.85418701171875,-41.88127136230469
1148,149.15655517578125,22.57403564453125,263.3992919921875,-10.436190605163574
1149,64.02521514892578,-59.37839126586914,178.45867919921875,-88.31961059570312
1150,77.35796356201172,-47.69120407104492,187.3110198974609,-74.21270751953125
1151,115.93502807617188,-11.17482089996338,227.94503784179688,-32.30338668823242
1152,155.30496215820312,24.42154693603516,267.68145751953125,7.541508197784424
1153,62.10290908813477,-69.63694000244139,169.56520080566406,-83.12488555908203
1154,73.84993743896484,-45.78385543823242,179.1131591796875,-72.50357055664062
1155,107.8867645263672,-5.340577125549316,214.99002075195312,-34.981155395507805
1156,140.98487854003906,25.779130935668945,255.1154022216797,-5.8473334312438965
1157,51.27963638305664,-55.57117462158203,166.2628631591797,-94.1800308227539
1158,62.76861190795898,-36.93899154663086,186.0768585205078,-80.46955871582031
1159,97.89749145507812,-2.524432420730591,213.90919494628903,-41.28288650512695
1160,146.40399169921875,44.18317794799805,259.83889770507807,-8.038914680480957
1161,50.24368667602539,-53.8096809387207,165.93374633789062,-97.71797943115234
1162,66.26541900634766,-43.607234954833984,182.3818359375,-82.92667388916016
1163,106.83211517333984,-2.090604066848755,225.09149169921875,-36.76882553100586
1164,148.6741180419922,27.910873413085934,264.37164306640625,-0.4169988334178925
1165,61.70647811889648,-61.60737228393555,172.82264709472656,-84.82279968261719
1166,80.82110595703125,-51.16557312011719,189.59983825683597,-65.24068450927734
1167,118.11164855957031,-10.221146583557127,226.35183715820312,-27.50883483886719
1168,154.63551330566406,28.109088897705078,265.53475952148443,11.367425918579102
1169,51.13378143310547,-61.87290573120117,164.7033233642578,-86.9695053100586
1170,70.28581237792969,-49.089927673339844,176.55506896972656,-71.70323181152344
1171,107.6100082397461,-7.449880599975586,222.59323120117188,-30.923362731933594
1172,141.27659606933594,29.537729263305664,262.33340454101557,1.9578375816345213
1173,54.27903747558594,-59.2100944519043,171.98117065429688,-87.55667114257812
1174,68.39716339111328,-38.89495849609375,192.6478576660156,-73.03089904785156
1175,111.9595184326172,-5.2882184982299805,230.7798767089844,-40.61344528198242
1176,144.57144165039062,29.55642890930176,263.08514404296875,-13.446810722351074
1177,52.88031387329102,-61.11744689941406,171.93255615234375,-104.98086547851562
1178,71.65460968017578,-45.53328323364258,183.36541748046875,-86.77503204345703
1179,112.77855682373048,2.3785762786865234,222.9073944091797,-40.15717697143555
1180,150.1588592529297,30.91775321960449,257.18731689453125,-9.007549285888672
1181,62.39462280273438,-61.50639343261719,169.0977020263672,-92.15300750732422
1182,74.89336395263672,-47.32095336914063,179.94715881347656,-71.1123275756836
1183,114.07630157470705,-3.4930665493011475,222.89990234375,-26.431743621826172
1184,146.28431701660156,26.889881134033203,258.73562622070307,7.01044225692749
1185,51.22354125976562,-68.253173828125,159.0186767578125,-85.04719543457031
1186,72.73170471191406,-45.64173889160156,175.9417266845703,-70.44662475585938
1187,108.70954132080078,1.630596399307251,218.5840606689453,-32.355743408203125
1188,141.87123107910156,31.770450592041016,257.00405883789057,-6.868326187133789
1189,53.91626739501953,-50.466209411621094,163.95159912109375,-89.1797866821289
1190,56.6089973449707,-42.90787124633789,175.53407287597656,-80.35362243652344
1191,102.05252075195312,-7.663054943084718,215.7828826904297,-47.81275177001953
1192,139.13362121582028,28.75983047485352,255.0443420410156,-11.72645664215088
1193,52.39786911010742,-56.80533981323242,171.12098693847656,-106.11405181884766
1194,71.72940826416016,-42.63486099243164,183.72071838378903,-90.05492401123047
1195,113.32831573486328,-2.2701191902160645,223.35243225097656,-42.08322525024414
1196,152.76182556152344,39.45220565795898,269.3157958984375,-7.466710090637207
1197,62.32730102539063,-60.52654266357422,168.62648010253906,-97.3140640258789
1198,72.9598388671875,-44.68058395385742,185.1194305419922,-78.18074035644531
1199,117.06073760986328,-6.25311279296875,226.62484741210938,-32.075252532958984
1200,151.27334594726562,26.699146270751953,261.52560424804693,-0.9181454181671144
1201,63.8344841003418,-62.43762969970703,163.7683563232422,-85.3837890625
1202,71.67330932617188,-46.09800720214844,177.49752807617188,-68.50187683105469
1203,112.0230941772461,-10.381961822509766,220.2857208251953,-36.81370544433594
1204,152.2793731689453,27.869733810424805,262.20626831054693,1.5501885414123535
1205,55.86849594116211,-61.81680679321289,165.59341430664062,-97.1083755493164
1206,65.21824645996094,-40.8808479309082,180.79049682617188,-81.8813705444336
1207,97.62448120117188,-4.24104642868042,213.60812377929688,-52.32868194580078
1208,134.13711547851562,31.34410095214844,250.5545959472656,-24.4664249420166
1209,50.22124481201172,-53.4282112121582,162.21441650390625,-108.13546752929688
1210,55.99191284179688,-41.97663879394531,178.78965759277344,-100.41631317138672
1211,101.90666198730469,1.0135128498077393,223.4552764892578,-57.590721130371094
1212,142.58181762695312,25.81653022766113,252.12908935546875,-26.47849082946777
1213,52.64470291137695,-62.35535049438477,158.19029235839844,-112.22692108154295
1214,73.763916015625,-46.32614135742188,173.92404174804688,-86.7582015991211
1215,115.85275268554688,-16.182546615600586,218.6756896972656,-42.11127471923828
1216,150.5440673828125,17.207279205322266,253.95416259765625,-3.34721040725708
1217,50.92434692382813,-71.08428192138672,150.4599151611328,-87.83528900146484
1218,76.9166488647461,-48.39056396484375,174.73561096191406,-69.45742034912111
1219,103.52977752685548,-17.764524459838867,208.08428955078125,-42.758277893066406
1220,139.71705627441406,24.06625556945801,249.37652587890625,-3.235013484954834
1221,53.39642333984375,-66.71607208251953,157.57321166992188,-103.01180267333984
1222,66.42996978759766,-44.3552131652832,179.80691528320312,-84.76856994628906
1223,107.79700469970705,-5.598630428314209,217.20590209960938,-57.79267501831055
1224,140.6146240234375,35.110179901123054,254.85174560546875,-24.63846015930176
1225,54.600669860839844,-54.69229507446289,166.62002563476562,-115.2038803100586
1226,72.05104064941406,-34.130325317382805,190.170166015625,-96.48567962646484
1227,106.6862564086914,3.451927661895752,225.47108459472656,-55.83296585083008
1228,134.03240966796878,34.60155487060547,252.2861785888672,-26.160600662231445
1229,49.29749298095703,-58.89220428466797,152.64401245117188,-107.2939910888672
1230,63.1538200378418,-42.44038391113281,172.57394409179688,-85.98403930664062
1231,103.76165771484376,-5.55001163482666,211.60728454589844,-41.41191101074219
1232,148.202880859375,21.43336677551269,250.8724822998047,-0.7068411111831665
1233,59.04367065429688,-64.03830718994139,163.17556762695312,-84.66759490966797
1234,81.52046966552734,-40.45823669433594,183.53558349609372,-72.4493408203125
1235,122.61823272705078,-1.6118968725204468,227.0568084716797,-35.79084396362305
1236,155.43211364746094,26.78516387939453,258.6514892578125,-9.832197189331056
1237,61.23151016235352,-61.95518112182617,160.9690399169922,-104.287109375
1238,69.92678070068361,-43.9737434387207,184.8333282470703,-85.36322021484375
1239,106.0280303955078,-2.0831241607666016,220.76255798339844,-53.46561050415039
1240,144.46298217773438,37.42144012451172,258.187744140625,-17.469072341918945
1241,49.37228775024414,-49.7257080078125,167.7569580078125,-100.18817901611328
1242,67.46966552734375,-36.61362075805664,186.2694549560547,-85.0565414428711
1243,100.5229034423828,6.496206283569336,224.9325408935547,-44.99099731445313
1244,138.202392578125,43.10608673095703,267.79928588867193,-2.337437391281128
1245,43.59414291381836,-58.23398208618164,164.6154327392578,-97.09528350830078
1246,65.00132751464844,-37.62713241577149,180.79425048828125,-73.4890365600586
1247,99.0157241821289,-5.445294380187988,215.1190490722656,-36.14987182617188
1248,140.749267578125,27.55558204650879,258.19522094726557,-3.5192458629608154
1249,49.39472961425781,-64.85360717773439,160.2771453857422,-92.84675598144531
1250,69.52287292480469,-48.16617202758789,178.6475372314453,-71.27127075195312
1251,103.77287292480469,-6.327910900115968,219.25537109375,-40.19270324707031
1252,143.6402130126953,22.3720817565918,258.52059936523443,-8.826164245605469
1253,59.87018966674805,-58.27138137817383,164.92958068847656,-94.9111785888672
1254,74.13042449951172,-47.05168151855469,184.65756225585938,-80.99501037597656
1255,111.80618286132812,-8.381115913391112,224.82781982421875,-47.57900619506836
1256,154.41485595703125,34.02186965942383,260.61868286132807,-15.135375022888185
1257,50.19132614135742,-60.86313247680664,160.74838256835938,-111.52008056640624
1258,62.85462951660156,-38.15446090698242,181.20936584472656,-85.26972198486328
1259,108.6721420288086,3.15647554397583,232.2440490722656,-35.828243255615234
1260,145.6148681640625,41.98785781860352,273.12115478515625,0.9274951815605164
1261,52.76437759399414,-53.54040908813477,175.81643676757812,-85.04906463623047
1262,67.85113525390625,-39.085693359375,197.87435913085938,-69.09091186523439
1263,105.44834899902344,-0.36277028918266296,228.44430541992188,-30.88409423828125
1264,140.29299926757812,39.61302185058594,264.37725830078125,-0.11593689769506454
1265,54.51465225219727,-57.826332092285156,168.3815155029297,-89.02458190917969
1266,67.21909332275389,-48.64487838745117,178.2174530029297,-78.04048919677734
1267,109.6744384765625,-5.5612311363220215,221.3160552978516,-40.62653350830078
1268,140.84275817871094,18.415267944335934,254.2234344482422,-18.026317596435547
1269,63.07902145385742,-68.54114532470703,160.82691955566406,-107.51090240478516
1270,71.86030578613281,-48.749595642089844,178.25111389160156,-96.49690246582031
1271,107.8867645263672,-1.252866506576538,221.00564575195312,-52.57925415039063
1272,146.5909881591797,31.8377685546875,254.9414978027344,-17.68598747253418
1273,55.322471618652344,-55.61231231689453,161.42904663085938,-107.9746551513672
1274,70.67849731445312,-31.74427032470703,186.93516540527344,-82.42739868164062
1275,107.4267578125,4.843170642852783,228.55650329589844,-35.78710174560547
1276,134.63078308105472,30.87661361694336,260.40548706054693,-7.49101972579956
1277,50.00807189941406,-51.2291488647461,171.2574920654297,-97.64878845214844
1278,67.12559509277344,-41.94671630859375,186.93890380859372,-76.12940216064453
1279,104.89110565185548,-1.7801923751831057,228.77716064453125,-34.859607696533196
1280,136.16415405273438,27.79867553710937,256.54965209960943,-8.02956485748291
1281,52.94389343261719,-54.9540901184082,164.9969024658203,-98.49400329589844
1282,73.96961212158203,-33.27389144897461,185.06895446777344,-78.91937255859375
1283,105.3398895263672,2.086864233016968,221.1440277099609,-40.742469787597656
1284,143.51304626464844,34.02560806274414,260.58502197265625,-11.30571746826172
1285,56.43696212768555,-64.85360717773439,164.80990600585938,-104.2235336303711
1286,75.11028289794922,-40.44327926635742,182.90728759765625,-82.69292449951172
1287,106.77601623535156,-2.4870333671569824,218.1969757080078,-50.40262985229492
1288,144.09274291992188,27.043216705322266,255.8876953125,-22.13272857666016
1289,51.511512756347656,-58.7388687133789,158.43338012695312,-103.52790832519531
1290,69.03294372558594,-42.23843002319336,179.12625122070312,-80.85663604736328
1291,103.87010955810548,1.439861536026001,220.0594482421875,-46.5804557800293
1292,133.82670593261722,39.16797256469727,254.1561279296875,-14.738945960998535
1293,43.433326721191406,-48.790733337402344,158.28004455566406,-101.85991668701172
1294,53.6582145690918,-32.193058013916016,177.64524841308594,-78.21627044677734
1295,94.52410125732422,4.0615315437316895,216.55142211914062,-39.7775764465332
1296,134.44754028320312,43.158447265625,259.81085205078125,-1.0920507907867432
1297,52.64470291137695,-52.04818725585938,168.2169647216797,-91.63502502441406
1298,62.28242492675781,-42.55632019042969,188.5582733154297,-85.07898712158203
1299,109.6744384765625,-6.036198616027832,229.15863037109372,-45.72401809692383
1300,145.56251525878906,33.120555877685554,267.62350463867193,-9.929434776306152
1301,64.96018981933594,-63.043495178222656,175.685546875,-106.26177978515624
1302,73.83497619628906,-45.86613464355469,194.56082153320312,-90.9169692993164
1303,120.10875701904295,-7.206787109375,232.32632446289062,-54.90547180175781
1304,157.50775146484375,26.41865348815918,267.13357543945307,-20.367494583129886
1305,61.81493759155274,-71.13663482666016,162.0274200439453,-113.96223449707031
1306,76.03777313232422,-47.48176956176758,180.03878784179688,-89.77629852294922
1307,118.23880767822266,-5.684648036956787,226.32005310058597,-44.01114273071289
1308,143.9207000732422,18.74063873291016,253.3445587158203,-12.977453231811525
1309,49.98189163208008,-70.58686828613281,161.8142547607422,-100.0086669921875
1310,63.55773162841797,-39.80375671386719,181.15701293945312,-82.1431655883789
1311,100.88941192626952,-2.8198845386505127,216.57760620117188,-40.90702438354492
1312,136.57926940917972,34.9306640625,259.32467651367193,-5.16854190826416
1313,53.949928283691406,-53.65634536743164,175.3489532470703,-90.5354995727539
1314,57.40559387207031,-48.91789245605469,180.4726104736328,-75.28792572021484
1315,105.72884368896484,-8.467133522033691,229.7757110595703,-44.42627334594727
1316,142.34246826171875,29.79204368591309,269.5233764648437,-9.869595527648926
1317,52.1622543334961,-59.460670471191406,169.84754943847656,-100.25550079345705
1318,72.5185317993164,-40.783607482910156,189.4820251464844,-83.33618927001953
1319,114.65972137451172,-2.2102808952331543,228.9230194091797,-46.03442764282226
1320,144.0029754638672,29.904239654541016,266.5389404296875,-14.701546669006348
1321,63.8756217956543,-57.50844192504883,178.74851989746094,-96.05933380126952
1322,68.15780639648439,-46.50939559936523,189.4969940185547,-85.98777770996094
1323,116.9672393798828,-7.756552696228027,227.09420776367188,-41.25109481811523
1324,149.7250213623047,17.704687118530273,259.34335327148443,-10.479199409484863
1325,60.16564178466797,-72.46056365966797,166.62750244140625,-92.8617172241211
1326,75.91436004638672,-48.8692741394043,187.3315887451172,-71.985595703125
1327,111.55186462402344,-3.6015236377716064,230.9238586425781,-33.64413833618164
1328,151.75204467773438,29.90049934387207,267.92642211914057,1.3949826955795288
1329,59.7018928527832,-56.83525848388672,179.5451202392578,-84.9742660522461
1330,74.56051635742188,-42.29826736450195,192.01394653320312,-70.01092529296875
1331,108.44400787353516,-10.438060760498047,228.53781127929688,-38.37885284423828
1332,147.7428741455078,31.68069267272949,268.6519775390625,-2.1541824340820312
1333,51.37687683105469,-57.89739227294922,170.22901916503906,-94.76532745361328
1334,64.48522186279297,-42.65356063842773,184.17510986328125,-85.17996215820312
1335,102.79302215576172,-7.124509334564209,223.4291076660156,-47.83332061767578
1336,139.42160034179688,25.78287124633789,257.09942626953125,-14.391135215759276
1337,52.5474624633789,-58.51447296142578,171.36595153808594,-99.79923248291016
1338,64.33188629150389,-43.9924430847168,187.2231292724609,-80.6584243774414
1339,104.27776336669922,-3.713720560073853,226.27142333984372,-36.70337677001953
1340,145.47276306152344,29.35821533203125,259.54904174804693,-10.236105918884276
1341,60.10580062866211,-60.77337265014648,170.15797424316406,-97.39447784423828
1342,79.35881042480469,-47.26111602783203,187.0810089111328,-84.8508529663086
1343,119.31964111328124,-4.289665222167969,231.78404235839844,-42.16363143920898
1344,150.69366455078125,25.83896827697754,263.9920654296875,-9.57788372039795
1345,55.29629135131836,-58.23024368286133,170.02706909179688,-95.39363098144531
1346,73.6592025756836,-41.37077331542969,189.01080322265625,-74.34172821044922
1347,112.7448959350586,-7.8388304710388175,225.46734619140625,-39.08195495605469
1348,142.10684204101562,27.768756866455078,260.98892211914057,-3.997952938079834
1349,49.222694396972656,-51.74151611328125,169.2828369140625,-91.65372467041016
1350,57.93666076660156,-35.36823272705078,183.0157470703125,-72.58397674560547
1351,91.8463363647461,3.2275335788726807,227.6664123535156,-37.29802322387695
1352,125.314697265625,43.2818603515625,259.866943359375,-6.746779441833496
1353,37.91323471069336,-57.88991165161133,164.6902313232422,-99.73939514160156
1354,59.08106994628906,-36.11621475219727,183.67022705078125,-78.39952087402344
1355,104.52459716796876,1.4473413228988647,227.10916137695312,-41.91679763793945
1356,149.08175659179688,33.958290100097656,268.99978637695307,-0.8227779865264893
1357,54.28277969360352,-73.60871124267578,170.34121704101562,-96.22388458251952
1358,74.00701141357422,-50.12961959838867,191.22482299804688,-69.54718017578125
1359,118.93817138671876,-8.280138969421388,231.6681060791016,-31.08230781555176
1360,150.83950805664062,20.58066940307617,259.28726196289057,-9.839676856994627
1361,63.44927215576172,-66.14761352539061,167.8392333984375,-102.67147064208984
1362,79.1456298828125,-43.42397689819336,190.3646545410156,-78.77351379394531
1363,115.7555160522461,-10.96912670135498,233.7699279785156,-40.33108139038086
1364,150.0316925048828,25.66319274902344,268.0535888671875,-7.666794776916504
1365,56.79598999023438,-65.60906219482422,169.13697814941406,-103.3222198486328
1366,70.01279449462889,-47.48550796508789,191.08270263671875,-89.34620666503906
1367,111.54812622070312,-3.795998573303223,234.7123870849609,-44.35895156860352
1368,144.05908203125,28.83836936950684,267.0213623046875,-14.798784255981445
1369,50.9692268371582,-58.07690811157226,170.87228393554688,-101.38868713378906
1370,63.527809143066406,-39.253990173339844,187.6756591796875,-78.86327362060547
1371,102.46016693115234,4.039092063903809,231.2641906738281,-33.995689392089844
1372,135.42738342285156,26.45979309082031,263.083251953125,0.21317429840564728
1373,50.80467224121094,-59.48310852050781,167.42784118652344,-91.18250274658205
1374,72.91496276855469,-45.65295791625977,187.0361328125,-60.74345397949219
1375,106.25242614746094,-13.373882293701172,217.3255920410156,-33.857315063476555
1376,147.099609375,23.20233917236328,254.9901123046875,6.989872932434082
1377,59.42514038085938,-68.82537841796875,162.868896484375,-87.6445541381836
1378,73.94343566894531,-51.37126541137695,178.50917053222656,-75.84516906738281
1379,113.9753189086914,-14.559430122375488,220.16416931152344,-37.32046127319336
1380,144.23484802246094,22.289804458618164,253.5352935791016,-9.91073513031006
1381,53.99480438232422,-64.66661071777344,159.8582763671875,-102.39098358154295
1382,69.3096923828125,-42.15241241455078,181.014892578125,-90.6551742553711
1383,110.29151916503906,-4.734713554382324,223.1112060546875,-52.7064094543457
1384,147.21554565429688,36.83053588867188,265.4393920898437,-15.767417907714846
1385,60.513450622558594,-48.64487838745117,176.91970825195312,-101.48218536376952
1386,69.36953735351561,-40.96686553955078,186.57986450195312,-87.65203857421875
1387,111.80243682861328,0.2281339019536972,235.112548828125,-35.60384750366211
1388,145.9552001953125,33.674060821533196,269.76272583007807,-3.309811353683472
1389,53.49365997314453,-54.07147216796875,175.65936279296875,-83.80368041992188
1390,71.0337905883789,-45.36498641967773,190.2225341796875,-72.81584930419922
1391,113.00668334960938,-0.11593689769506454,232.8798370361328,-28.879507064819336
1392,141.0858612060547,30.244571685791016,268.07601928710943,-2.2738592624664307
1393,56.94558715820313,-61.8691635131836,172.704833984375,-97.1214599609375
1394,67.01339721679689,-44.19813919067383,187.9524078369141,-82.36381530761719
1395,103.67937469482422,-8.740146636962889,222.3819274902344,-43.214542388916016
1396,138.76338195800778,23.613727569580078,257.65292358398443,-13.444940567016602
1397,47.51729965209961,-68.41398620605469,161.14854431152344,-105.81672668457031
1398,62.56665802001953,-48.21479034423828,178.24363708496094,-94.51475524902344
1399,97.43000030517578,-6.817837715148926,218.72056579589844,-56.01622009277344
1400,147.70547485351562,27.8472957611084,261.96502685546875,-14.701546669006348
1401,50.789710998535156,-64.43473815917969,163.47476196289062,-101.07453918457031
1402,68.38594055175781,-40.32360076904297,180.9288787841797,-82.47601318359375
1403,109.50240325927734,0.1047171950340271,227.19517517089844,-38.00112533569336
1404,141.17935180664062,27.959491729736328,258.32986450195307,-6.432628154754639
1405,53.38146209716797,-61.18850326538086,167.3343505859375,-92.61114501953124
1406,66.66558837890625,-43.85032653808594,185.4466857910156,-77.12421417236328
1407,102.13292694091795,-2.3075182437896733,224.56228637695312,-32.099559783935554
1408,138.30149841308594,32.761524200439446,259.96417236328125,-2.0232858657836914
1409,51.96965026855469,-60.2722282409668,167.89532470703125,-94.28287506103516
1410,67.54259490966797,-43.5810546875,186.88653564453125,-83.29131317138672
1411,100.56964874267578,-9.072997093200684,224.2967529296875,-48.27836990356445
1412,140.9456024169922,29.10016250610352,258.83847045898443,-17.502731323242188
1413,50.4587287902832,-63.27910614013672,163.71412658691406,-111.86788940429688
1414,65.16401672363281,-42.47404479980469,181.2953948974609,-98.63612365722656
1415,111.80430603027344,1.1032705307006836,225.89743041992188,-56.65948486328125
1416,152.0194549560547,30.618560791015625,267.9750366210937,-18.97625160217285
1417,60.80329513549805,-66.43184661865234,172.65248107910156,-107.29025268554688
1418,74.70075988769531,-41.04914093017578,189.05194091796875,-82.01600646972656
1419,103.17636108398438,-5.1760215759277335,227.2550201416016,-33.42722702026367
1420,134.94680786132812,24.90025329589844,257.01715087890625,7.090850353240968
1421,45.507102966308594,-59.95059585571289,169.86251831054688,-84.20758819580078
1422,67.21348571777344,-41.07532119750977,187.3727264404297,-66.22615051269531
1423,98.4640884399414,0.36277028918266296,229.88417053222656,-25.40139961242676
1424,136.57366943359378,31.52735710144043,258.52432250976557,0.5048865079879761
1425,48.289588928222656,-62.62088394165039,171.1340789794922,-90.94314575195312
1426,65.82224273681639,-41.47922897338867,190.15521240234372,-80.32556915283203
1427,102.4582977294922,-3.997952938079834,226.1293182373047,-39.80001449584961
1428,137.75921630859378,26.13068008422852,256.80770874023443,-16.264825820922848
1429,52.2950210571289,-61.60737228393555,159.59649658203125,-107.4585418701172
1430,74.31929016113281,-40.41709899902344,185.1774139404297,-80.86412048339844
1431,110.51778411865234,-4.547718524932861,220.1753845214844,-45.428565979003906
1432,147.33709716796875,32.31273651123047,261.35543823242193,-5.404155254364014
1433,59.389610290527344,-56.78664016723633,174.04747009277344,-93.60595703125
1434,68.08113861083984,-43.6221923828125,184.1788482666016,-76.19672393798828
1435,107.02471923828124,0.8751366138458252,227.4906311035156,-33.778778076171875
1436,139.87225341796878,35.719783782958984,257.52203369140625,7.378822803497314
1437,50.24181747436523,-59.48310852050781,160.1724395751953,-85.76712799072266
1438,60.451744079589844,-48.22600936889648,181.72174072265625,-68.42147064208984
1439,102.30870056152344,-4.323324203491212,226.57809448242188,-30.39042663574219
1440,141.57391357421875,27.03573608398437,267.43276977539057,4.8244709968566895
1441,49.90522384643555,-60.58638000488281,172.6786651611328,-90.10166931152344
1442,73.63114929199219,-38.08714294433594,195.6827850341797,-74.43148803710938
1443,104.8667984008789,-2.45337438583374,230.6209259033203,-48.35316467285156
1444,142.78564453125,28.67007255554199,264.38101196289057,-22.10654830932617
1445,50.047340393066406,-66.00175476074219,170.8872528076172,-110.3494873046875
1446,67.69219207763672,-44.57960891723633,190.92189025878903,-89.791259765625
1447,108.92084503173828,-1.9073489904403689,229.1212310791016,-50.73922348022461
1448,144.79022216796875,21.900854110717773,259.14141845703125,-13.848849296569824
1449,60.04783248901367,-65.33231353759766,170.69277954101562,-97.92179870605469
1450,74.0761947631836,-46.39719772338867,184.077880859375,-79.62621307373047
1451,112.85147857666016,-6.533605098724365,226.69029235839844,-36.31068801879883
1452,142.62107849121094,16.799631118774414,255.05743408203125,0.3777298927307129
1453,51.001014709472656,-69.11708831787111,164.62290954589844,-87.1845474243164
1454,70.38865661621094,-48.34568786621094,187.4961395263672,-73.90042114257812
1455,111.7332534790039,-4.5252790451049805,240.0267791748047,-32.398754119873054
1456,142.53506469726562,28.486818313598636,267.1298217773437,-4.663655281066895
1457,55.11116409301758,-60.84443283081055,170.07568359375,-92.07259368896484
1458,69.05351257324219,-42.74705505371094,194.8450469970703,-79.75336456298828
1459,110.88429260253906,-3.126556396484375,235.56881713867188,-36.8267936706543
1460,145.09315490722656,29.590087890625,267.18966674804693,-7.341423511505128
1461,52.12298583984375,-54.2509880065918,177.293701171875,-101.916015625
1462,70.49711608886719,-38.71918487548828,195.7313995361328,-85.36695861816406
1463,104.59751892089844,1.2304270267486572,238.89732360839844,-43.39780044555664
1464,137.94621276855472,33.475845336914055,263.588134765625,-16.63881492614746
1465,45.48466491699219,-60.54898071289063,167.1623077392578,-110.0054168701172
1466,69.8201904296875,-37.71689224243164,186.75938415527344,-91.43307495117188
1467,110.35696411132812,3.062978029251098,230.7555694580078,-50.94491577148438
1468,143.8851776123047,30.08749580383301,267.38040161132807,-16.466779708862305
1469,53.63764572143555,-60.42556381225586,170.94334411621094,-103.36709594726562
1470,69.42375946044922,-37.84778594970703,191.4903564453125,-84.4693832397461
1471,100.86884307861328,-5.430334568023682,224.49497985839844,-46.47573852539063
1472,140.30982971191406,26.19425964355469,262.03982543945307,-9.57788372039795
1473,47.17883682250977,-71.3236312866211,166.2647247314453,-99.26068115234376
1474,72.60267639160156,-52.06688690185547,187.9823303222656,-79.68231201171875
1475,112.43635559082031,0.5460253953933716,233.94944763183597,-32.099559783935554
1476,139.92088317871094,24.260730743408203,260.54013061523443,-6.0511579513549805
1477,49.92392349243164,-60.30962753295898,171.20140075683594,-88.78522491455078
1478,66.12516784667969,-38.96227645874024,188.5769805908203,-71.76493835449219
1479,101.83747863769531,-2.4832935333251958,226.22280883789062,-33.05697631835937
1480,131.56968688964844,21.83353614807129,252.4544677734375,-11.032705307006836
1481,49.73318862915039,-55.61979293823242,166.27969360351562,-93.8079071044922
1482,63.312767028808594,-40.22262573242188,184.2312164306641,-82.27031707763672
1483,99.21580505371094,5.7482261657714835,229.33441162109372,-39.90473175048828
1484,135.61251831054688,25.700592041015625,256.64315795898443,-18.991212844848636
1485,52.64282989501953,-60.57516098022461,164.46583557128906,-103.09782409667969
1486,76.70160675048828,-47.31347274780274,188.0795745849609,-77.56926727294922
1487,117.1299285888672,-6.997352600097656,232.2627410888672,-40.45075607299805
1488,155.20584106445312,17.469072341918945,263.31887817382807,-10.067811012268066
1489,59.67758178710938,-64.87230682373047,169.8251190185547,-97.65252685546876
1490,71.1216812133789,-47.82583999633789,186.63970947265625,-77.09429931640625
1491,115.40583038330078,-12.046217918395994,228.6612243652344,-39.03707504272461
1492,141.8917999267578,16.373281478881836,259.93426513671875,-9.88455581665039
1493,51.33386611938477,-64.99571990966797,159.34217834472656,-96.47820281982422
1494,68.55610656738281,-45.71653747558594,184.6276397705078,-74.7381591796875
1495,107.97090911865234,-3.724940299987793,230.63589477539062,-32.53712844848633
1496,134.06793212890622,23.05648231506348,259.73977661132807,-10.78213119506836
1497,40.97808456420898,-59.68132400512695,169.7839813232422,-98.36685180664062
1498,54.07147216796875,-42.70965576171875,187.4774475097656,-85.84940338134766
1499,100.4948501586914,2.415975332260132,231.75411987304688,-42.23843002319336
1500,133.46954345703122,37.309242248535156,262.55966186523443,-16.01051139831543
1501,46.29248046875,-56.1695556640625,167.4203643798828,-104.46662902832031
1502,67.88666534423828,-35.12514114379883,185.99644470214844,-82.78268432617188
1503,96.6390151977539,-3.747379779815674,219.2666015625,-50.26799392700195
1504,138.08084106445312,20.696605682373047,256.69552612304693,-16.960445404052734
1505,56.47248840332031,-70.17548370361328,165.69252014160156,-97.29723358154295
1506,74.12855529785156,-45.316368103027344,187.70932006835938,-69.14327239990234
1507,113.0571746826172,-3.837137460708618,228.05909729003903,-30.19221305847168
1508,145.08941650390625,25.674413681030273,259.16757202148443,-0.20195460319519046
1509,48.69349670410156,-62.49372863769531,167.34182739257812,-88.7291259765625
1510,64.60303497314453,-41.59516906738281,185.8879852294922,-74.79425811767578
1511,107.14439392089844,3.795998573303223,233.4482879638672,-30.62604141235352
1512,142.19847106933594,28.74487113952637,265.70492553710943,-5.471473693847656
1513,48.5625991821289,-64.06074523925781,175.02731323242188,-90.08296966552734
1514,64.95458221435547,-44.18317794799805,193.902587890625,-76.43981170654297
1515,104.69475555419922,-2.6029703617095947,231.0285797119141,-44.88628005981445
1516,140.95309448242188,29.26471710205078,269.79638671875,-20.59188842773437
1517,58.71268844604492,-59.86083984375,178.3072052001953,-107.40245056152344
1518,85.30337524414062,-44.96107864379883,201.85362243652344,-88.43741607666016
1519,133.32369995117188,-0.8526971936225891,254.0626220703125,-40.42831802368164
1520,155.02633666992188,22.181346893310547,273.83920288085943,-18.205833435058594
1521,58.38357925415039,-70.88606262207031,173.88290405273438,-100.17696380615234
1522,76.2640380859375,-54.84563446044922,188.92105102539062,-74.46888732910156
1523,114.10808563232422,-15.468226432800293,223.1486053466797,-28.10160827636719
1524,147.2847442626953,10.950427055358887,253.28846740722656,-2.468333959579468
1525,55.2944221496582,-72.98414611816406,160.6324462890625,-90.5915985107422
1526,72.408203125,-54.91669082641602,181.44125366210938,-79.2148208618164
1527,115.97803497314452,-8.152981758117676,228.59390258789062,-33.359909057617195
1528,134.722412109375,19.099668502807614,255.04248046875,-12.072397232055664
1529,42.25339126586914,-68.17837524414061,162.9474334716797,-95.89851379394531
1530,63.41374206542969,-45.60808181762695,188.995849609375,-82.86122131347656
1531,99.63841247558594,-2.9433012008666988,229.07635498046875,-40.41709899902344
1532,128.40199279785156,25.221885681152344,256.15322875976557,-12.061177253723145
1533,44.29911422729492,-61.89534378051758,168.8602294921875,-100.44623565673828
1534,68.96375274658203,-35.10644149780273,195.7725372314453,-76.15558624267578
1535,112.9973373413086,-1.9559676647186282,238.1830139160156,-34.818470001220696
1536,146.25253295898438,32.84006118774414,268.65945434570307,-1.8587303161621092
1537,56.97737503051758,-61.13240432739258,174.68324279785156,-87.9848861694336
1538,76.38372039794922,-41.92053985595703,192.1598052978516,-69.0572509765625
1539,114.0220718383789,-4.293405055999757,225.58702087402344,-27.24517059326172
1540,143.61964416503906,19.600814819335934,254.2570953369141,-0.4974066913127899
1541,51.40492630004883,-78.36212158203125,161.7244873046875,-88.4486312866211
1542,73.64237213134766,-58.73138809204102,181.1046600341797,-71.69013977050781
1543,105.5324935913086,-16.870689392089847,223.1299133300781,-33.84609603881836
1544,135.85560607910156,11.253358840942383,248.7931060791016,-9.01689910888672
1545,45.28270721435547,-78.19757080078125,160.77081298828125,-100.32655334472656
1546,67.9539794921875,-51.67045593261719,182.77264404296875,-81.02119445800781
1547,111.86415100097656,-6.589703559875487,228.6088714599609,-34.321060180664055
1548,136.80180358886722,24.11487579345703,265.2711181640625,-8.257699012756348
1549,49.18716430664063,-62.25811386108398,173.53135681152344,-93.34416198730469
1550,70.12686157226561,-45.04335403442383,200.13327026367188,-71.06183624267578
1551,114.30630493164062,-8.560630798339844,244.3575897216797,-30.38294792175293
1552,148.10003662109375,21.57174301147461,269.38125610351557,-3.795998573303223
1553,62.48250961303711,-63.94855117797852,179.26087951660156,-86.46648406982422
1554,72.8495101928711,-51.60688018798828,189.34739685058597,-69.83889007568361
1555,114.5082550048828,-8.725186347961426,226.82493591308597,-29.485370635986328
1556,143.86273193359375,19.1557674407959,256.49356079101557,-0.830257773399353
1557,47.33965301513672,-70.5644302368164,165.22503662109375,-92.58122253417969
1558,69.70799255371094,-51.46476364135742,180.91766357421875,-76.86990356445312
1559,109.11906433105469,-5.220900535583496,223.37673950195312,-34.86334609985352
1560,135.06648254394528,23.14250183105469,249.5186462402344,-17.095083236694336
1561,48.26714706420898,-69.84637451171875,157.97337341308594,-104.6087417602539
1562,68.51870727539061,-48.39804458618164,181.3963623046875,-88.5870132446289
1563,102.7013931274414,-4.3046250343322745,227.060546875,-48.36064529418945
1564,138.33515930175778,25.143346786499023,257.34625244140625,-26.343854904174805
1565,53.30479431152344,-64.26644134521484,166.5639190673828,-109.63516998291016
1566,70.61679077148438,-43.2519416809082,192.2981719970703,-86.0363998413086
1567,114.68029022216795,-3.5192458629608154,233.11170959472656,-43.58479309082031
1568,144.6817626953125,25.883848190307614,266.86056518554693,-9.533004760742188
1569,58.82488632202149,-58.7687873840332,171.76612854003906,-93.6470947265625
1570,71.49940490722656,-47.564048767089844,193.59217834472656,-71.33859252929688
1571,108.05319213867188,0.8975759744644165,238.340087890625,-27.727619171142575
1572,142.1835174560547,21.78865623474121,262.2791748046875,-0.2804924845695496
1573,51.29272842407226,-64.55815124511719,170.82366943359375,-93.73685455322266
1574,68.96749877929689,-49.05626678466797,186.2021331787109,-85.17996215820312
1575,110.99275207519531,-5.546271800994873,226.44720458984372,-39.85611343383789
1576,134.29232788085938,21.197751998901367,249.4550628662109,-20.66668701171875
1577,55.13360595703125,-72.10153198242188,157.77890014648438,-113.84629821777344
1578,68.90391540527344,-59.46440887451172,179.03274536132812,-97.40569305419922
1579,107.65302276611328,-12.300531387329102,217.07501220703125,-62.50868606567383
1580,140.84463500976562,16.642555236816403,249.71685791015625,-32.68298721313477
1581,56.80908203125,-68.77676391601561,161.07748413085938,-113.06465911865234
1582,71.69762420654297,-43.2706413269043,184.95301818847656,-91.00298309326172
1583,110.45794677734376,-8.54193115234375,230.5723114013672,-42.13371276855469
1584,148.72459411621094,30.64474105834961,266.1051025390625,-2.718907356262207
1585,53.12154006958008,-59.06423950195313,171.62774658203125,-92.42414855957031
1586,65.45572662353516,-39.10065460205078,190.9031982421875,-67.77446746826172
1587,109.83712005615234,3.3696498870849614,240.46060180664062,-21.276290893554688
1588,143.4962158203125,26.082061767578125,273.95889282226557,6.219453811645508
1589,54.84937286376953,-59.4494514465332,180.86529541015625,-82.9846420288086
1590,73.83684539794922,-42.44412612915039,199.1683654785156,-70.36995697021484
1591,118.02750396728516,-5.8903422355651855,238.3774871826172,-36.00027847290039
1592,149.24070739746094,17.555089950561527,268.0423583984375,-15.853435516357422
1593,54.66985702514648,-66.89933013916016,168.31793212890625,-109.7660675048828
1594,69.10213470458984,-47.01054382324219,187.2493133544922,-95.96583557128906
1595,112.09602355957031,-6.406448841094972,224.32667541503903,-59.43449020385742
1596,138.795166015625,20.5058708190918,251.7700653076172,-30.86165428161621
1597,46.883384704589844,-63.353904724121094,154.6934814453125,-112.84026336669922
1598,64.37863922119139,-50.55596923828125,174.4027557373047,-89.3873519897461
1599,107.26033020019531,-4.895529270172119,223.2495880126953,-41.75972366333008
1600,138.14068603515622,24.69455909729004,254.103759765625,-3.3584301471710205
1601,45.60808181762695,-61.409156799316406,155.73316955566406,-93.25440216064452
1602,69.23302459716797,-46.9619255065918,179.76202392578125,-76.00972747802734
1603,108.93580627441406,-4.955367565155028,225.68426513671875,-36.64727783203125
1604,139.10183715820312,24.71325874328613,258.19894409179693,-3.051758289337158
1605,43.214542388916016,-62.97991561889648,164.97821044921875,-102.79489135742188
1606,68.11853790283203,-40.09920883178711,191.13507080078125,-78.91937255859375
1607,117.14862823486328,0.4562678039073944,231.0996398925781,-46.59541320800781
1608,145.27267456054688,30.3474178314209,264.46514892578125,-20.139360427856445
1609,60.01791381835938,-66.74412536621094,169.75218200683594,-113.09831237792969
1610,79.06896209716797,-42.057044982910156,189.7718811035156,-89.42100524902344
1611,119.11207580566406,1.3557137250900269,230.0992126464844,-48.45414352416992
1612,147.37449645996094,25.35465240478516,256.30096435546875,-19.58211708068848
1613,56.72306442260742,-60.55084991455078,162.9717559814453,-108.1429443359375
1614,78.88571166992188,-43.070556640625,188.50030517578125,-76.45851135253906
1615,112.04366302490234,-7.249795913696289,223.9508209228516,-32.39127349853516
1616,144.37509155273438,20.8218936920166,253.57456970214844,-3.4930665493011475
1617,50.36897277832031,-72.37267303466797,164.78933715820312,-92.58122253417969
1618,72.90187072753906,-40.20579528808594,183.54493713378903,-72.97666931152344
1619,114.53443908691406,-1.916698694229126,226.90159606933597,-33.00087738037109
1620,140.74365234375,20.06643295288086,251.6522521972656,-17.596229553222656
1621,47.46681213378906,-69.47425079345703,157.3731231689453,-107.75399780273438
1622,67.8717041015625,-40.96125411987305,183.6272125244141,-90.81224822998048
1623,104.77703857421876,-4.467310428619385,226.1311798095703,-54.59880065917969
1624,138.45109558105472,32.56143951416016,256.25234985351557,-29.571388244628906
1625,46.6215934753418,-59.50741958618164,164.75567626953125,-113.01229858398438
1626,69.09091186523439,-33.63105010986328,188.3133087158203,-87.93626403808594
1627,108.85353088378906,2.6384994983673096,230.0543365478516,-42.227210998535156
1628,142.6547393798828,24.958221435546875,259.87255859375,-11.574990272521973
1629,51.06833267211914,-62.192665100097656,163.99273681640625,-98.78197479248048
1630,66.62258148193361,-44.918067932128906,178.36517333984375,-75.34028625488281
1631,108.97694396972656,-5.555621147155762,217.91087341308597,-35.14384078979492
1632,140.28738403320312,19.28105354309082,249.3671722412109,-0.9574143886566162
1633,43.54739379882813,-73.0421142578125,151.65481567382812,-99.21206665039062
1634,65.706298828125,-53.06731033325195,171.65953063964844,-75.36646270751953
1635,104.88923645019531,-3.876406192779541,223.2028350830078,-31.542316436767575
1636,133.42092895507812,20.578800201416016,246.41639709472656,-12.225732803344727
1637,43.562355041503906,-65.50621795654297,160.4585418701172,-105.06127166748048
1638,59.23253631591797,-35.381324768066406,182.40426635742188,-87.77545166015625
1639,95.44598388671876,-3.509896039962769,221.0374298095703,-63.2641487121582
1640,137.6507568359375,32.19118881225586,264.61849975585943,-26.654266357421875
1641,50.8177604675293,-59.68319320678711,171.0087890625,-118.0574188232422
1642,75.76289367675781,-29.88367080688477,195.7295379638672,-86.30567169189453
1643,114.70647430419922,9.411458015441896,243.20382690429688,-38.59202575683594
1644,144.30404663085938,32.030372619628906,272.44235229492193,-3.818437814712525
1645,55.4066162109375,-54.45481491088867,175.60513305664062,-87.10974884033203
1646,75.29540252685547,-42.46095275878906,185.5607452392578,-67.47901153564453
1647,112.36529541015624,-2.6085801124572754,226.3368682861328,-26.97215843200684
1648,137.0635986328125,20.317007064819336,250.35076904296875,-2.7076876163482666
1649,37.47379684448242,-76.6922607421875,146.36659240722656,-97.08779907226562
1650,55.918983459472656,-49.52936553955078,171.58099365234375,-76.75770568847656
1651,94.26417541503906,-6.62897253036499,213.93536376953125,-43.68577194213867
1652,120.07696533203124,20.23098945617676,238.31951904296875,-25.98856544494629
1653,32.36883544921875,-64.66474151611328,147.70547485351562,-119.59825897216795
1654,58.21154403686523,-43.28373336791992,176.41294860839844,-104.63491821289062
1655,93.07489013671876,2.2832088470458984,219.9341735839844,-67.56877136230469
1656,129.74835205078122,30.89718437194824,254.3936004638672,-36.108734130859375
1657,44.83391952514648,-59.88140869140625,166.63311767578125,-120.33502197265624
1658,67.46405792236328,-40.92385482788086,189.21463012695312,-90.49810028076172
1659,110.39436340332031,4.845040321350098,236.31118774414062,-38.75658416748047
1660,146.19642639160156,22.81525993347168,265.42630004882807,-7.629395961761475
1661,63.3052864074707,-69.62758636474611,177.23199462890625,-86.81430053710938
1662,84.66011810302734,-44.56277847290039,200.8345031738281,-64.69652557373047
1663,117.69464874267578,-17.590620040893555,228.7528533935547,-32.03598403930664
1664,144.76031494140625,11.427264213562012,254.62921142578125,-3.829657554626465
1665,46.9918441772461,-80.67525482177734,155.55178833007812,-91.01046752929688
1666,63.48480224609375,-56.40703964233398,168.5928192138672,-75.20938873291016
1667,104.97151184082031,-10.99717617034912,213.9391021728516,-35.16627883911133
1668,135.97154235839844,20.51896095275879,241.77517700195312,-10.819530487060547
1669,45.97085189819336,-65.61841583251953,152.2718963623047,-103.89442443847656
1670,67.92032623291016,-47.44998168945313,181.08782958984372,-90.38964080810548
1671,105.48387908935548,3.5622546672821045,223.38609313964844,-49.3143196105957
1672,127.13790130615234,27.194683074951172,251.59616088867188,-31.332881927490234
1673,40.00196838378906,-52.95511245727539,157.4927978515625,-112.84400177001952
1674,61.7981071472168,-36.84736251831055,184.4986114501953,-90.19890594482422
1675,103.67002868652344,0.9854636192321776,225.43182373046875,-46.97688293457031
1676,136.10243225097656,24.371057510375977,253.48106384277344,-17.30451774597168
1677,49.04130935668945,-62.08047103881836,158.65589904785156,-98.75205993652344
1678,73.93034362792969,-38.97162628173828,188.69851684570312,-73.88172149658203
1679,113.0571746826172,1.2809157371520996,230.55548095703125,-30.143592834472656
1680,147.5652313232422,24.87968444824219,255.77362060546875,-0.003739899955689907
1681,57.57575988769531,-71.81169128417969,164.0189208984375,-93.55733489990234
1682,73.45911407470703,-47.12834930419922,188.051513671875,-67.35933685302734
1683,112.54854583740234,-5.2227702140808105,235.55946350097656,-24.24577140808105
1684,144.22549438476562,15.877745628356935,258.1185302734375,-6.204493999481201
1685,46.17280578613281,-76.3706283569336,157.00286865234375,-102.73131561279295
1686,65.10791778564453,-57.17372131347656,175.19747924804688,-80.77062225341797
1687,105.04631042480469,-2.653459072113037,215.96612548828125,-53.10284042358398
1688,128.86573791503906,18.13290405273437,241.61062622070312,-29.504070281982425
1689,43.371620178222656,-63.50910949707031,157.30580139160156,-113.92108917236328
1690,62.37031173706055,-46.57110595703125,174.52804565429688,-92.14739227294922
1691,104.51150512695312,-1.890519380569458,224.91571044921875,-42.376808166503906
1692,125.32778930664062,14.505202293395994,240.81776428222656,-18.527463912963867
1693,34.09292984008789,-60.18059921264648,151.2135009765625,-98.47904205322266
1694,58.66781234741211,-34.48000717163086,177.710693359375,-70.25402069091797
1695,98.3257064819336,4.007302761077882,218.1764068603516,-32.447372436523445
1696,130.51129150390622,20.014074325561523,249.0305938720703,-10.7073335647583
1697,51.1580924987793,-61.238990783691406,163.2933807373047,-96.96438598632812
1698,72.54283905029297,-39.42415618896485,192.25143432617188,-80.14979553222656
1699,115.34225463867188,6.928164482116699,238.2970733642578,-36.21345138549805
1700,134.79347229003906,18.854705810546875,254.0121307373047,-12.098576545715332
1701,47.227455139160156,-63.98781967163086,151.91287231445312,-102.54431915283205
1702,64.77880859375,-53.98358535766602,179.38616943359375,-79.96653747558594
1703,111.63227081298828,-0.948064625263214,229.0183868408203,-32.215499877929695
1704,132.8150634765625,14.3107271194458,251.9477081298828,-19.114627838134766
1705,46.6328125,-71.40403747558594,153.0759735107422,-103.89816284179688
1706,58.23772048950195,-44.955467224121094,168.32728576660156,-87.50617980957031
1707,105.61477661132812,0.37585994601249695,210.7377471923828,-35.03164291381836
1708,121.34105682373048,18.506895065307614,228.4761047363281,-18.03753662109375
1709,32.81762313842773,-74.15660858154297,140.41267395019528,-107.39122772216795
1710,54.924171447753906,-53.75171279907226,162.01808166503906,-75.8189926147461
1711,98.36685180664062,-4.059661388397217,207.57752990722656,-35.69734573364258
1712,124.5012664794922,22.658184051513672,236.9469757080078,-10.920507431030273
1713,38.20307922363281,-62.742431640625,151.13870239257812,-99.286865234375
1714,54.2210693359375,-43.36227035522461,168.75363159179688,-87.85025024414062
1715,99.04376983642578,2.1186532974243164,218.7336578369141,-46.99932098388672
1716,133.68646240234378,26.7496337890625,249.02685546875,-31.45255851745605
1717,49.29936218261719,-65.57353210449219,154.79258728027344,-118.3790512084961
1718,71.77989959716797,-43.82975769042969,176.46905517578125,-98.69222259521484
1719,114.79622650146484,-3.7567296028137207,225.5365295410156,-52.16412353515625
1720,139.64411926269528,19.037960052490234,250.9117584228516,-17.914121627807614
1721,46.58419418334961,-70.60369873046875,151.71090698242188,-103.74856567382812
1722,63.94107055664063,-54.29399871826172,175.76220703125,-75.62825775146484
1723,104.32077026367188,-10.537168502807617,216.8375244140625,-33.303810119628906
1724,125.02859497070312,13.042901039123535,230.39093017578125,-9.25625228881836
1725,35.671165466308594,-70.8131332397461,144.99404907226562,-90.976806640625
1726,51.64801788330078,-56.35468292236328,163.01663208007812,-74.00140380859375
1727,90.2737045288086,-7.5863871574401855,204.13308715820312,-33.715198516845696
1728,112.855224609375,22.18695640563965,225.1775054931641,-21.272550582885746
1729,25.319122314453125,-63.61756896972656,143.73370361328125,-109.5080108642578
1730,55.11864471435547,-41.26044464111328,174.92446899414062,-86.63851928710938
1731,88.7515640258789,-7.130119323730469,207.8879547119141,-56.15085983276367
1732,120.66413116455078,19.580245971679688,231.23614501953125,-30.39416694641113
1733,45.69035720825195,-64.43660736083984,149.81478881835938,-115.3684310913086
1734,76.17802429199219,-52.21835327148438,174.05307006835938,-96.42584228515624
1735,116.7746353149414,-8.846733093261719,221.8564758300781,-53.11032104492188
1736,141.64871215820312,15.126025199890135,241.2964782714844,-36.49020385742188
1737,51.52460098266602,-67.71276092529297,153.33029174804688,-114.8261489868164
1738,62.32543182373047,-45.92036056518555,171.19204711914062,-95.50208282470705
1739,102.29000091552734,-2.6085801124572754,212.15142822265625,-49.43025588989258
1740,128.06166076660156,23.10323143005371,236.96566772460938,-21.519384384155273
1741,38.15071868896485,-62.51055908203125,141.171875,-103.65880584716795
1742,52.84104537963867,-45.43791580200195,160.0658416748047,-84.23002624511719
1743,94.3913345336914,-2.9414312839508057,204.5482177734375,-30.962631225585934
1744,119.4411849975586,16.360193252563473,228.592041015625,-15.019437789916992
1745,25.52107810974121,-73.33008575439453,135.73779296875,-110.51030731201172
1746,44.09716033935547,-43.52308654785156,163.57386779785156,-95.55818176269531
1747,88.03724670410156,4.515929222106934,210.03839111328125,-45.4884033203125
1748,118.75678253173828,34.73432159423828,244.2696990966797,-26.153120040893555
1749,39.8187141418457,-55.73386001586914,158.9775390625,-113.55458068847656
1750,64.77132415771484,-35.56831741333008,186.9445037841797,-90.976806640625
1751,113.03473663330078,3.192004680633545,234.24676513671875,-40.45823669433594
1752,134.13525390625,18.495676040649414,254.38612365722656,-20.805063247680664
1753,47.15639877319336,-67.72397613525389,157.06271362304688,-101.74024200439452
1754,67.19478607177734,-48.66544723510742,175.56399536132812,-75.03361511230469
1755,112.75798034667969,-11.255228996276855,217.8473052978516,-29.698545455932614
1756,134.84208679199222,16.225555419921875,243.4169921875,-7.472320079803468
1757,39.500823974609375,-74.23888397216797,140.55853271484378,-102.18902587890624
1758,57.2616081237793,-48.66170883178711,165.8065948486328,-82.21047973632812
1759,101.48966217041016,-5.447164058685303,211.85972595214844,-41.116458892822266
1760,125.25299072265624,19.845779418945312,234.9947509765625,-18.078676223754886
1761,30.5175838470459,-64.90035247802734,143.6701202392578,-107.46228790283205
1762,57.04469299316406,-45.93906021118164,167.94581604003906,-83.3661117553711
1763,94.29409790039062,-0.9854636192321776,211.43711853027344,-48.67479705810547
1764,120.5220184326172,28.466249465942386,244.9054718017578,-29.504070281982425
1765,33.804954528808594,-62.45819854736328,153.70428466796875,-117.0513916015625
1766,54.5501823425293,-33.702110290527344,182.6361389160156,-89.03953552246094
1767,100.5546875,9.748048782348633,225.0615692138672,-44.665626525878906
1768,121.50560760498048,32.05655288696289,245.61605834960938,-25.68189239501953
1769,42.990150451660156,-55.135475158691406,159.41510009765625,-103.09408569335938
1770,59.96555709838867,-47.06851196289063,172.8824920654297,-91.54901123046876
1771,104.10011291503906,0.4581377506256104,216.6729736328125,-37.31298065185547
1772,131.34902954101562,20.79945373535156,235.31637573242188,-11.257099151611328
1773,46.12792587280274,-70.19979095458984,139.97511291503906,-97.55902862548828
1774,69.57709503173828,-49.47700500488281,162.48182678222656,-74.61474609375
1775,109.01434326171876,-3.4014389514923096,204.91847229003903,-33.898452758789055
1776,130.80674743652344,13.832019805908205,232.03648376464844,-19.54471778869629
1777,36.291988372802734,-67.01713562011719,142.98947143554688,-106.69934844970705
1778,50.58962631225586,-42.59558868408203,162.04425048828125,-94.3240203857422
1779,95.31134796142578,5.282608509063722,215.352783203125,-47.13021850585938
1780,114.10808563232422,15.698229789733887,234.695556640625,-40.85466766357422
1781,38.95479965209961,-57.22233963012695,156.4306640625,-120.80998992919922
1782,58.48829650878906,-42.53201293945313,182.4566345214844,-94.8924789428711
1783,102.83976745605469,6.1727046966552725,225.5814208984375,-45.72401809692383
1784,130.08494567871094,29.10951042175293,259.07595825195307,-16.25734519958496
1785,47.82583999633789,-57.73844528198242,170.13365173339844,-101.48966217041016
1786,72.01925659179688,-38.242347717285156,189.0126800537109,-76.94844055175781
1787,118.77174377441406,-2.541261911392212,237.6949462890625,-32.46607208251953
1788,138.54833984375,20.459123611450195,260.44851684570307,-8.93088150024414
1789,42.44038391113281,-68.87960815429689,156.28106689453125,-100.1507797241211
1790,62.54608535766602,-46.38410949707031,175.01797485351562,-77.07933807373047
1791,106.84519958496094,-2.6160600185394287,212.3384246826172,-40.1478271484375
1792,129.87176513671878,16.535966873168945,233.01634216308597,-16.433120727539062
1793,44.07472229003906,-66.54965209960939,146.18333435058594,-103.6251449584961
1794,57.85625076293945,-41.77281188964844,164.47518920898438,-89.2115707397461
1795,105.63347625732422,3.7829089164733887,217.42843627929688,-39.88603210449219
1796,130.09616088867188,28.62332344055176,246.5435485839844,-19.00617218017578
1797,32.50720977783203,-67.76137542724611,150.09901428222656,-109.63516998291016
1798,59.5092887878418,-41.18938827514648,184.30039978027344,-81.86640930175781
1799,101.17925262451172,5.338706970214844,225.95166015625,-40.82848739624024
1800,132.83377075195312,32.355743408203125,250.42930603027344,-19.26048469543457
1801,49.17968368530274,-59.96742630004883,164.12364196777344,-100.98851776123048
1802,69.42375946044922,-33.81056594848633,183.4925842285156,-80.38915252685547
1803,113.92108917236328,0.1589457541704178,234.20936584472656,-39.51204299926758
1804,141.11764526367188,19.55780601501465,250.32833862304688,-20.26277732849121
1805,57.81885147094727,-61.44094467163086,162.54165649414062,-98.35562896728516
1806,75.99850463867188,-44.03545379638672,178.54843139648438,-81.821533203125
1807,122.515380859375,3.5884339809417725,227.97120666503903,-29.821962356567386
1808,138.48475646972656,11.337506294250488,244.9915008544922,-13.474859237670898
1809,53.54788589477539,-78.35651397705078,156.5653076171875,-92.65602111816406
1810,73.92285919189453,-50.28482437133789,172.63565063476562,-68.35041046142578
1811,117.22342681884766,0.6675721406936646,221.8115997314453,-25.2293643951416
1812,136.91400146484378,22.29167366027832,246.99234008789062,-11.20847988128662
1813,45.48466491699219,-65.96248626708984,154.89356994628906,-98.39676666259766
1814,68.01381683349611,-37.18395614624024,182.8493194580078,-76.52957153320312
1815,105.38664245605469,5.432204723358153,228.2778778076172,-35.34953308105469
1816,128.39823913574222,27.91274261474609,255.4557342529297,-8.938361167907715
1817,41.09028244018555,-64.58246612548828,161.090576171875,-93.8079071044922
1818,64.41977691650389,-39.9664421081543,187.06417846679688,-69.38636016845703
1819,109.44817352294922,2.3580069541931152,234.83018493652344,-24.48886489868164
1820,137.949951171875,21.43149757385254,252.59844970703125,-8.710227012634277
1821,56.50240707397461,-66.08589935302734,160.9709014892578,-97.40943145751952
1822,79.36815643310547,-43.52308654785156,188.1749420166016,-77.50942993164062
1823,125.06973266601562,2.107433557510376,232.6423492431641,-32.432411193847656
1824,149.98495483398438,23.41738319396973,255.83346557617188,-12.584763526916506
1825,58.52569580078125,-66.19435882568361,163.08395385742188,-99.7543487548828
1826,74.07245635986328,-52.60730361938477,182.7558135986328,-81.0772933959961
1827,115.30111694335938,-6.1465253829956055,226.17605590820312,-34.193904876708984
1828,134.2998046875,15.503755569458008,242.33990478515625,-16.27230453491211
1829,48.74211502075195,-65.91761016845703,159.3552703857422,-95.07947540283205
1830,68.23447418212889,-45.07888412475586,177.3853302001953,-78.27984619140625
1831,105.6484375,-5.559361457824707,221.4525604248047,-35.64498519897461
1832,131.29292297363278,22.72176170349121,249.6962890625,-14.02088451385498
1833,47.79218292236328,-61.6578598022461,160.53707885742188,-95.8349380493164
1834,70.40361785888672,-41.55215835571289,179.43104553222656,-77.0082778930664
1835,113.96597290039062,1.7446633577346802,231.33338928222656,-27.693958282470703
1836,138.70541381835938,28.26055335998535,247.1082763671875,-8.852343559265137
1837,48.45788192749024,-61.08939743041992,158.8466339111328,-95.24777221679688
1838,65.99427795410156,-42.00094604492188,180.28749084472656,-72.54283905029297
1839,110.21485137939452,-2.6609387397766118,226.56126403808597,-29.332035064697266
1840,141.34951782226562,21.4090576171875,251.62234497070312,-13.628195762634276
1841,54.95782852172852,-63.73724365234375,162.6575927734375,-91.3545379638672
1842,74.92515563964844,-44.61139678955078,183.55990600585938,-71.65274047851562
1843,116.29966735839844,0.9966833591461182,232.41421508789062,-36.02645492553711
1844,143.0287322998047,15.488795280456545,252.17584228515625,-16.34336280822754
1845,57.88991165161133,-70.42792510986328,164.2620086669922,-101.43730926513672
1846,74.80921936035156,-44.005531311035156,184.27047729492188,-81.59713745117188
1847,115.85836029052734,-0.7535898685455322,228.4536590576172,-30.99255180358887
1848,139.28509521484378,23.8624324798584,252.2281951904297,-14.346256256103516
1849,49.3031005859375,-61.76257705688477,153.7566375732422,-105.98128509521484
1850,65.40711212158203,-37.46818923950195,176.38302612304688,-78.29106903076172
1851,104.7284164428711,4.179337978363037,225.2298583984375,-34.06300735473633
1852,127.57920837402344,27.22460174560547,250.6387481689453,-10.004232406616213
1853,39.77009582519531,-59.73555374145508,161.9021453857422,-91.38445281982422
1854,66.92550659179689,-37.19517517089844,185.78887939453125,-71.7462387084961
1855,110.4317626953125,1.987756848335266,227.92259216308597,-29.937898635864254
1856,128.00555419921878,21.21084213256836,247.5271453857422,-14.750164985656738
1857,46.02694702148438,-62.47315979003906,160.91481018066406,-98.75579833984376
1858,65.94191741943361,-44.36082458496094,184.70431518554688,-78.48180389404297
1859,109.66134643554688,0.7535898685455322,231.7971343994141,-33.098114013671875
1860,138.32020568847656,23.13315200805664,254.90597534179688,-11.503931999206545
1861,54.12757110595703,-59.94498825073242,163.22605895996094,-98.6249008178711
1862,70.4372787475586,-35.897430419921875,186.5406036376953,-80.12361907958984
1863,114.63915252685548,2.8778529167175293,229.9196929931641,-34.14154815673828
1864,133.57052612304688,26.12507057189941,244.7446594238281,-17.222238540649414
1865,46.66647338867188,-64.9078369140625,154.87860107421875,-99.84037017822266
1866,63.6568374633789,-39.173583984375,178.0659942626953,-74.22579193115234
1867,106.916259765625,1.3257945775985718,225.56271362304688,-31.76671028137207
1868,134.63639831542972,29.34138488769531,250.83322143554688,-7.262885570526122
1869,48.46536254882813,-61.65412139892578,161.37481689453125,-89.83987426757812
1870,68.37659454345703,-37.64022445678711,182.1013336181641,-67.98016357421875
1871,110.22232818603516,6.393359184265138,230.75369262695312,-24.649681091308594
1872,136.18098449707028,26.3270263671875,253.4586334228516,-2.45337438583374
1873,40.20392608642578,-58.30691146850586,160.61561584472656,-96.44828033447266
1874,66.99282836914061,-38.24982833862305,190.0373992919922,-70.55695343017578
1875,101.98332977294922,-0.001869949977844953,229.06700134277344,-40.82474899291992
1876,132.09326171875,17.44476318359375,248.73887634277344,-21.10799598693848
1877,43.34543991088867,-69.56401062011719,154.97584533691406,-109.5042724609375
1878,65.01441955566406,-48.347557067871094,173.18167114257812,-92.44658660888672
1879,116.66617584228516,9.119746208190918,228.95480346679688,-45.21165084838867
1880,140.92691040039062,29.71163558959961,248.933349609375,-26.845001220703125
1881,57.09705352783203,-59.55229568481445,158.18467712402344,-114.69525146484376
1882,78.61643981933594,-40.15717697143555,180.4109039306641,-87.80911254882812
1883,117.54131317138672,7.91549825668335,229.9309234619141,-42.16737365722656
1884,137.19822692871094,22.50484848022461,250.3358154296875,-15.337329864501953
1885,49.935142517089844,-69.76596069335939,158.36419677734375,-93.65831756591795
1886,74.27067565917969,-37.45322799682617,180.081787109375,-68.91139984130861
1887,113.98841094970705,6.49807596206665,231.9018402099609,-19.50357818603516
1888,133.98191833496094,23.67543601989746,251.8579559326172,-6.0773372650146475
1889,50.959877014160156,-56.63143539428711,166.21798706054688,-92.21845245361328
1890,63.92610931396485,-37.42704772949219,186.8248291015625,-75.34402465820312
1891,111.43779754638672,12.388418197631836,235.68663024902344,-31.38898086547852
1892,127.0518798828125,30.00708770751953,251.6597442626953,-20.26651763916016
1893,42.395503997802734,-63.292198181152344,159.50486755371094,-107.41740417480469
1894,71.7686767578125,-40.89767456054688,182.99143981933597,-84.71995544433594
1895,122.69115447998048,6.778568744659424,228.99594116210938,-49.84164810180664
1896,151.36871337890625,32.43802261352539,257.77822875976557,-25.70433235168457
1897,59.25497436523438,-66.68802642822266,160.57821655273438,-118.6595458984375
1898,83.03699493408203,-40.08237838745117,193.9867401123047,-79.38311767578125
1899,125.69055938720705,12.78858757019043,244.7745819091797,-30.798076629638672
1900,147.7073516845703,30.13424301147461,259.85385131835943,-8.826164245605469
1901,59.79726028442383,-64.91531372070311,166.36009216308594,-89.45466613769531
1902,76.91852569580078,-39.98514175415039,186.9220733642578,-63.70919418334961
1903,118.7418212890625,4.609426498413086,229.22781372070312,-17.188579559326172
1904,136.91400146484378,23.92226982116699,248.088134765625,1.974667191505432
1905,44.56464767456055,-60.77150344848633,155.98187255859375,-85.25849914550781
1906,58.62293243408203,-37.74494171142578,178.99722290039062,-73.12252044677734
1907,105.2669677734375,5.858553409576416,228.52471923828125,-31.31792259216309
1908,123.92906188964844,26.521499633789066,244.0041656494141,-19.10340881347656
1909,34.508056640625,-55.16913604736328,156.66253662109375,-110.19241333007812
1910,53.97797775268555,-27.99502182006836,179.412353515625,-89.7314224243164
1911,102.60041809082031,16.715482711791992,226.24337768554688,-44.75912094116211
1912,126.80878448486328,34.23317337036133,246.46875,-24.43276596069336
1913,46.02320861816406,-56.96054458618164,157.78076171875,-110.813232421875
1914,70.84866333007812,-32.76713180541992,189.89529418945312,-83.3698501586914
1915,119.23548889160156,10.985956192016602,235.447265625,-31.63955307006836
1916,147.93548583984375,27.40037727355957,263.28707885742193,-11.526371955871582
1917,65.10417938232422,-63.65122604370117,173.78753662109375,-83.31375122070312
1918,87.89887237548828,-47.04981231689453,191.55206298828125,-65.11165618896484
1919,132.85993957519528,-4.471050262451172,241.03094482421875,-18.568603515625
1920,149.44265747070312,18.21144294738769,258.264404296875,1.9597076177597048
1921,60.12637329101562,-62.88828659057617,167.56808471679688,-82.44235229492188
1922,73.73960876464844,-50.258644104003906,190.97238159179688,-66.97786712646484
1923,114.81867218017578,-3.708110809326172,232.1075439453125,-24.93391227722168
1924,126.07950592041016,13.89559841156006,245.705810546875,-13.845109939575195
1925,45.738975524902344,-65.09482574462889,161.11302185058594,-98.31822967529295
1926,64.25521850585939,-42.08696365356445,180.88961791992188,-81.21192932128906
1927,106.0336456298828,8.334366798400879,229.2502593994141,-39.38862609863281
1928,130.50755310058594,23.28274726867676,252.5086975097656,-21.75499725341797
1929,41.49045181274414,-61.2876091003418,161.71888732910156,-104.62744140625
1930,62.52738571166992,-34.599685668945305,183.1410369873047,-75.79281616210938
1931,106.30665588378906,5.7388763427734375,230.4619903564453,-34.646434783935554
1932,128.78720092773438,18.555513381958008,245.8105316162109,-18.63218116760254
1933,44.45993041992188,-62.62649536132813,158.1173553466797,-97.92179870605469
1934,68.71318054199219,-38.515357971191406,180.45204162597656,-68.70944213867189
1935,115.6713638305664,11.528241157531738,234.3365173339844,-16.276044845581055
1936,125.28665161132812,23.136890411376953,243.91065979003903,-5.766925811767577
1937,49.97628402709961,-62.35722351074219,159.04859924316406,-82.93601989746094
1938,78.9754638671875,-41.64939498901367,187.64013671875,-66.78713226318361
1939,126.55821228027344,0.09910734742879868,236.5393218994141,-22.0317497253418
1940,142.25831604003906,14.6921968460083,256.58892822265625,-14.290157318115234
1941,53.80594253540039,-78.27423858642578,165.9636688232422,-101.10819244384766
1942,82.27405548095703,-47.70429229736328,192.5955047607422,-76.1181869506836
1943,129.56509399414062,-0.5179761648178101,239.0861968994141,-31.84524726867676
1944,137.55352783203122,6.2288031578063965,248.82489013671875,-27.30875015258789
1945,55.89280319213867,-73.1019515991211,161.53936767578125,-110.0054168701172
1946,77.99561309814453,-43.44454956054688,186.8397979736328,-85.80078125
1947,119.19061279296876,3.7829089164733887,228.9286193847656,-36.42288589477539
1948,130.74690246582028,17.24654769897461,237.89317321777344,-21.496944427490234
1949,43.16218566894531,-64.54880523681639,155.66024780273438,-97.85074615478516
1950,65.22759246826172,-43.21267318725586,176.36807250976562,-67.78569030761719
1951,110.17371368408205,6.737429618835449,226.5874481201172,-15.786117553710938
1952,130.79551696777344,25.309772491455078,243.24122619628903,-2.341177463531494
1953,45.76889419555664,-68.78610992431639,154.2390899658203,-84.19636535644531
1954,68.04747772216797,-36.30881881713867,182.01905822753903,-60.032875061035156
1955,120.05452728271484,4.291535377502441,237.54910278320312,-18.42648696899414
1956,134.70745849609378,8.543801307678223,249.2774200439453,-10.453020095825195
1957,50.39141082763672,-73.07577514648438,156.0454559326172,-100.4537124633789
1958,75.22434997558594,-49.65652084350586,184.5808868408203,-78.69497680664062
1959,124.81168365478516,-1.6549056768417358,235.2041778564453,-32.70168685913086
1960,137.41514587402344,12.77362823486328,245.6459808349609,-26.58694839477539
1961,55.0139274597168,-70.61865997314453,152.48507690429688,-111.7706527709961
1962,77.42340850830078,-40.680763244628906,181.6450653076172,-84.95182800292969
1963,120.51827239990234,10.600746154785156,230.64898681640625,-32.68672561645508
1964,137.0523681640625,18.536813735961914,247.1456756591797,-12.150935173034668
1965,52.45209503173828,-59.74677276611328,161.5692901611328,-91.4442901611328
1966,69.98101043701172,-34.322933197021484,184.08721923828125,-68.44017028808594
1967,107.4398422241211,2.956390857696533,223.1130828857422,-20.943439483642575
1968,120.05452728271484,21.51377487182617,242.6166534423828,-0.7965986728668213
1969,39.63172149658203,-70.88793182373047,145.4877166748047,-94.57459259033205
1970,70.09320831298828,-43.24633407592773,177.4676055908203,-64.13180541992189
1971,108.89466857910156,-6.060507774353027,217.9146270751953,-32.447372436523445
1972,133.62663269042972,15.507494926452635,238.82440185546875,-20.30765724182129
1973,54.6137580871582,-73.46846771240234,158.76809692382812,-105.730712890625
1974,79.97028350830078,-40.25067138671875,188.7695770263672,-74.52872467041016
1975,126.76016998291016,-1.157499074935913,236.9507141113281,-31.276782989501953
1976,145.18666076660156,21.857845306396484,255.27996826171875,-12.18459415435791
1977,56.36403274536133,-66.72168731689453,162.68003845214844,-98.00033569335938
1978,82.49097442626953,-43.575443267822266,191.4810028076172,-76.37623596191406
1979,125.45868682861328,3.9100654125213614,239.41905212402344,-34.010650634765625
1980,138.56703186035156,21.91020393371582,254.62921142578125,-16.466779708862305
1981,48.65235900878906,-65.65581512451172,162.43321228027344,-95.71526336669922
1982,70.02962493896484,-38.33958435058594,183.45892333984372,-69.33026885986328
1983,110.83567810058594,6.976783275604247,226.91656494140625,-23.23973846435547
1984,122.29098510742188,25.597745895385746,239.12733459472656,-10.546518325805664
1985,32.772743225097656,-65.16588592529297,147.00611877441406,-91.8444595336914
1986,59.9730339050293,-40.89767456054688,176.1997833251953,-66.18126678466797
1987,98.36310577392578,1.060261607170105,216.05963134765625,-23.96901893615723
1988,122.69863891601562,19.449350357055664,240.02865600585938,-11.68344783782959
1989,43.81666946411133,-59.27180480957031,154.5195770263672,-96.56795501708984
1990,70.9234619140625,-45.39677429199219,183.3878631591797,-73.92660522460938
1991,118.56604766845705,3.5024163722991943,231.4605407714844,-28.722431182861328
1992,131.74171447753906,17.007194519042972,250.6424865722656,-16.694913864135742
1993,51.16183090209961,-73.4460220336914,156.06414794921875,-106.91999816894531
1994,76.07330322265625,-55.1242561340332,185.7626953125,-78.64261627197266
1995,122.60514068603516,-1.703524470329285,238.5364227294922,-30.775636672973636
1996,139.0943603515625,19.07161903381348,254.1392974853516,-12.857775688171387
1997,56.07979965209961,-56.77729034423828,169.02664184570312,-90.21760559082031
1998,73.851806640625,-38.23860549926758,185.06333923339844,-78.29106903076172
1999,116.86065673828124,1.3706732988357544,235.035888671875,-30.379207611083984
2000,136.36796569824222,26.188650131225586,248.1666717529297,-14.753905296325685
2001,43.35292053222656,-62.719993591308594,154.89356994628906,-95.73770141601562
2002,68.12227630615234,-31.899477005004886,180.5866851806641,-64.50205230712889
2003,106.13835906982422,13.035421371459961,224.3061065673828,-24.803016662597656
2004,121.53553009033205,24.988142013549805,238.17739868164062,-9.592843055725098
2005,38.90991973876953,-56.68753433227539,153.5958251953125,-92.1212158203125
2006,61.30443954467773,-39.618629455566406,179.81625366210938,-69.32278442382811
2007,113.75653839111328,7.68736457824707,231.0865478515625,-17.442893981933597
2008,135.78828430175778,19.165117263793945,247.89366149902344,-3.803478240966797
2009,55.365478515625,-70.99639129638672,161.5655517578125,-90.39712524414062
2010,72.14080047607422,-50.08287048339844,186.7949066162109,-70.9234619140625
2011,115.7555160522461,-9.243163108825684,232.4254302978516,-30.28570938110352
2012,143.61029052734375,12.15280532836914,251.76071166992188,-16.63133430480957
2013,57.48039245605469,-71.63591003417969,164.7033233642578,-95.70777893066406
2014,72.4773941040039,-46.62346267700195,188.6536407470703,-76.95592498779297
2015,115.82283020019531,11.300107955932615,236.11297607421875,-23.13128089904785
2016,129.97834777832028,17.426063537597653,248.0656890869141,-18.912673950195312
2017,38.32836532592773,-70.51020050048828,155.3834991455078,-103.83832550048828
2018,65.54735565185547,-37.26997375488281,184.1620178222656,-73.53765106201172
2019,103.49986267089844,6.217583656311035,222.23794555664062,-34.93814468383789
2020,117.2402572631836,24.88342475891113,236.78240966796875,-19.410079956054688
2021,36.039546966552734,-58.81927490234375,150.585205078125,-96.65397644042969
2022,54.24163818359375,-40.68824005126953,171.96246337890625,-73.02528381347656
2023,110.97592163085938,3.599653720855713,224.65017700195312,-26.03718376159668
2024,127.94384765625,13.386971473693848,236.0045166015625,-17.02028465270996
2025,54.11822128295898,-68.18024444580078,158.9214324951172,-96.30242156982422
2026,79.20921325683594,-54.59692764282226,180.54928588867188,-76.35753631591797
2027,127.02757263183594,-5.52196216583252,232.79568481445312,-27.596721649169922
2028,147.30531311035156,12.908265113830565,251.9402313232422,-16.85198974609375
2029,57.40559387207031,-70.4129638671875,164.28445434570312,-99.7468719482422
2030,80.40597534179688,-50.023033142089844,183.33551025390625,-76.9634017944336
2031,129.20419311523438,3.135906219482422,234.66937255859372,-27.35736846923828
2032,137.24497985839844,14.280808448791506,245.95265197753903,-19.49983787536621
2033,51.82566452026367,-66.91242218017578,162.37710571289062,-98.51644134521484
2034,64.11123657226561,-41.22304916381836,185.8337554931641,-72.57276153564453
2035,108.76564025878906,14.209750175476074,235.64923095703125,-25.52107810974121
2036,118.62027740478516,26.1923885345459,252.77423095703125,-10.34082317352295
2037,33.85170364379883,-58.88659286499024,160.43983459472656,-92.25959014892578
2038,66.37761688232422,-38.171287536621094,187.62890625,-67.32942199707031
2039,122.6631088256836,4.822600841522217,239.9912567138672,-19.223085403442386
2040,135.56202697753906,8.846733093261719,251.8691711425781,-14.260238647460938
2041,58.88659286499024,-68.39716339111328,169.04908752441406,-92.3792724609375
2042,89.60613250732422,-46.1110954284668,198.15298461914062,-69.55091857910156
2043,131.5416259765625,-2.8628933429718018,242.59048461914062,-28.4456787109375
2044,139.95266723632812,5.869772911071777,255.9194793701172,-24.75813865661621
2045,59.43262100219727,-75.98542022705078,171.75303649902344,-99.03629302978516
2046,77.97130584716797,-52.90275573730469,191.00978088378903,-79.52149200439453
2047,122.08716583251952,-4.007302761077882,234.9648284912109,-31.014989852905273
2048,135.31892395019528,11.423524856567385,251.0837860107422,-20.719045639038086
2049,46.4514274597168,-67.96333312988281,162.17515563964844,-101.80007934570312
2050,68.90204620361328,-38.601375579833984,192.77500915527344,-73.38431549072266
2051,109.53980255126952,8.098752975463867,239.46392822265625,-32.45859146118164
2052,119.36451721191406,24.30747985839844,254.7040100097656,-18.576082229614254
2053,33.75820541381836,-53.04487228393555,164.60983276367188,-98.76327514648438
2054,51.00662612915039,-27.419076919555664,186.27133178710938,-72.6475601196289
2055,103.84393310546876,13.708602905273438,235.33132934570312,-31.55727577209473
2056,125.21746063232422,23.899829864501953,249.9992218017578,-24.563663482666016
2057,48.3176383972168,-72.4773941040039,160.86618041992188,-104.2272720336914
2058,77.54495239257812,-44.22618865966797,185.4709930419922,-82.7078857421875
2059,121.08113098144531,0.12528665363788605,235.09945678710938,-38.37511444091797
2060,147.5708465576172,10.780261993408203,254.38612365722656,-23.1350212097168
2061,67.50706481933594,-73.2403335571289,168.719970703125,-106.09722137451172
2062,90.0885772705078,-50.34840393066406,188.9528350830078,-85.00044250488281
2063,132.83563232421878,-1.7932820320129397,235.94093322753903,-37.71689224243164
2064,135.52836608886722,6.412058353424072,249.5205078125,-23.37063407897949
2065,53.60211563110352,-63.53155136108398,164.9950408935547,-99.03629302978516
2066,71.62095642089844,-42.517051696777344,188.1637115478516,-78.23497009277344
2067,113.50409698486328,11.737675666809082,239.62474060058597,-35.83946228027344
2068,134.63827514648438,28.189495086669922,253.66058349609372,-21.115474700927734
2069,54.87742233276367,-53.69187545776367,175.8893585205078,-99.68329620361328
2070,71.1572036743164,-40.340431213378906,194.19992065429688,-75.50858306884766
2071,117.69277954101562,11.943370819091795,244.59132385253903,-20.56945037841797
2072,136.81489562988278,24.973182678222656,258.62716674804693,-7.629395961761475
2073,49.55928421020508,-55.2140121459961,169.8718719482422,-88.51969146728516
2074,70.82435607910156,-34.293014526367195,190.46749877929688,-69.56587982177734
2075,112.93563079833984,4.059661388397217,227.80291748046875,-18.082416534423828
2076,131.80715942382812,20.49278259277344,247.1718597412109,-4.25226640701294
2077,46.29435348510742,-65.39402008056639,157.3955535888672,-89.86605834960938
2078,69.75100708007811,-48.54951095581055,182.4117431640625,-68.22325134277344
2079,115.67323303222656,0.8545671105384827,227.81787109375,-22.87322807312012
2080,132.83563232421878,15.316760063171387,248.28634643554688,-9.1814546585083
2081,41.06970977783203,-71.10110473632812,153.78656005859375,-98.78945922851562
2082,74.73628997802734,-41.30532455444336,188.97528076171875,-71.57046508789062
2083,112.21009063720705,2.5936205387115483,232.7059326171875,-30.71205902099609
2084,127.77181243896484,14.90537166595459,247.21673583984372,-14.757645606994627
2085,43.519344329833984,-66.01484680175781,165.34658813476562,-97.50666809082031
2086,63.98033905029297,-44.73107528686523,190.2057037353516,-76.5819320678711
2087,115.0374526977539,6.62897253036499,239.6434326171875,-29.91546058654785
2088,131.19007873535156,15.028787612915039,250.65370178222656,-18.80421638488769
2089,52.15103530883789,-68.18398284912111,168.2188262939453,-101.38494873046876
2090,75.53662872314453,-40.381568908691406,185.0072479248047,-79.99272155761719
2091,120.0152587890625,1.4641708135604858,235.3836975097656,-38.20681762695313
2092,139.73574829101562,14.045194625854492,248.28260803222656,-23.06770324707031
2093,59.42887878417969,-66.55712890625,163.16249084472656,-103.95800018310548
2094,81.14647674560547,-44.09154891967773,180.74749755859372,-79.7197036743164
2095,127.95880889892578,3.0648479461669917,239.2320556640625,-29.829442977905273
2096,138.70353698730472,17.130611419677734,244.00042724609372,-15.412127494812012
2097,54.11448287963867,-63.49789047241211,156.81961059570312,-95.05703735351562
2098,74.77368927001953,-39.70090866088867,185.8599395751953,-63.20056915283203
2099,118.79231262207031,12.732489585876465,236.78990173339844,-16.578975677490234
2100,132.88050842285156,19.269834518432614,251.79437255859372,-2.7338669300079346
2101,46.71321868896485,-58.02267837524414,160.60440063476562,-86.7806396484375
2102,68.50187683105469,-37.88705825805664,185.70660400390625,-68.63090515136719
2103,114.42784881591795,8.89161205291748,236.03070068359372,-23.09014320373535
2104,127.10984802246094,22.73298263549805,250.1637725830078,-12.38654899597168
2105,44.70489501953125,-68.52431488037111,163.90298461914062,-98.84181213378906
2106,76.08265686035156,-35.90116882324219,192.8535461425781,-70.97582244873047
2107,125.80462646484376,11.711496353149414,242.41470336914062,-26.38125419616699
2108,141.9385528564453,23.24908828735352,254.60678100585938,-16.294744491577152
2109,58.81927490234375,-61.86355590820313,166.3040008544922,-99.16344451904295
2110,77.50755310058594,-43.541786193847656,181.9891357421875,-77.21023559570312
2111,118.37718200683594,4.766502380371094,230.90328979492188,-29.47041130065918
2112,134.92250061035156,20.167409896850586,242.9831695556641,-16.242385864257812
