,T7,F8,Cz,P4
6000,77.6253662109375,40.36286926269531,284.3258972167969,-91.54153442382812
6001,106.0897445678711,73.57691955566406,312.13580322265625,-65.64272308349611
6002,19.47365951538086,-15.432697296142578,223.4178771972656,-140.72496032714844
6003,34.055530548095696,5.731396675109862,250.56954956054688,-124.7667999267578
6004,71.38346862792969,48.82252502441406,295.7438049316406,-83.24642944335938
6005,101.6953582763672,86.42721557617188,320.3299255371094,-57.73283386230469
6006,17.753305435180664,-4.2728357315063485,236.4551696777344,-136.91026306152344
6007,26.98337745666504,15.832866668701172,252.56292724609372,-122.4144058227539
6008,59.26619338989258,59.11846923828125,293.952392578125,-80.20963287353516
6009,91.6761703491211,88.88806915283203,326.9757080078125,-48.71967697143555
6010,12.18459415435791,6.25872278213501,241.2572021484375,-131.95489501953122
6011,30.094974517822266,27.06752586364746,270.28631591796875,-110.05777740478516
6012,71.42835235595703,61.22403335571289,306.8849792480469,-76.30892181396484
6013,102.61163330078124,81.17639923095703,334.84820556640625,-52.05566787719727
6014,21.463285446166992,-8.285748481750487,241.5526580810547,-131.7117919921875
6015,38.61446762084961,10.791481018066406,257.30886840820307,-107.01349639892578
6016,73.63114929199219,44.64505386352539,291.8992004394531,-72.44186401367188
6017,96.30990600585938,77.80674743652344,313.5756530761719,-45.21538925170898
6018,19.9299259185791,-8.876652717590332,225.63189697265625,-130.21583557128906
6019,26.44109344482422,9.73682975769043,239.88839721679688,-116.20990753173828
6020,64.10188293457031,47.95486831665039,277.76611328125,-83.09683990478516
6021,94.77654266357422,74.91580963134766,310.6211242675781,-53.589027404785156
6022,17.730865478515625,-6.894505500793457,228.09649658203125,-134.01931762695312
6023,34.95310592651367,12.508095741271973,256.99844360351557,-116.18373107910156
6024,70.83370208740234,51.19736099243164,298.634765625,-77.12796020507812
6025,101.05209350585938,71.6172103881836,322.6598815917969,-45.66791915893555
6026,17.910381317138672,-15.372859001159668,232.98828125,-132.13813781738278
6027,36.26580810546875,4.224216938018799,252.93316650390625,-118.22197723388672
6028,70.3998794555664,40.24319458007813,290.1077880859375,-78.21627044677734
6029,103.95800018310548,70.65979766845703,321.45562744140625,-50.93743896484375
6030,22.762901306152344,-19.604555130004886,224.5043182373047,-132.11570739746094
6031,40.149696350097656,2.1167833805084233,248.4322052001953,-123.92906188964844
6032,74.9270248413086,40.65645217895508,293.453125,-86.09249877929688
6033,105.59420776367188,71.26005554199219,324.25494384765625,-62.80788040161133
6034,20.930349349975586,-8.785024642944336,237.7435760498047,-148.56378173828125
6035,42.17298126220703,15.270011901855467,250.2909393310547,-132.81132507324222
6036,79.60938262939453,55.87410354614258,295.8204650878906,-92.73829650878906
6037,113.18246459960938,82.19178009033203,321.95489501953125,-60.27970886230469
6038,22.57216644287109,-1.8138514757156368,225.17002868652344,-141.01292419433594
6039,36.809967041015625,11.02896499633789,245.23458862304688,-118.45011138916016
6040,73.59935760498047,51.801353454589844,289.1672058105469,-74.79051971435547
6041,103.52230072021484,78.3696060180664,324.5653381347656,-34.534236907958984
6042,20.19733047485352,-5.35927677154541,234.6506805419922,-113.93978881835938
6043,35.20180892944336,14.226579666137695,255.91574096679688,-97.1999969482422
6044,66.64315032958984,49.03008651733398,294.2384948730469,-66.59639739990234
6045,99.4196319580078,74.96629333496094,321.0086975097656,-42.14867401123047
6046,11.569380760192873,-16.657514572143555,231.3857421875,-128.20376586914062
6047,30.11928367614746,4.1699886322021475,254.4945831298828,-111.84170532226562
6048,67.09567260742189,37.918846130371094,293.1988220214844,-78.4481430053711
6049,101.4279556274414,67.43787384033203,324.40826416015625,-57.6131591796875
6050,21.132305145263672,-14.320076942443848,238.4952850341797,-142.07879638671875
6051,33.51885223388672,-1.3501038551330566,248.0245513916016,-128.43937683105472
6052,69.03294372558594,43.640892028808594,287.6974182128906,-100.22183990478516
6053,103.06977081298828,73.58253479003906,316.99578857421875,-70.49711608886719
6054,27.056306838989254,-10.871889114379883,231.35955810546875,-154.9515380859375
6055,40.10107803344727,10.112689018249512,253.2604217529297,-137.88262939453122
6056,79.69913482666016,50.41385269165039,286.90081787109375,-97.49919128417969
6057,102.16845703125,71.41712951660156,312.33587646484375,-63.87001037597656
6058,15.705709457397461,-9.62650203704834,222.28282165527344,-138.84004211425778
6059,33.78064727783203,12.263132095336914,240.15206909179688,-112.76546478271484
6060,65.37532043457031,52.81112670898438,277.42764282226557,-69.30408477783203
6061,90.23817443847656,75.72175598144531,309.639404296875,-31.785409927368164
6062,3.4201385974884038,-2.0307657718658447,219.5975799560547,-117.5749740600586
6063,20.975229263305664,15.326109886169435,233.4389495849609,-102.64529418945312
6064,55.322471618652344,46.47199630737305,271.70187377929693,-79.2970962524414
6065,85.51467895507812,71.11045837402344,309.09710693359375,-57.08957290649414
6066,11.98824977874756,-16.317184448242188,223.9770050048828,-136.23333740234378
6067,33.163562774658196,3.5491650104522705,247.94227600097656,-129.82688903808594
6068,76.35566711425781,41.27727508544922,289.0437927246094,-84.74987030029297
6069,107.77456665039062,65.42581176757811,320.1896667480469,-62.86023712158203
6070,23.44356346130371,-24.141054153442386,232.4441375732422,-148.5450897216797
6071,37.98429489135742,-10.060331344604492,250.77337646484372,-133.97817993164062
6072,74.65775299072266,38.40129089355469,292.185302734375,-95.1093978881836
6073,108.3355484008789,66.32338714599611,314.41900634765625,-69.80897521972656
6074,19.95423698425293,-17.46533203125,229.426025390625,-147.88311767578125
6075,38.87065124511719,2.344917297363281,243.8545684814453,-124.94631958007812
6076,68.62155151367189,46.3223991394043,277.0087890625,-83.20155334472656
6077,89.25083923339844,80.34426879882812,303.9921569824219,-58.74260711669922
6078,3.61461329460144,-13.299084663391113,216.3363800048828,-134.75233459472656
6079,22.968595504760746,3.1789150238037114,234.21310424804688,-111.56869506835938
6080,62.50307846069336,50.07352066040039,275.83444213867193,-73.60123443603516
6081,88.40188598632812,76.2004623413086,307.8741760253906,-54.14627075195313
6082,4.897398948669434,-9.230072975158693,216.78517150878903,-139.36737060546878
6083,22.493627548217773,6.391489028930664,238.2297515869141,-123.8954086303711
6084,61.74013900756836,43.180885314941406,278.3065185546875,-83.55684661865234
6085,96.29681396484376,72.91683197021484,312.4630432128906,-57.75527572631836
6086,13.540307998657227,-14.536991119384766,228.09837341308597,-142.3892059326172
6087,38.95666885375977,4.510319232940674,251.2969665527344,-123.43539428710938
6088,76.75957489013672,35.611328125,282.6335754394531,-98.26960754394531
6089,105.89339447021484,61.38297653198242,316.9209899902344,-67.07510375976561
6090,21.629711151123047,-21.100515365600586,225.7459716796875,-146.66766357421875
6091,34.659523010253906,4.125109672546387,242.68023681640625,-132.02969360351562
6092,70.09133148193361,41.10898208618164,277.607177734375,-85.37443542480469
6093,91.22550964355469,72.53536224365234,302.89263916015625,-62.35161209106445
6094,10.585786819458008,-13.57957649230957,209.49984741210938,-137.83775329589844
6095,21.248241424560547,4.56267786026001,234.4038391113281,-113.36758422851562
6096,50.86450958251953,48.23348999023438,268.43319702148443,-76.67169189453125
6097,77.45893859863281,74.52498626708984,304.01458740234375,-48.820655822753906
6098,0.33472105860710144,-14.477152824401855,217.8398284912109,-130.9600830078125
6099,18.18526268005371,0.1907348930835724,232.38803100585938,-117.68717193603516
6100,65.64085388183594,43.47259521484375,276.60861206054693,-83.67278289794922
6101,91.00859832763672,65.47068786621094,306.78961181640625,-58.63041305541992
6102,14.864232063293455,-18.471364974975586,222.45860290527344,-139.07940673828122
6103,32.37444305419922,3.8820161819458012,240.14083862304688,-124.7443618774414
6104,70.16239166259766,41.355812072753906,281.45553588867193,-90.64769744873048
6105,108.9114990234375,67.32942199707031,315.31658935546875,-59.12407684326172
6106,25.61270523071289,-18.318029403686523,220.13238525390625,-151.95587158203125
6107,48.20170211791992,-5.007726192474365,245.73947143554688,-132.28025817871094
6108,79.23912811279297,38.35641479492188,283.7779846191406,-100.0909423828125
6109,107.5539093017578,69.17693328857422,310.7351989746094,-68.38780975341797
6110,16.685564041137695,-12.58102321624756,225.39068603515625,-146.37594604492188
6111,28.48120880126953,5.41911506652832,237.21624755859372,-127.49693298339844
6112,56.79973220825195,39.05951690673828,272.76025390625,-92.2072296142578
6113,78.99604034423828,71.50688934326172,303.29278564453125,-64.24026489257811
6114,-3.8614466190338135,-12.18459415435791,209.44374084472656,-141.13633728027344
6115,9.026248931884766,0.07105810195207596,227.3503875732422,-117.62733459472656
6116,48.21665954589844,36.531341552734375,266.25283813476557,-86.33184814453125
6117,82.42926788330078,65.64272308349611,299.5379333496094,-54.06025314331055
6118,7.451750755310059,-22.94428634643555,222.4922637939453,-135.83316040039062
6119,30.799945831298828,-3.949334383010864,241.5881805419922,-113.93231201171876
6120,70.712158203125,37.05492782592773,280.00070190429693,-82.58821105957031
6121,98.25652313232422,64.29636383056639,309.7964782714844,-61.89534378051758
6122,14.920331001281738,-25.775390625,225.11392211914062,-142.15733337402344
6123,36.2452392578125,-2.3224778175354004,240.1670227050781,-127.78490447998048
6124,69.27230072021484,31.53109741210937,275.9466552734375,-102.3984603881836
6125,99.62158203125,51.41240310668945,296.927490234375,-77.6852035522461
6126,17.624279022216797,-28.109088897705078,213.5015411376953,-161.70205688476562
6127,34.00503921508789,-8.755105972290039,236.5879364013672,-142.63978576660156
6128,73.63675689697266,39.47090530395508,277.83529663085943,-96.00323486328124
6129,100.69867706298828,69.32278442382811,306.6175537109375,-68.93757629394531
6130,13.947957038879395,-12.453866958618164,216.1718292236328,-144.76779174804688
6131,18.14412498474121,4.11014986038208,234.2168426513672,-125.49608612060548
6132,50.6475944519043,51.47598266601562,272.52090454101557,-82.95471954345703
6133,74.47075653076172,73.94904327392578,292.9183044433594,-53.74610137939453
6134,-4.665524959564209,-14.525771141052244,211.2875213623047,-130.29437255859378
6135,12.444517135620115,2.610450267791748,229.36245727539062,-118.45758819580078
6136,54.01350402832031,27.42468643188477,269.13253784179693,-78.2125244140625
6137,83.8990478515625,63.95228958129883,300.7720947265625,-53.858299255371094
6138,6.673851490020753,-25.24806404113769,214.1747131347656,-139.28883361816406
6139,19.961715698242188,-4.3607234954833975,233.7792816162109,-127.44457244873048
6140,57.19990158081055,39.48212432861328,269.19613647460943,-91.24234008789062
6141,89.17230224609375,61.44281768798828,300.07647705078125,-69.92491149902344
6142,13.472990036010742,-24.309349060058594,209.11090087890625,-160.09390258789062
6143,26.188650131225586,-7.71915340423584,228.56211853027344,-147.2323760986328
6144,59.40644073486328,31.04864883422852,269.18118286132807,-109.57158660888672
6145,85.37630462646484,63.88122940063477,297.9671936035156,-82.27780151367188
6146,4.168118476867677,-20.07204246520996,213.29209899902344,-162.00125122070312
6147,22.91997718811035,4.5028395652771,235.8885803222656,-143.60093688964844
6148,57.0203857421875,38.20307922363281,269.47286987304693,-101.30267333984376
6149,90.49249267578124,76.41363525390625,302.9898681640625,-66.6861572265625
6150,4.063401222229004,-9.547965049743652,211.90460205078125,-144.79769897460938
6151,23.85869216918945,5.161061763763428,233.5810546875,-127.74750518798828
6152,58.89407348632813,40.869625091552734,274.9368896484375,-84.66385650634766
6153,89.23213958740234,72.81959533691406,310.00592041015625,-52.01826858520508
6154,5.929611206054688,-26.9497184753418,213.17990112304688,-137.63580322265622
6155,23.35006523132324,-3.3696498870849614,232.84803771972656,-123.26335906982422
6156,55.30377197265625,36.314430236816406,272.008544921875,-89.60426330566406
6157,85.49972534179688,59.20635604858398,304.040771484375,-59.86083984375
6158,1.9578375816345213,-22.83582878112793,215.3153839111328,-142.4004364013672
6159,19.490488052368164,-0.9574143886566162,227.7243804931641,-134.04550170898438
6160,56.20508575439453,39.41106414794922,262.77096557617193,-94.31279754638672
6161,83.10992431640625,62.489990234375,293.63262939453125,-72.6886978149414
6162,-0.20756444334983826,-26.407434463500977,210.8948211669922,-152.17652893066406
6163,14.344386100769045,-0.8377375602722168,230.3759613037109,-136.51756286621094
6164,47.80153274536133,38.10210037231445,263.37310791015625,-106.30665588378906
6165,79.45978546142578,70.26149749755861,297.89239501953125,-67.97642517089844
6166,-2.0999538898468018,-19.51479721069336,217.25265502929688,-144.49102783203125
6167,13.974136352539062,-1.391242742538452,237.55284118652344,-126.83123016357422
6168,57.09518432617188,34.66513442993164,275.80078125,-86.7208023071289
6169,81.3297348022461,59.58782577514648,303.3489074707031,-59.4980697631836
6170,4.100800514221191,-21.21271324157715,216.11572265625,-144.4386749267578
6171,19.38203239440918,-6.971173286437987,236.63656616210938,-129.20231628417972
6172,61.32126998901367,28.27738380432129,276.02517700195307,-87.40145874023438
6173,101.97398376464844,58.40227890014648,307.86669921875,-56.42387008666992
6174,19.47178840637207,-30.798076629638672,224.95684814453125,-142.0488739013672
6175,28.627063751220703,-3.9343748092651367,243.13650512695312,-124.17215728759766
6176,62.99674606323242,36.0638542175293,273.84481811523443,-98.16863250732422
6177,87.26869201660156,72.830810546875,304.0744323730469,-68.79545593261719
6178,0.626433253288269,-22.252405166625977,213.0751953125,-157.1094512939453
6179,16.281654357910153,-6.5672645568847665,234.76661682128903,-148.02523803710938
6180,58.77065658569336,37.55233383178711,279.87728881835943,-109.36963653564452
6181,88.80579376220703,67.28079986572266,306.093994140625,-83.32122802734375
6182,4.770242214202881,-21.6091423034668,216.373779296875,-160.87179565429688
6183,18.435836791992188,-0.721800684928894,228.0534820556641,-141.2223663330078
6184,53.38146209716797,36.42288589477539,267.4608154296875,-103.67376708984376
6185,90.73932647705078,61.67469024658203,302.7131042480469,-66.4281005859375
6186,0.4244786500930786,-24.0438175201416,205.16156005859372,-144.40875244140625
6187,15.28684139251709,-11.533851623535154,219.95660400390625,-129.06394958496094
6188,50.82337188720703,24.45146560668945,257.99139404296875,-89.98199462890625
6189,79.57198333740234,57.53462219238281,295.68585205078125,-62.46006774902344
6190,-8.40168571472168,-28.68877220153809,204.99700927734372,-148.6273651123047
6191,10.323993682861328,-4.289665222167969,224.2238311767578,-132.19424438476562
6192,49.05813598632813,28.393320083618164,268.9306030273437,-96.84844970703124
6193,87.00316619873047,65.93069458007811,296.6208190917969,-70.78882598876953
6194,4.194297790527344,-25.04985046386719,211.89712524414062,-160.01910400390625
6195,14.179830551147461,-5.011466026306152,228.35641479492188,-147.0266876220703
6196,47.23306655883789,37.05118942260742,272.37130737304693,-103.78596496582031
6197,83.89156341552734,77.07933807373047,311.7187805175781,-72.75975036621094
6198,-3.192004680633545,-13.680554389953613,224.65391540527344,-151.0545654296875
6199,19.269834518432614,1.6268564462661743,238.30455017089844,-134.23997497558594
6200,57.24477767944336,38.17689895629883,274.82467651367193,-95.81623840332031
6201,94.90557098388672,64.39360046386719,308.7418212890625,-67.47527313232422
6202,9.041208267211914,-28.415760040283203,214.07374572753903,-149.6782684326172
6203,27.617290496826172,-17.076383590698242,236.8796539306641,-129.8455810546875
6204,59.862709045410156,18.071197509765625,275.0079345703125,-89.4097900390625
6205,94.17255401611328,52.46705627441406,306.39691162109375,-61.8392448425293
6206,5.836113929748535,-41.0117416381836,208.13104248046875,-151.9035186767578
6207,23.608118057250977,-18.770557403564453,225.49539184570312,-138.35011291503906
6208,52.86909484863281,28.703731536865234,262.4867553710937,-105.1098861694336
6209,81.92063903808594,59.97677612304688,296.1607971191406,-73.1935806274414
6210,-5.978229999542236,-24.57488250732422,205.32237243652344,-156.91871643066406
6211,5.14049243927002,-14.361215591430664,218.17266845703125,-146.52928161621094
6212,41.98972702026367,32.144439697265625,259.9286499023437,-112.92627716064452
6213,74.82231140136719,68.58228302001953,296.0523376464844,-79.2559585571289
6214,-5.1629319190979,-18.609743118286133,206.33963012695312,-157.5657196044922
6215,3.932504892349243,-5.209680557250977,222.28656005859372,-149.74185180664062
6216,39.181060791015625,40.99678421020508,261.56674194335943,-108.98816680908205
6217,81.47184753417969,54.6137580871582,292.14788818359375,-80.70330047607422
6218,7.848180294036865,-31.063608169555664,206.35833740234372,-159.817138671875
6219,17.519561767578125,-8.36241626739502,226.12744140625,-141.0465850830078
6220,52.25949096679688,29.06650161743164,265.73672485351557,-96.47445678710938
6221,86.98072052001953,54.34448623657226,296.3328552246094,-63.69049453735352
6222,9.0112886428833,-30.016437530517575,212.62266540527344,-140.58657836914062
6223,18.776166915893555,-11.107502937316896,228.87252807617188,-127.89710235595705
6224,59.17456817626953,21.874675750732425,262.25112915039057,-87.84651184082031
6225,86.95454406738281,53.70496368408203,300.28216552734375,-61.0576057434082
6226,5.9857096672058105,-32.47729110717773,213.00787353515625,-145.10438537597656
6227,19.228694915771484,-13.998445510864258,229.24278259277344,-134.18386840820312
6228,45.04148483276367,31.332881927490234,265.8115234375,-101.82625579833984
6229,79.07083129882812,55.92272567749024,292.27130126953125,-77.42340850830078
6230,0.2187841534614563,-29.844402313232425,208.1534881591797,-158.6839599609375
6231,13.691773414611815,-8.547541618347168,228.9622802734375,-148.77322387695312
6232,45.99702835083008,32.12387084960937,266.75396728515625,-113.31148529052734
6233,78.86701202392578,67.01339721679689,304.1716613769531,-82.58447265625
6234,-5.879122734069824,-18.14786529541016,219.2161102294922,-164.04322814941406
6235,7.965986728668213,-4.441131114959717,233.4127655029297,-147.29595947265625
6236,50.66442489624024,34.59594345092773,269.79824829101557,-107.59318542480469
6237,83.57928466796875,64.76945495605469,302.8215637207031,-68.70570373535156
6238,5.99131965637207,-22.91623687744141,213.72967529296875,-144.96600341796875
6239,23.808202743530273,-20.331966400146484,229.1006622314453,-132.80384826660156
6240,55.64971160888672,23.12941169738769,262.20999145507807,-92.25585174560548
6241,84.71247100830078,48.56821060180664,293.008056640625,-63.03975296020508
6242,1.7278337478637695,-38.23860549926758,205.70758056640625,-141.2036590576172
6243,19.095930099487305,-19.576505661010746,231.0865478515625,-120.69031524658205
6244,51.83127212524414,22.706802368164066,270.77810668945307,-94.20433807373048
6245,82.74154663085938,56.78477096557617,303.4573669433594,-63.41000366210938
6246,-1.7278337478637695,-20.219768524169922,222.71665954589844,-145.93463134765625
6247,14.450973510742188,-8.424124717712402,235.0134429931641,-134.71119689941406
6248,49.92018508911133,29.13943099975586,275.6773681640625,-99.74313354492188
6249,80.0562973022461,58.5986213684082,299.3621520996094,-70.34751892089844
6250,-2.606710195541382,-26.349464416503906,216.7103729248047,-153.2536163330078
6251,14.798784255981445,-15.492535591125488,229.1343231201172,-141.8618927001953
6252,49.31806182861328,26.44670295715332,265.16824340820307,-101.92349243164062
6253,86.8404769897461,57.652427673339844,294.3170471191406,-75.88630676269531
6254,6.57474422454834,-33.63853073120117,208.0711975097656,-159.312255859375
6255,26.47101211547852,-9.86772632598877,225.8170318603516,-142.47897338867188
6256,62.71064376831055,20.354406356811523,262.56527709960943,-107.13317108154295
6257,99.19336700439452,55.67401885986328,301.9576416015625,-75.33280181884766
6258,13.73291301727295,-32.25476837158203,215.13214111328125,-154.5139617919922
6259,24.0438175201416,-10.335213661193848,232.7470703125,-132.65798950195312
6260,62.04867935180664,31.734920501708984,270.9725952148437,-92.65975952148438
6261,93.55359649658205,60.53963088989258,306.082763671875,-63.89619064331055
6262,9.308610916137695,-26.01661491394043,222.94479370117188,-142.05636596679688
6263,19.462438583374023,-5.050734996795653,238.5364227294922,-127.97189331054688
6264,50.06230163574219,32.209888458251946,277.19952392578125,-90.47566223144531
6265,86.33184814453125,63.45675277709961,308.0088195800781,-62.77048110961914
6266,-2.3785762786865234,-18.226402282714844,220.80555725097656,-147.59515380859375
6267,8.841123580932617,-0.17390534281730652,235.2041778564453,-131.40512084960938
6268,37.91510391235352,39.06138610839844,272.6480712890625,-100.39013671875
6269,75.97980499267578,71.4563980102539,305.2973937988281,-63.77277374267578
6270,-3.0816776752471924,-24.225202560424805,209.06602478027344,-152.28125
6271,17.513952255249027,-8.151111602783201,228.77903747558597,-135.85934448242188
6272,51.46102523803711,22.61704444885254,256.0989990234375,-103.0566864013672
6273,89.83987426757812,61.51200485229492,291.9609069824219,-65.60158538818361
6274,10.72229290008545,-24.37853813171387,203.38136291503903,-153.35086059570312
6275,27.043216705322266,2.0849943161010738,227.74681091308597,-135.75462341308594
6276,61.106224060058594,26.091411590576172,268.50051879882807,-102.46952056884766
6277,98.28083038330078,57.79080581665039,305.17022705078125,-72.61389923095703
6278,14.140562057495115,-20.687255859375,215.89134216308597,-152.2401123046875
6279,30.259531021118164,-9.400238990783693,234.3028564453125,-135.74714660644528
6280,62.81536102294922,29.88741111755371,272.1319580078125,-104.02906036376952
6281,98.04521942138672,68.37097930908203,310.1368103027344,-71.18899536132812
6282,11.98263931274414,-23.41738319396973,221.64703369140625,-152.21766662597656
6283,28.210065841674805,-4.605686664581299,230.6040954589844,-134.39704895019528
6284,51.84623336791992,34.857738494873054,263.47409057617193,-94.60450744628906
6285,85.59134674072266,72.42877197265625,300.05029296875,-54.82319259643555
6286,2.6889879703521733,-18.27876091003418,215.6332855224609,-138.15190124511722
6287,20.30765724182129,-5.656598567962647,236.1578521728516,-124.55736541748048
6288,54.16497039794922,36.5556526184082,271.4512939453125,-90.78607177734376
6289,89.14799499511719,70.02775573730469,309.1382751464844,-62.403968811035156
6290,8.070704460144043,-25.792219161987305,216.1867828369141,-149.46510314941406
6291,22.52541732788086,0.3908195495605469,238.15870666503903,-133.94825744628906
6292,59.48310852050781,32.53900146484375,274.63021850585943,-93.007568359375
6293,94.36141204833984,65.12474822998047,312.8631896972656,-62.11225891113281
6294,12.236952781677244,-23.4809627532959,224.6988067626953,-150.25048828125
6295,31.05986976623535,-4.527148723602295,237.1601409912109,-140.31356811523438
6296,61.368019104003906,39.2334213256836,273.84109497070307,-99.50751495361328
6297,92.2820281982422,75.71988677978516,302.0287170410156,-68.47008514404297
6298,6.073597431182861,-21.850364685058594,217.45086669921875,-152.9469451904297
6299,24.40658760070801,7.646225452423097,235.3051605224609,-137.18327331542972
6300,58.40975570678711,40.06367874145508,276.16729736328125,-100.96234130859376
6301,90.86087036132812,71.95380401611328,310.4734191894531,-66.75347137451172
6302,7.846310138702393,-10.338953018188477,225.04661560058597,-142.96141052246094
6303,17.300777435302734,3.906325578689575,239.0562744140625,-123.5775146484375
6304,55.387916564941406,44.23740768432617,271.84396362304693,-82.83504486083984
6305,84.71995544433594,73.28894805908203,304.48956298828125,-57.11201095581055
6306,7.26662540435791,-18.865924835205078,214.58984375,-141.5514678955078
6307,24.01015853881836,-4.2092576026916495,232.3543701171875,-125.33900451660156
6308,55.25702285766602,28.825279235839844,268.88198852539057,-97.33837890625
6309,91.4442901611328,60.8350830078125,302.8589782714844,-67.62860870361328
6310,11.043924331665039,-23.33510589599609,215.704345703125,-153.7958984375
6311,19.772851943969727,-2.0288956165313716,229.8149871826172,-141.36822509765625
6312,58.757568359375,32.209888458251946,274.99298095703125,-106.20568084716795
6313,93.47879791259766,71.72193145751953,305.98553466796875,-77.10177612304688
6314,8.631689071655272,-8.431604385375978,218.65512084960938,-159.05419921875
6315,18.87153434753418,10.241716384887695,233.7194366455078,-140.60528564453122
6316,49.86782455444336,42.479652404785156,266.9671630859375,-102.20398712158205
6317,86.07379913330078,75.83956146240234,304.96826171875,-67.81560516357422
6318,5.826764106750487,-9.744309425354004,216.44110107421875,-145.0707244873047
6319,21.829795837402344,3.098507165908813,240.73922729492188,-119.57208251953124
6320,58.71268844604492,29.76025390625,274.44696044921875,-82.83504486083984
6321,92.97765350341795,65.65581512451172,306.7709045410156,-44.25423431396485
6322,12.981192588806152,-18.940723419189453,217.1741180419922,-127.76620483398438
6323,23.389333724975586,-7.160038471221924,230.55548095703125,-118.07986450195312
6324,60.50410079956055,33.25331878662109,271.29421997070307,-85.44549560546875
6325,98.23969268798828,63.74846649169922,307.597412109375,-60.02913284301758
6326,9.820977210998537,-29.39374351501465,215.7379913330078,-148.74703979492188
6327,25.543516159057614,-5.73513650894165,229.81124877929688,-136.00520324707028
6328,53.85456085205078,29.06089210510254,266.33135986328125,-98.101318359375
6329,88.85628509521484,65.289306640625,302.7505187988281,-69.23677062988281
6330,10.007972717285156,-18.106725692749023,223.1056060791016,-151.40985107421875
6331,24.46268653869629,-2.05507493019104,234.1009063720703,-137.445068359375
6332,57.38128662109375,39.31195831298828,276.60113525390625,-101.32884979248048
6333,101.25031280517578,79.01847839355469,312.3134460449219,-63.05845260620117
6334,14.881061553955078,-11.872312545776367,226.19476318359372,-145.56439208984375
6335,19.7429313659668,10.709203720092773,241.0084991455078,-130.09616088867188
6336,55.3766975402832,43.3398323059082,274.94061279296875,-88.53465270996094
6337,92.35682678222656,78.85018157958984,311.2961730957031,-45.41360473632813
6338,9.791058540344238,-11.853612899780273,220.51759338378903,-127.94571685791016
6339,24.185932159423828,1.5576683282852173,240.17823791503903,-109.43321228027344
6340,57.79641342163086,39.77196502685547,275.05654907226557,-71.31989288330078
6341,93.83035278320312,67.87357330322266,310.39111328125,-39.69903945922852
6342,17.15492057800293,-17.695337295532227,225.81329345703125,-125.0435562133789
6343,31.29922294616699,-2.1523125171661377,241.5994110107422,-114.1604461669922
6344,60.79207229614258,30.799945831298828,275.5015869140625,-87.99610900878906
6345,104.4853286743164,66.97225952148439,315.14453125,-63.53342056274414
6346,13.755352020263672,-21.180923461914066,223.5768280029297,-147.96165466308594
6347,26.508411407470703,1.194898009300232,238.12130737304688,-140.29112243652344
6348,53.95553588867188,33.17478179931641,267.243896484375,-111.3929214477539
6349,89.23027038574219,62.04681015014648,306.4978942871094,-78.74732971191406
6350,10.093990325927734,-22.02614021301269,221.19825744628903,-163.46728515625
6351,26.384994506835934,0.5142362713813782,237.8894195556641,-141.34951782226562
6352,64.17668151855469,38.4218635559082,275.87185668945307,-106.12339782714844
6353,99.11109161376952,74.57921600341797,318.6076965332031,-69.53595733642578
6354,13.31778335571289,-21.495075225830078,226.2919921875,-146.44700622558594
6355,29.49285125732422,-4.661785125732422,238.9702606201172,-126.88358306884766
6356,62.39274978637695,39.71212768554688,276.8629150390625,-87.21820831298828
6357,97.97415924072266,72.89251708984375,315.25299072265625,-47.92681884765625
6358,15.180253982543945,-22.62826538085937,227.6944580078125,-135.743408203125
6359,29.975297927856445,0.1589457541704178,244.4492034912109,-125.89999389648438
6360,64.19538116455078,38.582679748535156,283.018798828125,-94.7541046142578
6361,96.5978775024414,67.23030853271484,311.2251281738281,-60.7060546875
6362,15.69636058807373,-25.766040802001953,220.33807373046875,-149.49502563476562
6363,30.84295463562012,-5.23399019241333,243.25991821289062,-129.45663452148438
6364,67.19852447509766,32.759654998779304,277.07235717773443,-96.96438598632812
6365,102.35358428955078,70.17735290527344,313.4054870605469,-66.98160552978516
6366,16.104009628295902,-26.67109680175781,223.1654357910156,-153.99038696289062
6367,25.78287124633789,0.2150442451238632,235.7950897216797,-131.2891845703125
6368,56.80533981323242,37.15403747558594,271.85519409179693,-97.09154510498048
6369,92.5213851928711,74.23140716552734,304.53070068359375,-61.29322052001953
6370,11.223440170288086,-20.032773971557614,216.82257080078125,-138.59321594238278
6371,19.88130760192871,0.06544824689626694,233.04624938964844,-124.30305480957031
6372,61.89160537719727,32.011672973632805,283.0599365234375,-87.18828582763672
6373,99.47386169433594,71.85282897949219,319.7969665527344,-50.4774284362793
6374,19.178207397460934,-16.11709976196289,234.6805877685547,-134.38581848144528
6375,27.106794357299805,-1.8194613456726076,246.91754150390625,-120.67909240722656
6376,64.17668151855469,37.041839599609375,289.0362854003906,-89.33125305175781
6377,96.09673309326172,67.40608978271484,326.4988708496094,-60.08523178100586
6378,19.009910583496094,-9.882685661315918,238.94781494140625,-141.5103302001953
6379,31.063608169555664,2.0176761150360107,247.3364105224609,-131.25552368164062
6380,60.17873001098633,37.370948791503906,278.14572143554693,-104.15247344970705
6381,96.38844299316406,73.75270080566406,315.8139953613281,-70.77760314941406
6382,12.274352073669435,-14.781954765319824,222.7316131591797,-154.16241455078125
6383,23.871782302856445,0.07666794955730437,246.84274291992188,-142.38546752929688
6384,59.161476135253906,36.66410827636719,275.75216674804693,-105.32305908203124
6385,99.16344451904295,72.77658081054688,316.1767578125,-64.15798187255861
6386,18.61722183227539,-15.96750259399414,223.3711395263672,-146.06927490234375
6387,28.28486251831055,3.8876259326934814,241.3974456787109,-129.07890319824222
6388,55.61979293823242,31.31979179382324,267.4495849609375,-94.4923095703125
6389,100.68932342529295,68.21764373779297,301.1460876464844,-53.4057731628418
6390,16.874427795410153,-19.322193145751953,211.4969482421875,-136.95513916015622
6391,31.45255851745605,-4.736583232879639,231.0005340576172,-124.62468719482422
6392,62.75178146362305,32.273468017578125,274.65264892578125,-85.83444213867188
6393,97.22618103027344,72.578369140625,311.4831848144531,-53.02056121826172
6394,21.38848876953125,-16.330272674560547,234.80026245117188,-138.03596496582028
6395,27.97445106506348,4.414951801300049,247.4037322998047,-117.93400573730469
6396,62.06737899780274,35.71791458129883,280.12411499023443,-90.38590240478516
6397,98.60246276855469,76.651123046875,320.18218994140625,-62.98739624023438
6398,15.172774314880373,-7.504109382629394,239.07498168945312,-144.0123291015625
6399,31.620853424072266,3.996083021163941,257.82308959960943,-132.99458312988278
6400,61.95892333984375,45.026527404785156,293.0791320800781,-98.06017303466795
6401,103.07164001464844,74.49319458007812,329.1280212402344,-69.10961151123047
6402,19.89626693725586,-8.996329307556152,244.6436920166016,-146.74993896484375
6403,38.15071868896485,9.130966186523438,260.6654052734375,-129.63241577148438
6404,70.45597839355469,44.9779052734375,294.09637451171875,-90.02687072753906
6405,109.122802734375,79.59068298339844,325.75836181640625,-50.62702560424805
6406,26.916059494018555,-14.14617156982422,232.5937347412109,-128.40946960449222
6407,34.377159118652344,4.7029242515563965,242.06689453125,-113.64807891845705
6408,68.23821258544922,38.1226692199707,277.89138793945307,-76.94096374511719
6409,101.77015686035156,67.42478942871094,314.2656555175781,-41.3034553527832
6410,8.736406326293945,-14.52390193939209,224.58660888671875,-121.92447662353516
6411,20.82002258300781,3.046148538589477,237.88568115234372,-115.02062225341795
6412,51.1693115234375,34.48000717163086,274.95556640625,-81.7990951538086
6413,88.52342987060547,63.74098587036133,314.93511962890625,-49.6434326171875
6414,5.961400508880615,-22.00370216369629,231.58395385742188,-139.48704528808594
6415,21.822317123413086,-4.130719661712647,249.4270172119141,-128.20750427246094
6416,59.46440887451172,42.35249710083008,287.3832702636719,-94.33523559570312
6417,94.4923095703125,79.3438491821289,322.7402648925781,-58.63788986206055
6418,20.146841049194336,-10.978476524353027,233.94757080078125,-142.31814575195312
6419,33.21779251098633,1.8680800199508667,248.263916015625,-126.13560485839844
6420,70.42605590820312,30.69522857666016,283.62091064453125,-87.62959289550781
6421,109.62020874023438,73.76017761230469,315.05853271484375,-52.92706298828125
6422,28.51673698425293,-12.960623741149902,226.91282653808597,-133.51817321777344
6423,37.5186767578125,-0.7909888625144958,243.93310546875,-122.99408721923828
6424,71.68266296386719,36.63045120239258,284.0622253417969,-81.56721496582031
6425,109.71744537353516,72.1370620727539,317.2351379394531,-45.94467163085938
6426,23.68852615356445,-15.3466796875,227.1895751953125,-131.52853393554688
6427,37.21574401855469,3.270542621612549,246.7305450439453,-118.58848571777344
6428,71.02069854736328,41.95232772827149,282.2109680175781,-79.9777603149414
6429,108.29254150390624,70.371826171875,319.65484619140625,-49.78928756713867
6430,22.222484588623047,-15.78798770904541,233.90269470214844,-130.42152404785156
6431,30.278230667114254,-1.6474258899688718,251.50265502929688,-120.8473892211914
6432,57.88243103027344,46.25882339477539,290.8594970703125,-83.05195617675781
6433,88.23919677734375,87.87268829345703,320.31494140625,-47.08160018920898
6434,3.28737211227417,-1.7016544342041016,231.5446929931641,-133.3311767578125
6435,19.462438583374023,12.379069328308105,245.2663726806641,-117.04016876220705
6436,54.21358871459961,44.66936492919922,276.05322265625,-86.74324035644531
6437,91.33209991455078,76.89608001708984,310.1087646484375,-57.03721237182617
6438,14.387394905090332,-11.642308235168455,220.43344116210938,-140.65016174316406
6439,34.61277389526367,-0.5946440696716309,235.80442810058597,-124.83786010742188
6440,72.83829498291016,37.35786056518555,269.96841430664057,-96.38470458984376
6441,108.73384857177734,74.07994079589844,304.1997375488281,-66.73103332519531
6442,19.597076416015625,-10.254805564880373,214.95823669433597,-146.62277221679688
6443,29.47041130065918,4.199907779693604,227.0717620849609,-133.80613708496094
6444,64.23278045654297,44.41131210327149,275.7914428710937,-92.51390838623048
6445,98.69222259521484,89.68653869628906,316.9864501953125,-53.630165100097656
6446,8.261439323425293,-0.8152981996536255,226.09939575195312,-137.31790161132812
6447,26.867441177368164,4.663655281066895,248.1573181152344,-125.00615692138672
6448,56.90631866455078,43.738128662109375,280.49996948242193,-90.92444610595705
6449,89.73889923095703,81.41014099121094,312.109619140625,-52.96820449829102
6450,7.883708953857423,-11.021485328674316,221.86209106445312,-139.03077697753906
6451,24.65342140197754,7.0272722244262695,235.4902801513672,-126.1281280517578
6452,54.9615707397461,45.70531845092773,270.97817993164057,-88.35139465332031
6453,94.08092498779295,73.59748840332031,308.7960510253906,-53.1065788269043
6454,17.409235000610348,-1.398722529411316,223.2383728027344,-135.89300537109378
6455,28.77853012084961,11.735806465148926,238.57196044921875,-121.74870300292969
6456,65.79232025146484,40.28246307373047,270.372314453125,-90.6140365600586
6457,110.6898193359375,80.60980224609375,311.9824523925781,-55.10368728637695
6458,18.16469383239746,-19.25300407409668,221.02435302734372,-144.9024200439453
6459,38.24421691894531,2.7114274501800537,241.67233276367188,-132.88238525390622
6460,66.02045440673828,37.90762710571289,273.16976928710943,-92.63732147216795
6461,99.13352966308594,75.07475280761719,312.1432800292969,-57.14567184448242
6462,10.703593254089355,-7.004832744598389,222.12762451171875,-133.61540222167972
6463,26.508411407470703,7.71915340423584,236.26817321777344,-128.29727172851562
6464,56.00126266479492,39.61302185058594,274.31045532226557,-92.79065704345705
6465,98.83807373046876,73.80692291259766,315.8532409667969,-55.44401550292969
6466,13.59079647064209,-5.2358598709106445,228.328369140625,-142.45652770996094
6467,26.104501724243164,12.057437896728516,248.5612335205078,-126.928466796875
6468,60.6948356628418,44.48236846923828,286.02008056640625,-94.26043701171876
6469,102.36853790283205,82.49097442626953,323.8341979980469,-54.774574279785156
6470,18.51998519897461,-7.505979061126709,236.3766326904297,-138.72410583496094
6471,37.8702278137207,-0.4188687801361084,249.11099243164062,-122.4555435180664
6472,64.02708435058594,29.11138153076172,276.55813598632807,-97.1251983642578
6473,105.65591430664062,66.83949279785156,316.4366760253906,-53.31227493286133
6474,17.30451774597168,-15.909534454345705,226.06573486328125,-140.56039428710938
6475,33.438446044921875,1.5819777250289917,243.2842254638672,-128.08782958984378
6476,62.29177474975586,43.04250717163086,276.7451171875,-93.17212677001952
6477,103.93556213378906,79.94036102294922,307.5431823730469,-64.87604522705078
6478,20.62928771972656,-10.44554042816162,221.2637023925781,-147.09400939941406
6479,21.93077278137207,5.759446144104004,230.46759033203125,-137.16082763671878
6480,59.03805923461914,45.55572128295898,271.87576293945307,-96.28372192382812
6481,97.41691589355469,85.70729064941406,305.9873962402344,-63.7765121459961
6482,15.46074676513672,0.721800684928894,224.091064453125,-144.10581970214844
6483,28.32600212097168,7.65931510925293,243.7554626464844,-126.77513122558594
6484,67.66974639892578,43.521217346191406,281.10211181640625,-91.28347778320312
6485,108.53937530517578,78.593994140625,322.1923828125,-54.09017181396485
6486,26.75898361206055,-9.297390937805176,228.1488494873047,-139.80119323730472
6487,35.22237777709961,6.421408176422119,247.0316162109375,-127.8185577392578
6488,71.5031509399414,45.26774978637695,282.0669860839844,-90.22882843017578
6489,110.06151580810548,74.83165740966797,323.0675048828125,-53.0243034362793
6490,27.0955753326416,-6.615882873535156,230.3516540527344,-132.93099975585938
6491,32.978439331054695,5.090003967285156,241.7770538330078,-124.66956329345705
6492,66.04289245605469,43.71569061279297,273.88409423828125,-91.52657318115234
6493,110.65989685058594,81.02867126464844,308.35101318359375,-56.56598663330078
6494,20.520830154418945,-13.022331237792967,221.5067901611328,-141.69358825683594
6495,28.677553176879886,7.913628101348878,233.05560302734372,-129.91290283203122
6496,66.41688537597656,45.30514907836914,270.3685913085937,-94.8326416015625
6497,105.47639465332031,86.01396179199219,315.6213684082031,-59.76359939575195
6498,15.969372749328613,-4.749672889709473,228.0927581787109,-143.27557373046875
6499,29.13008117675781,10.662454605102539,245.8498077392578,-123.74581146240234
6500,57.2429084777832,47.44811248779297,279.71084594726557,-86.5824203491211
6501,96.88958740234376,89.18165588378906,319.6230773925781,-47.99787521362305
6502,19.51479721069336,3.9044556617736816,236.73193359375,-128.39823913574222
6503,30.31936836242676,12.057437896728516,250.48727416992188,-120.08818817138672
6504,65.17897796630861,37.817867279052734,282.83740234375,-92.73455810546876
6505,109.81842041015624,80.43029022216797,320.419677734375,-51.610618591308594
6506,20.180500030517575,-4.3046250343322745,231.44371032714844,-139.03077697753906
6507,32.5595703125,7.169388294219972,247.0353546142578,-121.14283752441406
6508,62.00380325317383,48.72341537475586,276.90966796875,-88.85628509521484
6509,101.74771881103516,83.31375122070312,322.71221923828125,-51.04589462280274
6510,23.385595321655273,-10.808310508728027,228.4817047119141,-141.48416137695312
6511,39.60554122924805,6.021238803863525,242.09494018554688,-127.1304168701172
6512,65.94191741943361,43.20706558227539,278.65621948242193,-93.16838836669922
6513,111.44153594970705,76.60063171386719,321.65008544921875,-54.9840087890625
6514,26.68044662475586,-12.165894508361815,235.3144989013672,-142.8641815185547
6515,36.91281127929688,5.9389610290527335,249.4887237548828,-134.43070983886722
6516,72.19876861572266,44.684326171875,284.4979248046875,-96.48567962646484
6517,107.96343231201172,84.12156677246094,326.1379699707031,-51.42736434936523
6518,22.47679901123047,-6.544825077056885,232.1916961669922,-136.26325988769528
6519,33.7862548828125,16.526617050170902,249.55978393554688,-121.50560760498048
6520,66.39444732666016,40.87710571289063,278.27099609375,-94.19686126708984
6521,110.86185455322266,86.13363647460938,320.584228515625,-54.07521438598633
6522,29.54146957397461,-14.480892181396484,234.5889587402344,-136.70829772949222
6523,40.70881271362305,8.886002540588379,251.24647521972656,-121.12039947509766
6524,69.18441009521484,37.73559188842773,288.0209045410156,-86.27574920654297
6525,108.99938201904295,85.93167877197266,327.21881103515625,-48.98894882202149
6526,29.115121841430664,-7.434921264648437,233.3061828613281,-133.14044189453122
6527,37.09232711791992,4.1438093185424805,250.45361328125,-120.75762939453124
6528,66.07655334472656,42.791934967041016,281.14697265625,-88.39627838134766
6529,101.47844696044922,87.97366333007812,322.45416259765625,-51.69663619995117
6530,15.703840255737305,-3.4668872356414795,231.0435333251953,-130.5262451171875
6531,27.03947639465332,14.454712867736815,246.3584289550781,-117.92278289794922
6532,56.0984992980957,51.94721221923828,280.27557373046875,-85.9765625
6533,95.40110778808594,83.58676147460938,318.34027099609375,-53.72366333007813
6534,20.95092010498047,-6.8253173828125,230.8527984619141,-136.42033386230472
6535,33.442184448242195,-2.142962694168091,241.4180145263672,-130.90023803710938
6536,63.544639587402344,51.09077453613281,279.4154052734375,-98.75953674316406
6537,110.89177703857422,85.06776428222656,319.74273681640625,-61.44281768798828
6538,30.70831871032715,-1.8849096298217771,235.42669677734372,-141.42431640625
6539,40.114166259765625,12.524925231933596,242.28941345214844,-133.28630065917972
6540,75.74419403076172,46.614112854003906,282.96832275390625,-99.93386840820312
6541,111.67715454101562,84.53669738769531,328.0041809082031,-57.022254943847656
6542,28.28860282897949,-0.8826164007186891,233.14910888671875,-139.13923645019528
6543,32.57452774047852,6.858976364135742,244.279052734375,-131.30415344238278
6544,68.2943115234375,40.39466094970703,282.9720458984375,-90.5354995727539
6545,103.9692153930664,87.95122528076172,322.89923095703125,-58.57057189941406
6546,25.880107879638672,-1.682955026626587,235.1312561035156,-141.5028533935547
6547,31.340362548828125,18.51998519897461,249.38026428222656,-125.61202239990234
6548,59.883277893066406,45.05457305908203,279.40792846679693,-94.25296020507812
6549,104.11881256103516,83.75505828857422,318.9124755859375,-50.79532241821289
6550,21.235151290893555,-5.202200889587402,233.1752777099609,-134.52420043945312
6551,35.49164962768555,2.7338669300079346,249.19700622558597,-114.63915252685548
6552,77.57300567626953,44.3140754699707,291.5476379394531,-83.46334838867188
6553,116.26226806640624,81.28672790527344,333.14654541015625,-51.46850204467773
6554,29.99399757385254,-13.818930625915527,241.5451812744141,-132.91604614257812
6555,39.60554122924805,2.038245439529419,252.9556121826172,-124.09735870361328
6556,68.43643188476561,47.15266036987305,284.8457336425781,-86.55250549316406
6557,108.55059814453124,82.74154663085938,324.1446228027344,-52.02574920654297
6558,23.40803337097168,-1.2715660333633425,236.32054138183597,-136.67839050292972
6559,33.741378784179695,7.846310138702393,246.1864013671875,-127.6540069580078
6560,63.49228286743164,53.8695182800293,279.385498046875,-97.4580535888672
6561,106.32161712646484,83.4521255493164,323.05255126953125,-61.14362335205078
6562,24.39910697937012,-0.21317429840564728,236.9974670410156,-139.80494689941406
6563,32.140701293945305,6.930034637451173,245.6366271972656,-132.40367126464844
6564,61.62607192993164,48.25967025756836,280.57852172851557,-91.85194396972656
6565,104.55264282226562,85.4006118774414,326.6690368652344,-56.36029052734375
6566,24.00267791748047,-8.388595581054688,237.77536010742188,-136.39788818359378
6567,34.736190795898445,10.7073335647583,250.7640380859375,-120.9446258544922
6568,74.18465423583984,45.08075332641602,289.6777038574219,-81.2418441772461
6569,113.97344970703124,85.1537857055664,322.9852294921875,-47.21249771118164
6570,30.63352012634277,-4.7197537422180185,234.0242462158203,-130.34298706054688
6571,37.197044372558594,7.636875629425049,250.7490692138672,-120.03956604003906
6572,73.08138275146484,46.91330337524414,284.2398681640625,-86.12989807128906
6573,108.3000259399414,83.1491928100586,317.6521301269531,-48.30454635620117
6574,20.3001766204834,-5.710827350616455,233.3510589599609,-132.46351623535156
6575,34.13406753540039,12.854036331176758,242.71951293945312,-128.15888977050778
6576,58.970741271972656,46.59541320800781,281.251708984375,-92.5438232421875
6577,92.91033172607422,95.98827362060548,321.71368408203125,-54.00041580200195
6578,12.521184921264648,3.784778833389282,230.94630432128903,-140.42576599121094
6579,20.775144577026367,17.67850685119629,242.29315185546875,-127.0294418334961
6580,57.70665740966797,53.87699890136719,278.7235107421875,-92.76821899414062
6581,99.92638397216795,83.89717864990234,321.53790283203125,-51.573219299316406
6582,26.82630157470703,-6.110996723175049,240.0753936767578,-133.88841247558594
6583,41.04166030883789,6.189534664154053,253.61756896972656,-125.95235443115234
6584,78.01057434082031,39.534481048583984,291.921630859375,-88.54961395263672
6585,123.12498474121094,82.6031723022461,331.7066955566406,-54.2098503112793
6586,41.38573455810547,0.9985532760620116,244.6866912841797,-137.88636779785156
6587,46.80858612060547,9.331049919128418,253.65122985839844,-127.76620483398438
6588,77.3673095703125,39.04081726074219,289.4607849121094,-89.33499145507812
6589,117.14114379882812,81.99356842041016,329.810546875,-54.48660278320313
6590,32.54834747314453,-5.389195919036865,236.10362243652344,-130.93763732910156
6591,36.10499572753906,8.657868385314941,244.98214721679688,-122.09651184082031
6592,66.29346466064453,44.29537582397461,278.42807006835943,-88.35513305664062
6593,102.04691314697266,86.7170639038086,320.1017761230469,-47.91933822631836
6594,13.605755805969238,-7.0010929107666025,232.76014709472656,-128.52166748046878
6595,22.936805725097656,15.393427848815918,240.43443298339844,-122.40692901611328
6596,50.17075729370117,51.70037841796875,275.97842407226557,-93.39652252197266
6597,91.30217742919922,87.28178405761719,320.8834228515625,-56.9212760925293
6598,13.998445510864258,2.1018238067626958,232.8947906494141,-137.19822692871094
6599,27.495744705200195,21.751258850097656,240.39329528808597,-127.57546997070312
6600,64.91344451904297,53.08039855957031,281.01608276367193,-93.5610809326172
6601,117.11870574951172,87.99610900878906,328.6885986328125,-56.61834716796875
6602,30.753196716308594,0.4749673008918762,238.7926177978516,-138.79142761230472
6603,42.58998107910156,12.74557876586914,250.46484375,-127.63904571533205
6604,77.20275115966797,47.97543716430664,285.1299743652344,-93.76303100585938
6605,111.576171875,85.34077453613281,319.82501220703125,-59.24375534057617
6606,32.387535095214844,3.313551425933838,236.1148376464844,-134.71867370605472
6607,39.26147079467773,16.182546615600586,248.6846466064453,-118.49498748779295
6608,65.26499176025389,52.81112670898438,281.8463439941406,-86.02517700195312
6609,105.7942886352539,90.32606506347656,325.244140625,-46.83850860595703
6610,19.772851943969727,6.440107822418213,237.90625,-136.27447509765622
6611,27.98193168640137,10.329604148864746,246.91567993164062,-124.4638671875
6612,58.357398986816406,46.91704559326172,284.7746887207031,-88.17188262939453
6613,90.05679321289062,95.07573699951172,314.4320983886719,-57.362586975097656
6614,5.056344509124756,-2.4907734394073486,222.1051788330078,-141.81700134277344
6615,21.33238983154297,7.01605224609375,232.6554412841797,-132.1456298828125
6616,57.51966094970703,44.3851318359375,269.64678955078125,-101.24657440185548
6617,101.08575439453124,81.24932861328125,312.9136962890625,-59.09415817260742
6618,23.00786399841309,-8.130542755126951,231.48858642578125,-138.88117980957028
6619,31.501176834106445,9.136575698852539,240.7710266113281,-130.05876159667972
6620,61.70460891723633,45.96710968017578,268.37896728515625,-99.45516204833984
6621,105.8765640258789,91.43307495117188,318.6170349121094,-61.0164680480957
6622,26.98337745666504,1.8587303161621092,226.95208740234372,-141.74594116210938
6623,34.49309539794922,-1.6418161392211914,235.8380889892578,-136.74569702148438
6624,72.60641479492188,46.05312728881836,273.74197387695307,-99.8291473388672
6625,114.23898315429688,93.38156127929688,319.8175354003906,-50.97109603881836
6626,28.412019729614254,1.0770912170410156,236.9750213623047,-135.14128112792972
6627,39.403587341308594,22.428180694580078,248.7257843017578,-125.15201568603516
6628,73.40301513671875,51.28524780273438,286.6184387207031,-92.61114501953124
6629,117.9975814819336,91.34705352783205,333.5616760253906,-50.80279922485352
6630,32.97469711303711,5.497653007507324,241.01785278320312,-131.91375732421878
6631,35.6001091003418,18.13103485107422,247.3158416748047,-121.90203857421876
6632,66.82453155517578,63.91489028930664,285.5638122558594,-84.60027313232422
6633,106.80406188964844,92.83740997314452,324.234375,-47.27607345581055
6634,22.64509391784668,1.535228967666626,239.7949066162109,-133.78370666503906
6635,31.4974365234375,14.363085746765135,248.2021942138672,-128.61141967773438
6636,64.60303497314453,43.8222770690918,280.90390014648443,-94.0921401977539
6637,101.02965545654295,85.18183135986328,318.7142639160156,-57.70665740966797
6638,23.912919998168945,-3.996083021163941,223.2271423339844,-150.89747619628906
6639,32.51095199584961,5.170411586761475,238.40365600585938,-136.44276428222656
6640,65.71752166748047,30.28384017944336,269.3588256835937,-109.65386962890624
6641,105.390380859375,77.1784439086914,309.4468078613281,-66.58518218994139
6642,20.92848014831543,-7.908018589019775,225.0709228515625,-148.17857360839844
6643,29.66862678527832,0.5965140461921692,236.49256896972656,-132.56449890136722
6644,62.9649543762207,39.61114883422852,277.3734130859375,-97.92179870605469
6645,104.6498794555664,92.47089385986328,317.3492126464844,-55.918983459472656
6646,24.27194976806641,7.4741902351379395,234.9741668701172,-138.80264282226562
6647,31.205724716186523,5.2227702140808105,245.546875,-130.47763061523438
6648,64.16546630859375,43.62780380249024,281.24795532226557,-92.09503936767578
6649,104.67606353759766,91.9286117553711,322.80572509765625,-50.78410339355469
6650,18.134775161743164,3.012489318847656,235.9615020751953,-136.37545776367188
6651,24.18219375610352,13.62258529663086,243.78538513183597,-122.62384033203124
6652,59.53546905517578,54.11448287963867,284.85321044921875,-90.45696258544922
6653,102.7387924194336,93.88457489013672,324.46624755859375,-51.973388671875
6654,26.52337074279785,5.177891254425049,239.8584899902344,-137.93124389648438
6655,39.063255310058594,-2.133612871170044,250.19183349609372,-134.56533813476562
6656,73.36187744140625,39.338138580322266,283.6340026855469,-98.8642578125
6657,119.34768676757812,79.56076049804688,327.0692138671875,-55.27572250366211
6658,26.68044662475586,-10.974736213684082,231.52598571777344,-142.09750366210938
6659,33.49080276489258,5.967010498046875,238.14935302734372,-127.24261474609376
6660,58.32373809814453,42.29265975952149,268.165771484375,-91.20120239257812
6661,99.13726806640624,78.28919219970703,308.5941162109375,-51.5208625793457
6662,15.797337532043455,-14.172350883483887,226.1106109619141,-134.08663940429688
6663,25.277984619140625,-0.06918814778327942,234.91807556152344,-124.1983413696289
6664,59.0679817199707,41.65313720703125,273.68960571289057,-89.1330337524414
6665,98.06765747070312,89.02645111083984,317.6932678222656,-44.91246032714844
6666,11.750765800476074,-1.6362062692642212,231.16696166992188,-133.84353637695312
6667,23.65486717224121,7.8855791091918945,238.83001708984372,-122.90807342529295
6668,57.39250564575195,35.83011245727539,271.33349609375,-90.79354858398438
6669,99.11109161376952,81.0118408203125,320.96942138671875,-51.37874603271485
6670,22.64509391784668,-2.7843554019927983,236.87030029296875,-128.618896484375
6671,41.27727508544922,5.334967136383057,250.7939453125,-121.70382690429688
6672,70.87110137939453,40.22449493408203,284.1501159667969,-91.04786682128906
6673,118.48003387451172,78.39017486572266,327.2524719238281,-50.7990608215332
6674,33.591781616210945,-6.651412010192871,234.63758850097656,-135.70600891113278
6675,35.775882720947266,2.167272090911865,241.0477752685547,-125.06599426269531
6676,65.75118255615234,37.00444030761719,275.9410400390625,-94.79898071289062
6677,107.47724151611328,82.0328369140625,319.2565612792969,-49.56489562988281
6678,26.82256317138672,-4.800161361694336,231.0809326171875,-127.96815490722656
6679,32.89242172241211,2.380446434020996,239.15911865234372,-118.782958984375
6680,60.39938354492188,43.17901611328125,271.87576293945307,-87.74179077148438
6681,104.14873504638672,83.4577407836914,318.89752197265625,-48.03901672363281
6682,20.393674850463867,-11.531981468200685,232.80877685546875,-135.60128784179688
6683,29.76212310791016,5.278868675231934,245.34117126464844,-121.74496459960938
6684,60.93418884277344,38.57145690917969,278.86563110351557,-90.1764678955078
6685,105.42404174804688,79.8038558959961,318.65069580078125,-46.92452621459961
6686,25.95490646362305,-9.370319366455078,234.0504150390625,-131.7230224609375
6687,33.206573486328125,3.637052774429321,240.4082489013672,-122.1152114868164
6688,61.30818176269531,35.441162109375,270.94827270507807,-92.48772430419922
6689,104.99768829345705,80.8697280883789,318.77410888671875,-50.578407287597656
6690,25.37896156311035,-1.2210773229599,238.0932464599609,-133.60792541503906
6691,39.93465042114258,0.2187841534614563,246.2948455810547,-121.8721160888672
6692,65.25751495361328,31.12905693054199,276.44967651367193,-91.16754150390624
6693,109.85955810546876,78.10968017578125,321.4892883300781,-49.17968368530274
6694,27.192811965942386,-11.707756996154785,234.9928741455078,-129.46037292480472
6695,38.685523986816406,2.8741130828857417,245.03823852539062,-117.76197052001952
6696,66.48419952392578,34.539844512939446,274.56100463867193,-87.47251892089844
6697,111.22836303710938,83.97010040283203,320.1391906738281,-49.62099075317383
6698,26.47475242614746,-5.907172203063965,230.40028381347656,-127.9157943725586
6699,34.07048797607422,5.480823516845703,238.2166748046875,-117.42163848876952
6700,61.0875244140625,36.08816528320313,276.55813598632807,-90.1764678955078
6701,102.32366180419922,77.34300231933594,312.9922180175781,-51.31890869140625
6702,18.73689842224121,-13.312173843383787,223.3655242919922,-135.60502624511722
6703,29.28715705871582,1.905479073524475,237.84642028808597,-131.88383483886722
6704,68.19707489013672,36.5145149230957,271.45315551757807,-89.955810546875
6705,107.4398422241211,80.71639251708984,319.9222717285156,-53.97423553466797
6706,27.26387023925781,-7.7771220207214355,228.01422119140625,-135.61251831054688
6707,33.87227249145508,4.5084495544433585,238.7252960205078,-129.04898071289062
6708,66.32338714599611,42.27396011352539,274.35531616210943,-95.67037963867188
6709,108.63661193847656,81.12403869628906,314.8172912597656,-52.77746963500977
6710,28.681293487548828,-1.7671027183532717,230.14596557617188,-131.52105712890622
6711,34.623992919921875,1.782062292098999,242.88406372070312,-122.93051147460938
6712,63.18935012817383,33.904064178466804,273.7457275390625,-91.45551300048828
6713,109.23500061035156,78.88009643554688,317.8690490722656,-46.74874877929688
6714,27.61168098449707,-7.810781002044678,226.77256774902344,-133.74630737304688
6715,30.68587875366211,3.1882646083831787,239.1628570556641,-124.69574737548828
6716,59.77482223510742,41.24922561645508,272.63497924804693,-88.2840805053711
6717,99.72069549560548,88.20741271972656,317.0574951171875,-46.83850860595703
6718,21.85971450805664,2.37670636177063,230.359130859375,-129.75209045410156
6719,20.704086303710934,3.4762370586395264,240.875732421875,-124.55736541748048
6720,52.45583724975586,34.82407760620117,275.30899047851557,-94.54467010498048
6721,103.9692153930664,83.56619262695312,317.3155517578125,-53.90317916870117
6722,21.575483322143555,-12.807287216186525,228.56398010253903,-145.17543029785156
6723,36.482723236083984,-6.05676794052124,242.43153381347656,-139.86851501464844
6724,70.40361785888672,31.921916961669922,274.26181030273443,-104.92288970947266
6725,114.8261489868164,71.74063110351562,323.119873046875,-59.18391799926758
6726,32.249156951904304,-17.949649810791016,231.8887634277344,-138.77647399902344
6727,39.43350601196289,0.9667641520500184,239.6864471435547,-128.31222534179688
6728,63.6456184387207,42.64794921875,267.14852905273443,-94.21929931640624
6729,107.9596939086914,85.64932250976562,311.86651611328125,-50.98979568481445
6730,20.76018524169922,-8.076313972473145,223.2271423339844,-131.1246337890625
6731,20.558229446411133,-0.8022085428237915,230.710693359375,-127.54928588867188
6732,57.31770706176758,30.62042999267578,262.34649658203125,-94.873779296875
6733,95.35623168945312,80.67899322509766,310.65106201171875,-48.31576919555664
6734,15.513105392456055,-5.9258713722229,218.8851318359375,-135.45542907714844
6735,23.18363952636719,8.409165382385254,235.82313537597656,-122.4518051147461
6736,51.128173828125,37.7075424194336,265.66006469726557,-99.84784698486328
6737,95.39736938476562,82.82195281982422,306.3389587402344,-61.30070114135742
6738,14.357476234436035,-8.678438186645508,220.029541015625,-144.12826538085938
6739,25.749210357666016,1.3332743644714355,231.6755828857422,-138.69044494628906
6740,62.05242156982422,31.20385551452637,276.838623046875,-108.6814956665039
6741,111.34803771972656,80.207763671875,323.3330383300781,-62.89763641357422
6742,32.17061996459961,-9.239422798156738,228.1563415527344,-148.65728759765625
6743,34.65017318725586,-0.4805771410465241,237.21437072753903,-140.496826171875
6744,64.74140930175781,27.06378555297852,271.66632080078125,-100.8576202392578
6745,102.83976745605469,76.99893188476562,315.08282470703125,-60.16376876831055
6746,26.568248748779297,-12.242562294006348,231.9972076416016,-132.1456298828125
6747,28.741130828857425,1.811981558799744,240.12026977539062,-128.20376586914062
6748,58.09186553955078,36.18914031982422,274.35906982421875,-93.7480697631836
6749,104.78451538085938,81.64014434814453,317.76434326171875,-45.19668960571289
6750,20.89108085632324,-0.13276645541191098,231.0585021972656,-128.80963134765622
6751,20.995798110961914,8.012735366821289,234.5104217529297,-124.64338684082031
6752,48.61122131347656,51.380615234375,266.5576171875,-97.32715606689452
6753,97.53285217285156,85.15190887451172,310.85675048828125,-57.24664688110352
6754,13.889988899230955,1.348233938217163,223.96017456054688,-147.84947204589844
6755,25.46497917175293,10.346433639526367,241.11134338378903,-137.7330322265625
6756,60.623779296875,41.76907348632813,276.5394287109375,-103.47555541992188
6757,102.64903259277344,88.84693145751953,314.2189025878906,-61.69712829589844
6758,22.450618743896484,-3.0947673320770264,226.18914794921875,-139.20281982421878
6759,25.786609649658203,8.756976127624513,234.12521362304688,-132.23538208007812
6760,57.97966766357422,37.87957763671875,264.46701049804693,-99.84784698486328
6761,101.78885650634766,85.01353454589844,312.4873352050781,-51.89111328125
6762,26.960939407348636,1.1612389087677002,230.7518310546875,-125.97479248046876
6763,23.91666030883789,2.956390857696533,232.25152587890625,-120.29388427734376
6764,47.71364212036133,36.08068466186523,263.64797973632807,-87.53609466552734
6765,94.50353240966795,84.65824890136719,312.0796813964844,-48.480323791503906
6766,10.576436996459961,-13.147618293762207,217.15728759765625,-134.97673034667972
6767,22.084108352661133,1.4529510736465454,231.9224090576172,-125.567138671875
6768,52.39225769042969,30.23522186279297,260.73086547851557,-99.65711212158205
6769,98.93531036376952,74.9270248413086,310.25836181640625,-61.52883529663086
6770,19.06600952148437,-1.4791303873062134,223.8031005859375,-143.46255493164062
6771,25.50985717773437,-0.2748826444149017,235.7483367919922,-134.52046203613278
6772,59.1502571105957,40.66954040527344,275.33517456054693,-102.97440338134766
6773,108.83856964111328,85.13695526123047,328.0303649902344,-63.55585861206055
6774,22.065410614013672,-3.74550986289978,237.9922790527344,-150.2542266845703
6775,30.34928894042969,5.757575988769531,246.72494506835938,-139.5992431640625
6776,63.87375259399414,38.85943222045898,281.1170654296875,-99.71694946289062
6777,112.35407257080078,82.4778823852539,327.2225341796875,-58.26390075683594
6778,29.07398223876953,-0.495536744594574,239.96319580078125,-136.79432678222656
6779,35.050342559814446,1.0640015602111816,246.3958282470703,-126.31512451171876
6780,66.36078643798828,34.839038848876946,278.05783081054693,-87.77919006347656
6781,108.94328308105469,77.35796356201172,313.87109375,-41.88314056396485
6782,22.34590148925781,-7.160038471221924,229.8018951416016,-123.57003784179688
6783,29.70602607727051,3.087287425994873,236.07369995117188,-123.05018615722656
6784,61.20720291137695,34.322933197021484,270.14419555664057,-89.49954223632812
6785,102.58545684814452,77.16348266601562,317.87652587890625,-54.434242248535156
6786,12.532404899597168,-10.193097114562988,229.0539093017578,-140.42950439453122
6787,25.55847549438477,2.189711332321167,238.53456115722656,-143.58224487304688
6788,52.99438095092773,36.08068466186523,273.8466796875,-118.52490997314452
6789,103.13148498535156,83.19220733642578,320.326171875,-78.66131591796875
6790,23.961538314819336,-2.3019084930419917,232.5357666015625,-158.56802368164062
6791,28.281124114990234,8.82055377960205,241.82192993164062,-146.02066040039062
6792,57.14567184448242,44.42066192626953,272.67984008789057,-110.55518341064452
6793,102.3573226928711,85.67176055908203,319.0658264160156,-65.26873779296875
6794,18.920154571533203,-10.4287109375,231.30532836914062,-137.95742797851562
6795,20.82376289367676,2.5599615573883057,233.4183807373047,-127.82604217529295
6796,50.03985977172852,36.03206634521485,272.35073852539057,-87.71561431884766
6797,94.3314971923828,86.43096160888672,311.4775695800781,-46.6627311706543
6798,17.031503677368164,-8.162331581115723,226.5182647705078,-122.48546600341795
6799,20.472211837768555,0.6937514543533325,233.246337890625,-122.26854705810548
6800,52.71015167236328,33.24958038330078,264.58670043945307,-91.0142059326172
6801,96.97186279296876,77.24202728271484,308.6240234375,-48.84309387207031
6802,17.270858764648438,-15.365379333496096,224.2107391357422,-136.49887084960938
6803,19.574636459350586,-8.027695655822754,227.2699737548828,-138.85874938964844
6804,57.90861129760742,35.23546600341797,264.3623046875,-106.8938217163086
6805,98.8455581665039,69.94174194335939,310.1910400390625,-75.91622924804688
6806,22.084108352661133,-14.924070358276367,229.6672515869141,-157.29270935058594
6807,26.17930030822754,-1.9391381740570068,236.41403198242188,-158.2875213623047
6808,54.03033447265625,26.10263252258301,269.43734741210943,-129.33695983886722
6809,105.46891784667969,80.70143127441406,319.61932373046875,-86.65348052978516
6810,22.64135360717773,-7.646225452423097,230.17962646484372,-170.9695281982422
6811,26.32141494750977,1.6362062692642212,237.0647735595703,-152.73751831054688
6812,61.12492370605469,39.59619140625,273.88034057617193,-109.99794006347656
6813,108.84978485107422,82.95658874511719,322.45416259765625,-55.45897674560547
6814,34.98676300048828,-7.160038471221924,242.66714477539062,-129.2584228515625
6815,31.542316436767575,-4.085840702056885,241.53770446777344,-116.88683319091795
6816,66.18875122070311,26.11385154724121,276.240234375,-77.91707611083984
6817,105.16598510742188,69.44807434082031,315.3857727050781,-38.32649612426758
6818,22.222484588623047,-21.906463623046875,226.2863922119141,-121.30365753173828
6819,25.498638153076172,-17.545740127563473,230.81915283203125,-118.71190643310548
6820,49.10488510131836,16.521007537841793,259.81832885742193,-93.03001403808594
6821,102.2974853515625,67.25649261474611,302.5392150878906,-52.07810592651367
6822,19.152027130126953,-27.471435546875,215.20880126953125,-147.22116088867188
6823,22.360862731933594,-11.416044235229492,225.59825134277344,-140.12283325195312
6824,50.86637878417969,33.122425079345696,259.93801879882807,-111.72203063964844
6825,88.98343658447266,75.48426818847656,301.8323669433594,-77.14665985107422
6826,10.883109092712402,-8.12867259979248,218.7056121826172,-155.074951171875
6827,20.464733123779297,7.9940361976623535,228.13015747070312,-153.2872772216797
6828,49.62847137451172,43.3809700012207,262.28665161132807,-119.25045013427734
6829,92.09129333496094,90.67574310302734,313.5232849121094,-70.94963836669922
6830,21.773696899414066,-5.260169506072998,228.2909698486328,-151.40985107421875
6831,32.065902709960945,2.1747517585754395,241.07769775390625,-133.14044189453122
6832,66.48046112060547,30.22026252746582,271.1988525390625,-99.33547973632812
6833,113.48726654052734,83.13984680175781,321.7622985839844,-47.80340194702149
6834,36.69963836669922,-12.048088073730467,230.282470703125,-123.9365463256836
6835,39.11187362670898,-3.278022289276123,243.8994445800781,-114.23898315429688
6836,62.41144943237305,33.34307861328125,271.1259155273437,-85.37069702148438
6837,109.29857635498048,82.24227142333984,318.42816162109375,-36.11995315551758
6838,24.395366668701172,-9.60967254638672,225.21116638183597,-127.08180236816406
6839,23.800724029541016,1.2696959972381592,236.82354736328125,-119.04475402832031
6840,56.01248168945313,36.70898818969727,277.80911254882807,-88.54961395263672
6841,108.21400451660156,78.34529113769531,313.9926452636719,-56.9511947631836
6842,25.199445724487305,-8.917791366577148,227.00631713867188,-145.42974853515625
6843,26.388734817504886,5.802454948425293,237.0554351806641,-145.6653594970703
6844,61.58119201660156,38.4630012512207,268.19009399414057,-119.68801879882812
6845,102.79115295410156,90.35411071777344,311.30364990234375,-75.53849792480469
6846,24.42154693603516,3.958684206008911,226.07508850097656,-151.39114379882812
6847,31.8377685546875,17.852413177490234,239.87905883789062,-138.11824035644528
6848,61.64850997924805,53.54975891113281,272.15438842773443,-96.0181884765625
6849,103.55409240722656,88.82823181152344,310.5444641113281,-52.99438095092773
6850,18.81543731689453,-6.602793216705322,220.64100646972656,-137.64701843261722
6851,28.31104278564453,-4.040961742401123,225.71978759765625,-118.28555297851562
6852,58.017066955566406,35.269126892089844,258.9076538085937,-87.8839111328125
6853,97.75724792480469,73.90977478027344,297.9447326660156,-47.20875549316406
6854,16.507919311523438,-8.906571388244629,215.7006072998047,-137.61335754394528
6855,26.815082550048828,-6.382139205932617,226.6435546875,-129.70721435546878
6856,57.17559051513672,33.83300399780273,255.01817321777344,-98.2845687866211
6857,100.46118927001952,83.81302642822266,303.8276062011719,-55.32807922363281
6858,19.391382217407227,0.7199307680130005,224.1078948974609,-139.75631713867188
6859,17.54387092590332,-5.20033073425293,224.8072509765625,-142.78564453125
6860,47.78096008300781,46.73191833496094,261.2750244140625,-107.84375762939452
6861,100.55094909667969,93.12911987304688,312.2386474609375,-63.503501892089844
6862,15.722538948059082,2.6123201847076416,219.9005126953125,-151.8623809814453
6863,19.836429595947266,13.5477876663208,229.4447326660156,-145.22032165527344
6864,59.0792007446289,46.32427215576172,267.99188232421875,-106.06729888916016
6865,104.29833221435548,88.93295288085938,314.8902282714844,-53.99293518066406
6866,29.34699440002441,7.9341979026794425,230.282470703125,-129.4342041015625
6867,28.557876586914066,6.011888980865479,228.7378845214844,-124.55362701416016
6868,62.8714599609375,31.20759582519531,254.38612365722656,-90.19890594482422
6869,98.5426254272461,68.43456268310547,296.411376953125,-52.97194290161133
6870,21.78865623474121,-21.483856201171875,205.61782836914062,-131.68936157226562
6871,24.36170768737793,-12.754928588867188,216.29150390625,-129.21728515625
6872,54.45294189453125,22.29167366027832,251.4016876220703,-102.4395980834961
6873,104.62744140625,72.21186065673828,299.9867248535156,-53.708702087402344
6874,28.352182388305664,-16.109619140625,218.68878173828125,-142.87913513183594
6875,29.04032325744629,-7.7472028732299805,225.0017242431641,-143.06239318847656
6876,54.51278305053711,32.59509658813477,252.89764404296875,-116.071533203125
6877,99.17092895507812,78.75668334960938,303.21051025390625,-73.11504364013672
6878,17.491512298583984,-4.773982524871826,217.6416015625,-152.84597778320312
6879,23.24347877502441,5.9819698333740225,224.45196533203125,-146.84716796875
6880,57.46730422973633,34.40147018432617,260.08572387695307,-110.30087280273438
6881,98.41920471191406,85.21175384521484,307.74700927734375,-57.2429084777832
6882,19.518537521362305,2.436544895172119,225.4692230224609,-127.18277740478516
6883,27.8585147857666,1.7858022451400757,231.6699676513672,-120.53697204589844
6884,55.22336196899414,30.9345817565918,265.65444946289057,-87.15837097167969
6885,104.56011962890624,76.84933471679688,308.0723876953125,-49.52749633789063
6886,24.27194976806641,-15.230742454528807,214.87034606933597,-138.2080078125
6887,25.524816513061523,-16.524747848510742,217.3760681152344,-136.71578979492188
6888,55.58987426757813,23.78015327453613,249.04180908203125,-105.11737060546876
6889,100.81648254394531,70.19979095458984,298.3523864746094,-58.776268005371094
6890,23.696006774902344,-11.318807601928713,218.0567321777344,-134.65509033203122
6891,20.416114807128906,-9.09356689453125,223.98448181152344,-139.48330688476562
6892,53.91813659667969,24.85350608825684,257.28829956054693,-107.15187072753906
6893,101.7776336669922,72.99723815917969,303.50970458984375,-62.512428283691406
6894,12.240692138671875,-19.243656158447266,209.84017944335938,-152.25506591796875
6895,16.526617050170902,-2.631019592285156,220.48019409179688,-136.5474853515625
6896,46.40093994140625,31.394590377807614,254.04579162597656,-105.1136245727539
6897,103.35961151123048,77.6795883178711,307.3132019042969,-56.1396369934082
6898,25.22562599182129,-15.945063591003418,224.63522338867188,-138.7540283203125
6899,29.219839096069336,-8.020215034484862,231.43809509277344,-135.16746520996094
6900,69.68929290771484,33.5338134765625,269.98150634765625,-95.74143981933594
6901,111.65097045898438,74.74751281738281,311.2176513671875,-56.59590530395508
6902,29.43301200866699,-21.143524169921875,221.3515930175781,-136.45025634765622
6903,30.68961906433105,-10.196837425231934,221.60589599609372,-136.94017028808594
6904,54.68855667114258,18.70511054992676,249.2026214599609,-99.78053283691406
6905,100.86135864257812,69.20497894287111,298.6590576171875,-59.95433807373047
6906,18.20209312438965,-13.458029747009276,210.12440490722656,-139.12428283691406
6907,23.81194305419922,-2.672158479690552,225.4879150390625,-132.80758666992188
6908,50.55596923828125,24.41219711303711,256.82827758789057,-99.94508361816406
6909,100.9959945678711,75.76102447509766,310.7912902832031,-56.09476089477539
6910,18.908933639526367,-12.149065017700195,220.9140167236328,-135.08145141601562
6911,18.568603515625,-3.981123447418213,227.9039001464844,-127.62782287597656
6912,47.65006637573242,37.6776237487793,262.28106689453125,-98.40798950195312
6913,96.99056243896484,70.36061096191406,308.4576110839844,-50.02490234375
6914,18.71072006225586,-11.079453468322754,225.39442443847656,-130.05502319335938
6915,25.913766860961914,-7.922977924346924,234.37391662597656,-121.7150421142578
6916,58.94082260131836,26.94410896301269,268.88946533203125,-89.26019287109375
6917,109.1415023803711,77.34674072265625,318.0841064453125,-44.740421295166016
6918,27.92209243774414,-14.968949317932127,233.47634887695312,-130.55616760253906
6919,32.099559783935554,-7.189957618713379,238.78700256347656,-127.08554077148438
6920,60.21986770629883,29.812612533569336,267.66278076171875,-97.7198486328125
6921,102.9818878173828,74.8484878540039,310.1966552734375,-58.43219757080078
6922,17.192319869995114,-13.592666625976562,218.14276123046875,-139.73388671875
6923,16.866949081420902,-12.313620567321776,214.61602783203125,-139.33370971679688
6924,42.72835540771485,23.32388687133789,247.0858459472656,-114.32874298095705
6925,91.73226928710938,75.77598571777344,294.9341125488281,-63.92985153198242
6926,3.788518667221069,-12.47443675994873,202.9026641845703,-146.44700622558594
6927,9.607803344726562,-3.408918857574463,212.0953369140625,-136.67463684082028
6928,39.56814193725586,28.421369552612305,243.15521240234372,-101.51958465576172
6929,87.31170654296875,79.72905731201172,291.5270690917969,-60.18994903564453
6930,8.17168140411377,-7.560207843780518,200.0079803466797,-139.69648742675778
6931,15.69636058807373,-4.085840702056885,209.09593200683597,-133.47703552246094
6932,48.66357803344727,26.196128845214844,250.0814971923828,-99.76183319091795
6933,88.96099853515625,68.58041381835939,298.4084777832031,-54.66611862182617
6934,12.940053939819336,-12.90452480316162,208.63592529296875,-138.89241027832028
6935,20.31887626647949,-1.4529510736465454,216.11947631835938,-132.99832153320312
6936,48.5289421081543,32.449241638183594,250.81451416015625,-103.81587982177734
6937,98.49774169921876,77.48885345458984,301.94268798828125,-63.697975158691406
6938,22.712411880493164,-3.659492015838623,218.47933959960938,-145.0782012939453
6939,20.124401092529297,-3.4350981712341313,226.17605590820312,-147.950439453125
6940,48.27462768554688,30.73636817932129,259.60702514648443,-114.39231872558594
6941,101.11941528320312,75.36085510253906,313.09881591796875,-69.64815521240234
6942,15.771158218383787,-10.544648170471193,227.0624084472656,-149.7755126953125
6943,24.013896942138672,-1.168718695640564,227.24192810058597,-143.99737548828125
6944,47.31721496582031,30.22026252746582,252.97244262695312,-115.77234649658205
6945,96.01071166992188,79.28026580810547,296.9761047363281,-63.62317657470703
6946,18.261932373046875,-12.653951644897461,209.11463928222656,-140.52299499511722
6947,18.609743118286133,-2.1186532974243164,211.4632873535156,-134.40826416015622
6948,54.84189224243164,35.90491104125977,248.8922119140625,-98.49026489257812
6949,98.86799621582031,83.0762710571289,294.5675964355469,-48.79821395874024
6950,14.970819473266602,-4.4897499084472665,207.899169921875,-134.63639831542972
6951,19.432519912719727,-2.735736846923828,215.9960479736328,-128.24116516113278
6952,44.59830856323242,35.10831069946289,248.6902618408203,-100.31159973144531
6953,86.60111999511719,75.19629669189453,299.9867248535156,-54.202369689941406
6954,15.965632438659668,-8.611119270324707,213.6249542236328,-136.66716003417972
6955,6.978653430938722,-2.541261911392212,213.0303039550781,-139.83485412597656
6956,38.94731903076172,32.19492721557617,249.12034606933597,-109.287353515625
6957,86.22713470458984,77.31307983398438,295.32305908203125,-64.08318328857422
6958,10.191226959228516,1.7371835708618164,213.322021484375,-155.01510620117188
6959,13.807710647583008,2.5562217235565186,217.5219268798828,-144.5209503173828
6960,41.71484375,37.90949630737305,250.2535400390625,-117.18228912353516
6961,89.24149322509766,80.04695129394531,300.05029296875,-68.92261505126953
6962,10.901808738708496,-7.115159511566162,216.72906494140625,-144.9024200439453
6963,21.05563735961914,-3.629572868347168,221.52362060546875,-143.0287322998047
6964,50.96361541748047,27.766887664794922,252.4525909423828,-103.61392974853516
6965,100.0311050415039,78.57342529296875,299.77728271484375,-51.92477035522461
6966,23.123802185058594,-12.332320213317873,212.62640380859372,-133.05816650390622
6967,21.837276458740234,-7.664925098419189,220.6671905517578,-130.94511413574222
6968,53.02056121826172,24.932043075561523,248.9931945800781,-100.7117691040039
6969,99.90768432617188,72.02860260009766,292.3722839355469,-51.47598266601562
6970,19.76911163330078,-6.090426921844482,210.2665252685547,-129.37809753417972
6971,14.570650100708008,-8.371766090393066,219.7060394287109,-127.79985809326172
6972,41.10523986816406,29.921070098876953,249.16896057128903,-101.10445404052734
6973,86.52632904052734,79.17555236816406,300.04656982421875,-57.54584121704102
6974,4.128849506378174,-0.8882262110710144,214.71701049804688,-143.3316650390625
6975,12.659561157226562,-0.7648095488548279,218.0193328857422,-143.32044982910156
6976,39.426025390625,36.64167022705078,256.37948608398443,-106.77040100097656
6977,96.1977081298828,86.13924407958984,306.83447265625,-60.05905151367188
6978,18.63218116760254,-2.9376914501190186,222.92608642578125,-140.07048034667972
6979,22.091588973999023,-0.41325893998146057,226.84176635742188,-133.3311767578125
6980,51.81631469726562,33.66471099853516,259.81646728515625,-101.28771209716795
6981,106.38893127441406,96.05745697021484,312.79962158203125,-52.96446228027344
6982,20.21415901184082,-10.99717617034912,225.7908477783203,-133.08807373046878
6983,26.46727180480957,-5.836113929748535,230.2375946044922,-125.4437255859375
6984,58.054466247558594,29.397483825683594,262.51666259765625,-94.6493911743164
6985,106.26177978515624,74.19774627685547,309.92364501953125,-49.24700164794922
6986,30.92523193359375,-8.618599891662598,230.68638610839844,-124.71444702148438
6987,21.10425567626953,-6.64019250869751,228.22178649902344,-129.815673828125
6988,53.708702087402344,34.992374420166016,256.31216430664057,-98.47156524658205
6989,93.7256317138672,78.26301574707031,296.6470031738281,-57.51966094970703
6990,12.158414840698242,-2.0700347423553467,211.7924041748047,-144.898681640625
6991,5.6173295974731445,-2.275729179382324,214.0961761474609,-140.20884704589844
6992,39.766357421875,38.35454559326172,258.35415649414057,-111.31438446044922
6993,85.28842163085938,80.87346649169922,305.6152648925781,-70.23905944824219
6994,6.036198616027832,0.6189534664154053,224.54920959472656,-148.19728088378906
6995,10.550257682800293,13.338353157043455,228.158203125,-153.81460571289062
6996,42.91161346435547,42.74892807006836,262.95797729492193,-118.52864837646484
6997,93.47505950927734,91.1881103515625,314.3404541015625,-67.60990905761719
6998,20.371234893798828,5.8772525787353525,231.5540313720703,-141.77960205078125
6999,29.698545455932614,-0.6713120341300964,237.04046630859372,-136.96261596679688
7000,55.47393417358398,27.553712844848636,264.80548095703125,-102.21520233154295
7001,105.76062774658205,75.05418395996094,315.41754150390625,-51.5806999206543
7002,23.90544128417969,-2.619799852371216,217.70892333984372,-126.41609954833984
7003,23.89422035217285,-4.328934192657472,222.78396606445312,-127.50440979003906
7004,54.82693481445313,24.131704330444336,254.696533203125,-96.96438598632812
7005,100.70802307128906,76.25469207763672,306.071533203125,-50.35027313232422
7006,18.03005790710449,-19.131458282470703,216.7028961181641,-139.50201416015622
7007,18.101116180419922,-4.796421527862549,221.2057342529297,-136.45399475097656
7008,43.371620178222656,32.86063003540039,257.00030517578125,-107.00228118896484
7009,91.35079956054688,83.05757141113281,303.5957336425781,-61.79436874389648
7010,6.066117763519287,-4.381292819976807,214.93017578125,-147.21742248535156
7011,8.358675956726074,-2.5225625038146973,223.2926025390625,-142.7332763671875
7012,38.977237701416016,32.082733154296875,255.6539459228516,-109.90070343017578
7013,84.42449951171875,83.71205139160156,310.04705810546875,-70.62052917480469
7014,8.747626304626465,2.5562217235565186,226.3293914794922,-148.0028076171875
7015,12.895174980163574,0.9181454181671144,229.3138427734375,-144.4798126220703
7016,51.01223373413086,44.03171157836914,267.9208374023437,-112.41765594482422
7017,102.66773223876952,84.51986694335938,320.8815612792969,-63.48106002807617
7018,29.09642219543457,-1.4753905534744265,238.9403381347656,-129.41549682617188
7019,25.263023376464844,-0.387079656124115,241.61062622070312,-118.3005142211914
7020,57.87869262695313,39.15862274169922,272.55828857421875,-81.22314453125
7021,102.16658782958984,74.39221954345703,313.48028564453125,-42.72461700439453
7022,25.30042266845703,-9.841547012329102,224.28741455078125,-122.35456848144531
7023,26.269058227539066,-5.895952224731445,225.962890625,-120.12932586669922
7024,54.9952278137207,28.28299331665039,256.62258911132807,-98.5463638305664
7025,99.27190399169922,78.41635131835938,307.54132080078125,-53.47309112548828
7026,19.54471778869629,1.8830395936965945,222.4324188232422,-135.65365600585938
7027,17.01280403137207,0.4282185435295105,226.57997131347656,-134.4755859375
7028,43.80170822143555,38.750972747802734,260.459716796875,-103.70368957519531
7029,96.84471130371094,83.58863067626953,311.70758056640625,-63.43244171142578
7030,14.952119827270508,7.100200176239014,226.10873413085938,-146.82847595214844
7031,12.592243194580078,13.009242057800293,229.5157928466797,-139.651611328125
7032,43.89146423339844,42.29265975952149,263.54513549804693,-102.59667205810548
7033,96.36600494384766,92.38114166259766,318.7161560058594,-58.11056518554688
7034,19.24178504943848,5.0806541442871085,236.4645233154297,-134.72988891601562
7035,31.155237197875977,8.702747344970701,244.25473022460938,-126.69659423828124
7036,59.178306579589844,39.72521591186523,272.76025390625,-89.0283203125
7037,112.61773681640624,84.97052764892578,323.0918273925781,-42.17485046386719
7038,31.39833068847656,-8.08940315246582,230.19271850585938,-123.02400970458984
7039,33.77316665649414,2.58427095413208,235.0845031738281,-116.96910858154295
7040,61.89347457885742,35.3121337890625,262.60269165039057,-91.75096893310548
7041,106.31600952148438,88.25041961669922,316.857421875,-37.817867279052734
7042,29.150650024414066,-11.42165470123291,230.22262573242188,-118.12847900390624
7043,26.521499633789066,-5.082523822784424,234.0522918701172,-115.0056610107422
7044,56.95306777954102,30.562461853027344,265.037353515625,-91.83324432373048
7045,100.219970703125,75.88630676269531,315.0547790527344,-48.35690689086914
7046,17.104433059692386,-6.2680721282958975,231.6699676513672,-130.79177856445312
7047,15.997422218322756,1.0883108377456665,232.41421508789062,-132.33262634277344
7048,39.5849723815918,40.024410247802734,271.00250244140625,-108.51319885253906
7049,90.65330505371094,82.36007690429688,314.55364990234375,-59.54668807983398
7050,19.180076599121094,1.6081570386886597,240.6606903076172,-130.33177185058594
7051,24.29252052307129,8.328757286071777,236.97689819335938,-132.78514099121094
7052,53.12340927124024,43.91390609741211,272.3002319335937,-105.88404846191406
7053,109.62955474853516,89.86231994628906,324.4157409667969,-60.21986770629883
7054,33.945201873779304,6.915074825286865,236.41217041015625,-135.56388854980472
7055,37.96185302734375,9.222593307495117,239.17221069335938,-130.320556640625
7056,61.02581787109375,35.31587600708008,268.6575927734375,-94.72044372558594
7057,113.9715805053711,83.63912200927734,320.5487060546875,-48.71593856811523
7058,34.39025115966797,-6.541085243225098,231.09776306152344,-129.34817504882812
7059,33.466495513916016,3.59778380393982,233.46511840820312,-126.0271453857422
7060,61.05947494506836,27.693958282470703,267.75625610351557,-88.04098510742188
7061,105.42964935302734,81.58966064453125,317.7923889160156,-40.4993782043457
7062,28.77666091918945,-4.435521125793457,232.6086883544922,-122.10773468017578
7063,26.760854721069336,1.2715660333633425,242.2277069091797,-115.74242401123048
7064,56.84460830688477,35.076522827148445,271.37274169921875,-91.997802734375
7065,105.59420776367188,80.28816986083984,321.02740478515625,-46.2214241027832
7066,33.33933639526367,-1.873689889907837,238.252197265625,-126.9696044921875
7067,28.92625617980957,-1.7876721620559692,233.3155212402344,-126.51333618164062
7068,56.76607131958008,30.10245513916016,272.10577392578125,-95.34127044677734
7069,110.14566040039062,81.4999008178711,330.4033203125,-46.38597869873047
7070,31.753620147705078,-0.23935359716415405,245.5038604736328,-129.85307312011722
7071,33.372997283935554,14.712766647338867,246.1359100341797,-130.69081115722656
7072,66.87128448486328,34.98302459716797,277.7343139648437,-102.56301879882812
7073,117.7301788330078,92.61488342285156,335.9608154296875,-50.02116012573242
7074,29.53211975097656,9.68260097503662,239.602294921875,-135.23478698730472
7075,27.31435966491699,8.175421714782715,244.04904174804688,-137.609619140625
7076,54.7427864074707,42.0439567565918,269.8319091796875,-107.84749603271484
7077,108.06627655029295,90.00817108154297,319.37811279296875,-53.7685432434082
7078,27.91274261474609,-7.128249168395996,227.74681091308597,-133.51068115234378
7079,19.93179702758789,-3.837137460708618,230.1665344238281,-125.54096221923828
7080,55.9283332824707,33.225269317626946,265.10467529296875,-81.42884063720703
7081,109.79037475585938,89.99695587158203,324.4980163574219,-34.63147354125977
7082,22.16451644897461,-6.155875205993652,242.313720703125,-119.87875366210938
7083,17.71403694152832,-3.062978029251098,233.1547088623047,-122.54904174804688
7084,50.46060180664063,25.674413681030273,263.8106689453125,-95.0121612548828
7085,99.20271301269531,84.1327896118164,314.7742919921875,-44.703025817871094
7086,23.724056243896484,3.9455945491790767,228.158203125,-128.37954711914062
7087,28.12217712402344,8.54193115234375,235.61557006835938,-126.2253646850586
7088,61.82241439819336,33.191612243652344,277.74179077148443,-92.03519439697266
7089,111.13299560546876,83.23147583007812,325.7359313964844,-45.01343536376953
7090,33.657230377197266,2.1579222679138184,248.3723602294922,-128.89939880371094
7091,34.334152221679695,1.6268564462661743,253.1743927001953,-125.81771087646484
7092,67.92967224121094,35.289695739746094,284.47735595703125,-97.66374969482422
7093,112.87953186035156,86.29071044921875,338.2571105957031,-45.63425827026367
7094,37.43452835083008,6.0511579513549805,249.3784027099609,-123.09880828857422
7095,38.433082580566406,-0.8975759744644165,249.1465301513672,-116.7073211669922
7096,70.99639129638672,37.42517852783203,281.1376342773437,-80.85663604736328
7097,113.33206176757812,77.31121063232422,330.672607421875,-35.79084396362305
7098,31.79475975036621,0.3590303957462311,246.8165740966797,-114.21280670166016
7099,29.042192459106445,-2.142962694168091,238.7309112548828,-118.60718536376952
7100,50.39328384399414,28.726171493530273,265.77410888671875,-88.85628509521484
7101,103.85514831542969,88.89368438720703,319.2920837402344,-42.91161346435547
7102,21.06124687194824,-5.9987993240356445,226.5949249267578,-129.90542602539062
7103,22.48614883422852,4.97780704498291,230.4507598876953,-130.61601257324222
7104,45.55759048461914,39.60179901123047,261.03939819335943,-106.42259216308594
7105,97.8937530517578,87.93626403808594,304.545654296875,-65.02938079833984
7106,21.04254722595215,-0.22439399361610413,217.6154327392578,-150.19064331054688
7107,19.355852127075195,13.927387237548828,225.34954833984372,-145.7064971923828
7108,46.06621932983398,43.70447158813477,257.80813598632807,-114.8224105834961
7109,97.84513092041016,96.89706420898438,312.4967041015625,-59.5392074584961
7110,21.057506561279297,11.41043472290039,227.0287628173828,-135.36941528320312
7111,23.080793380737305,8.081923484802246,232.6012115478516,-133.07685852050778
7112,46.54866409301758,37.98242568969727,261.77243041992193,-100.48737335205078
7113,105.19029235839844,88.6692886352539,318.80963134765625,-48.15495300292969
7114,30.575551986694336,1.6979146003723145,236.2139587402344,-124.4264678955078
7115,29.614397048950195,2.745086669921875,240.68687438964844,-120.73892974853516
7116,53.77789306640625,38.42373275756836,268.02178955078125,-91.48543548583984
7117,105.10427856445312,88.57952880859375,325.567626953125,-40.91450500488281
7118,25.77725982666016,3.1676952838897705,241.2328948974609,-120.85112762451172
7119,24.928302764892575,-2.086864233016968,237.8258514404297,-125.49608612060548
7120,55.45710754394531,29.5489501953125,272.4984741210937,-97.25235748291016
7121,108.34677124023438,86.0775375366211,322.6617431640625,-51.97713088989258
7122,31.33475112915039,-3.8558368682861333,237.08160400390625,-135.23104858398438
7123,29.99586677551269,6.873936176300049,240.4138641357422,-135.743408203125
7124,55.93207550048828,39.62049865722656,270.965087890625,-102.2189483642578
7125,107.08268737792969,86.15233612060547,326.1024475097656,-52.03322982788086
7126,30.26888084411621,1.7427933216094968,239.1123809814453,-127.48197174072266
7127,22.38517189025879,8.747626304626465,230.6714172363281,-129.45289611816406
7128,51.19736099243164,37.39152145385742,260.48214721679693,-95.89851379394531
7129,99.36353302001952,87.29300689697266,313.91412353515625,-44.691802978515625
7130,22.467449188232425,3.702501058578491,232.653564453125,-114.72142791748048
7131,25.90815734863281,10.44554042816162,235.35003662109372,-117.67594909667969
7132,55.00831985473633,28.307302474975586,269.53271484375,-91.06656646728516
7133,107.81570434570312,84.5965347290039,321.2518005371094,-47.4069709777832
7134,28.94869613647461,3.8782763481140137,235.61183166503903,-126.9920425415039
7135,28.26803398132324,-1.020992636680603,235.4996337890625,-127.02196502685548
7136,62.7312126159668,34.193904876708984,272.04592895507807,-95.77135467529295
7137,113.37319946289062,85.44923400878906,322.8711853027344,-54.03033447265625
7138,31.185155868530273,6.099776744842528,239.4863586425781,-130.06623840332028
7139,25.893198013305664,-1.3201847076416016,244.7783203125,-126.2702407836914
7140,56.45191955566406,33.438446044921875,270.5125732421875,-102.43212127685548
7141,111.91463470458984,91.4592514038086,329.3187561035156,-53.25243377685547
7142,30.96450233459473,8.295098304748535,245.7581787109375,-128.74980163574222
7143,26.091411590576172,2.457114219665528,239.71823120117188,-128.33467102050778
7144,54.219200134277344,40.04684829711914,273.86727905273443,-95.86111450195312
7145,107.49781799316406,86.23461151123047,326.517578125,-49.08244705200195
7146,25.347171783447266,1.0583916902542114,237.2873077392578,-122.29473114013672
7147,26.783292770385746,-0.20569449663162231,233.95504760742188,-119.8675308227539
7148,56.79598999023438,30.00895690917969,276.49267578125,-88.1082992553711
7149,109.375244140625,84.44319915771484,325.6387023925781,-41.75224304199219
7150,34.023738861083984,6.369049549102782,242.85227966308597,-121.82350158691406
7151,27.53501319885254,1.0658714771270752,239.81173706054688,-123.700927734375
7152,63.25853729248047,34.53049468994141,276.11868286132807,-92.4615478515625
7153,110.81136322021484,88.57579040527344,322.3288879394531,-52.3847770690918
7154,32.8531494140625,6.679461479187013,239.79676818847656,-130.25697326660156
7155,34.35285186767578,8.235260009765625,244.0116424560547,-127.7549819946289
7156,59.72807312011719,37.93380355834961,275.19119262695307,-102.58171844482422
7157,109.77167510986328,93.76676940917969,327.25433349609375,-49.84912490844727
7158,34.19577407836914,2.341177463531494,240.01742553710938,-132.51213073730472
7159,32.598838806152344,0.3889496028423309,237.6089324951172,-132.96466064453122
7160,61.82615661621094,32.59322738647461,267.84976196289057,-101.60934448242188
7161,110.396240234375,82.23666381835938,323.5892333984375,-48.181129455566406
7162,31.73866081237793,-0.6470026969909668,238.9777374267578,-128.68621826171878
7163,28.21941566467285,0.7180607914924622,233.1771545410156,-137.0635986328125
7164,52.01639938354492,32.89242172241211,264.79800415039057,-101.26152801513672
7165,107.03406524658205,95.4310302734375,317.2052307128906,-55.18970489501953
7166,24.8011474609375,-2.457114219665528,227.52243041992188,-139.82737731933594
7167,24.51317405700684,5.243339538574219,230.5367889404297,-132.609375
7168,50.19132614135742,43.64837265014648,266.33511352539057,-102.08805084228516
7169,104.63678741455078,88.13074493408203,323.14044189453125,-50.22311782836914
7170,23.91852951049805,16.788410186767578,245.15231323242188,-127.9157943725586
7171,24.38975715637207,11.283278465270994,244.76710510253903,-129.77078247070312
7172,57.80950546264648,43.977481842041016,274.192626953125,-99.87776947021484
7173,104.16556549072266,92.8617172241211,325.1338195800781,-53.8807373046875
7174,36.40605545043945,8.265178680419924,243.86578369140625,-129.37809753417972
7175,36.74264526367188,6.911334991455077,243.8321228027344,-130.75064086914062
7176,62.02437210083008,34.26122283935547,271.97488403320307,-100.16574096679688
7177,110.89364624023438,83.8709945678711,323.9744567871094,-46.41589736938477
7178,31.353450775146484,-0.4600076973438263,234.84515380859372,-120.07696533203124
7179,27.056306838989254,-7.6219162940979,227.3503875732422,-126.67414855957031
7180,56.44443893432617,29.63122749328613,255.52679443359372,-97.89936065673828
7181,109.8389892578125,84.02433013916016,308.4052429199219,-48.07267379760742
7182,32.62875747680664,-2.45337438583374,226.11622619628903,-128.35710144042972
7183,30.71392822265625,-0.6544824838638306,229.7065277099609,-129.20231628417972
7184,53.31040573120117,36.770694732666016,265.17575073242193,-100.5172882080078
7185,104.96964263916016,86.77315521240234,318.39825439453125,-52.17908477783203
7186,26.88053131103516,4.3345441818237305,236.5243682861328,-128.876953125
7187,11.85735321044922,8.725186347961426,233.41650390625,-134.0828857421875
7188,47.74543380737305,42.56006240844727,271.00250244140625,-101.42982482910156
7189,101.8655242919922,97.51789093017578,323.4994812011719,-55.66841125488281
7190,34.91757583618164,11.477752685546875,245.2794647216797,-129.23597717285156
7191,31.08417892456055,13.201847076416016,245.2495422363281,-124.63590240478516
7192,58.2171516418457,37.8702278137207,275.2659912109375,-99.57483673095705
7193,111.22649383544922,94.54093170166016,329.3150329589844,-47.47803115844727
7194,32.838191986083984,12.524925231933596,249.0605010986328,-120.14802551269531
7195,31.80223846435547,11.560030937194824,245.68338012695312,-122.4518051147461
7196,59.35408401489258,33.79373550415039,278.62442016601557,-94.19686126708984
7197,111.05072021484376,85.80826568603516,328.970947265625,-47.84828186035156
7198,30.45961570739746,-1.911088824272156,237.8669891357422,-131.53228759765622
7199,21.05376625061035,-2.31125807762146,232.8555145263672,-127.3061981201172
7200,43.429588317871094,33.33746719360352,254.29263305664062,-98.9278335571289
7201,97.63943481445312,88.68798828125,309.4299621582031,-47.59770584106445
7202,21.371658325195312,-1.937268137931824,224.5604248046875,-130.64591979980472
7203,15.369118690490724,0.4525278806686402,224.4781494140625,-137.71434020996094
7204,43.22389221191406,34.350982666015625,253.01731872558597,-108.41221618652344
7205,102.1497573852539,87.12844848632812,314.6022644042969,-52.37730026245117
7206,26.67857551574707,8.717706680297853,233.70074462890625,-136.47268676757812
7207,24.51691436767578,7.771512031555176,232.1449432373047,-133.4957275390625
7208,53.81155014038086,32.327693939208984,269.27841186523443,-101.8748779296875
7209,113.7509307861328,90.43826293945312,325.4217834472656,-40.40587997436523
7210,36.97452163696289,10.07529067993164,244.3444976806641,-118.33043670654295
7211,33.612350463867195,1.7053943872451782,244.15750122070312,-122.3134307861328
7212,58.9987907409668,40.00571060180664,270.75567626953125,-96.82227325439452
7213,105.42591094970705,87.71561431884766,323.1441955566406,-44.15325927734375
7214,33.49267578125,11.81434440612793,244.02659606933597,-114.8261489868164
7215,28.234375,1.6679953336715698,238.3756103515625,-124.6807861328125
7216,59.19700622558594,32.181838989257805,271.4400634765625,-95.89851379394531
7217,112.01935577392578,85.79704284667969,324.61395263671875,-39.4372444152832
7218,32.59509658813477,13.777791023254395,243.0018768310547,-121.13536071777344
7219,29.14690971374512,3.6277029514312735,232.7844696044922,-126.92472839355469
7220,55.30002975463867,36.80061721801758,264.543701171875,-98.5875015258789
7221,109.36028289794922,85.45671081542969,320.60479736328125,-42.36184692382813
7222,33.036407470703125,5.400415420532227,240.7915954589844,-120.75762939453124
7223,25.193836212158203,5.684648036956787,236.64404296875,-125.22306823730469
7224,52.8354377746582,31.564756393432614,266.25283813476557,-92.8878936767578
7225,109.50988006591795,83.5306625366211,321.5584716796875,-35.84320068359375
7226,31.996713638305664,10.497899055480957,241.41241455078125,-113.93605041503906
7227,26.555160522460934,4.652435779571533,236.9432373046875,-121.3747100830078
7228,53.36276245117188,31.359060287475586,262.00430297851557,-95.29264831542969
7229,107.12008666992188,89.16295623779297,317.2089538574219,-48.1998291015625
7230,34.117237091064446,2.479553699493408,240.42507934570312,-119.041015625
7231,25.02554130554199,-3.4070489406585693,236.01947021484372,-125.91495513916016
7232,57.37941360473633,28.872028350830078,267.12423706054693,-93.39278411865234
7233,114.89533996582031,83.41472625732422,328.56329345703125,-41.464271545410156
7234,34.476268768310554,-0.44878798723220825,236.13916015625,-120.38738250732422
7235,26.895490646362305,-3.762339353561402,234.8563690185547,-128.45808410644528
7236,50.14457702636719,32.037853240966804,260.06515502929693,-97.38138580322266
7237,101.3550262451172,83.40911865234375,314.05810546875,-50.89068984985352
7238,26.87118148803711,-0.7498499155044556,233.87838745117188,-125.54283142089844
7239,21.814836502075195,-1.6773451566696167,235.9502868652344,-125.10526275634766
7240,51.09077453613281,31.742401123046875,261.8790283203125,-95.89664459228516
7241,104.87427520751952,88.16627502441406,318.1794738769531,-43.83723831176758
7242,31.84524726867676,5.219030380249023,239.0693664550781,-119.1663055419922
7243,22.7647705078125,6.741169452667236,238.06333923339844,-120.21347045898438
7244,51.54330062866211,35.64311599731445,267.41033935546875,-94.01547241210938
7245,114.040771484375,80.95948791503906,322.4466857910156,-40.96873474121094
7246,36.10125350952149,-2.7432165145874023,240.1913299560547,-118.69507598876952
7247,26.145641326904297,5.727656841278076,234.2748107910156,-120.34062957763672
7248,57.33640670776367,33.212181091308594,267.672119140625,-91.0833969116211
7249,110.2859115600586,87.32105255126953,326.3698425292969,-41.94858932495117
7250,34.810989379882805,10.60822582244873,246.0891571044922,-116.06592559814452
7251,27.01703643798828,-3.304201602935791,240.47930908203125,-129.86614990234378
7252,53.57032775878906,36.09938430786133,266.52023315429693,-100.91558837890624
7253,101.14185333251952,81.50550842285156,317.16595458984375,-55.32994842529297
7254,24.93391227722168,3.3191611766815186,238.53456115722656,-127.49505615234376
7255,23.55763053894043,0.6900115609169006,230.67703247070312,-128.72174072265622
7256,46.73379135131836,31.940614700317386,261.99868774414057,-102.57610321044922
7257,105.50631713867188,89.23213958740234,321.26861572265625,-48.78886413574219
7258,32.959739685058594,4.250396251678467,242.5624237060547,-123.25775146484376
7259,28.804710388183594,4.9460177421569815,238.28024291992188,-125.24363708496094
7260,53.4057731628418,42.33005905151367,262.43624877929693,-95.30574035644531
7261,105.7494125366211,87.44821166992188,316.93408203125,-46.7730598449707
7262,35.974098205566406,10.709203720092773,240.22872924804688,-121.91513061523438
7263,30.094974517822266,6.9057254791259775,238.5083770751953,-126.05146026611328
7264,57.58697891235352,36.69776916503906,271.6925048828125,-94.25482940673828
7265,113.84629821777344,94.8195571899414,327.1402587890625,-39.570011138916016
7266,34.71375274658203,16.521007537841793,248.6696929931641,-116.40625762939452
7267,24.260730743408203,3.891366004943848,244.01351928710938,-127.5661163330078
7268,49.6546516418457,36.40979766845703,267.78805541992193,-103.43254089355469
7269,106.46372985839844,83.14358520507812,322.1624755859375,-50.53165817260742
7270,30.483924865722656,2.4963831901550293,232.66665649414062,-127.9251480102539
7271,24.03633689880371,-2.956390857696533,227.9169769287109,-133.38914489746094
7272,43.74560928344727,32.658676147460945,256.34396362304693,-101.8692626953125
7273,95.60306549072266,86.5281982421875,306.7877197265625,-52.566162109375
7274,24.735698699951172,16.711742401123047,228.78463745117188,-125.41193389892578
7275,18.66584014892578,-3.973643779754639,225.2392120361328,-126.50398254394531
7276,49.815467834472656,30.609210968017575,253.91302490234372,-101.71218872070312
7277,103.1464385986328,86.15046691894531,320.0382080078125,-40.673282623291016
7278,29.76960372924805,8.5213623046875,237.154541015625,-111.97447204589844
7279,25.427579879760746,3.7268102169036874,229.4877471923828,-122.01610565185548
7280,50.12961959838867,30.710187911987305,266.06021118164057,-90.12223815917969
7281,106.90129852294922,83.05008697509766,318.55718994140625,-45.89792251586914
7282,42.7769775390625,-1.4417314529418943,245.7675323486328,-120.82682037353516
7283,29.51902961730957,-4.59072732925415,236.8403778076172,-128.40385437011722
7284,60.21612930297852,28.44754981994629,272.50033569335943,-101.97398376464844
7285,115.3684310913086,84.77418518066406,323.2208557128906,-50.96174621582031
7286,34.197647094726555,8.023955345153809,235.31076049804688,-124.67891693115234
7287,26.78516387939453,-5.73513650894165,234.7123870849609,-131.33219909667972
7288,54.202369689941406,30.478315353393555,261.32177734375,-95.1823272705078
7289,107.84749603271484,84.32913208007812,319.63055419921875,-42.539493560791016
7290,29.44797134399414,-1.404332399368286,230.5236968994141,-127.8840103149414
7291,23.55014991760254,-6.7449097633361825,224.37155151367188,-137.20758056640622
7292,46.56549453735352,29.82009315490723,253.86441040039062,-101.17364501953124
7293,100.80152130126952,88.41310119628906,311.0549621582031,-48.98707962036133
7294,22.536636352539066,4.695444583892822,232.38616943359372,-128.21685791015622
7295,22.91810607910156,-5.118052959442139,226.36866760253903,-130.92080688476562
7296,49.01512908935547,25.88571739196777,257.37619018554693,-100.13021087646484
7297,103.864501953125,83.34928131103516,312.15447998046875,-49.686439514160156
7298,24.55244255065918,6.326040744781494,231.81396484375,-126.85179901123048
7299,19.30910301208496,4.134459495544434,226.10687255859372,-128.79280090332028
7300,48.61122131347656,35.24668884277344,255.31175231933597,-98.97457885742188
7301,101.45974731445312,92.7738265991211,311.71319580078125,-45.359375
7302,30.71953773498535,6.0380682945251465,231.23802185058597,-118.69133758544922
7303,21.852235794067386,-1.808241605758667,226.5818328857422,-129.5931396484375
7304,45.55572128295898,28.294212341308594,256.17941284179693,-103.12213134765624
7305,105.92518615722656,87.38837432861328,310.7781982421875,-49.40968704223633
7306,29.833181381225586,8.147372245788574,223.7469940185547,-127.09488677978516
7307,21.02945709228516,3.0835475921630864,223.4066619873047,-136.12675476074222
7308,44.512290954589844,34.906356811523445,255.86524963378903,-99.68516540527344
7309,99.12979125976562,83.18846130371094,307.509521484375,-50.82337188720703
7310,21.67646026611328,4.874959468841553,234.525390625,-129.3350830078125
7311,19.716753005981445,-0.6189534664154053,231.6830596923828,-130.80487060546878
7312,48.69723892211914,27.16102409362793,261.4451904296875,-102.81546020507812
7313,108.19156646728516,86.1878662109375,322.2671813964844,-44.65253448486328
7314,32.50347137451172,12.175244331359865,243.6993560791016,-121.1821060180664
7315,24.4664249420166,7.881839275360107,236.6272125244141,-126.08137512207031
7316,53.50300979614258,32.74469375610352,266.20608520507807,-97.93115234375
7317,102.11422729492188,92.26520538330078,318.70306396484375,-44.50667953491211
7318,28.57283592224121,8.77193546295166,235.7483367919922,-116.3426742553711
7319,25.13212776184082,2.51882266998291,234.5852203369141,-123.6841049194336
7320,55.59735107421875,27.96510124206543,263.96588134765625,-96.8054428100586
7321,112.58969116210938,84.12718200683594,317.3230285644531,-47.43128204345703
7322,38.14323806762695,-0.35716044902801514,235.6324005126953,-121.65707397460938
7323,33.199092864990234,-4.87869930267334,232.7302398681641,-130.29624938964844
7324,57.14941024780274,25.799699783325195,264.14166259765625,-103.94864654541016
7325,109.463134765625,86.57307434082031,317.17718505859375,-49.04691696166992
7326,31.8377685546875,8.846733093261719,236.4290008544922,-128.02986145019528
7327,22.68249320983887,-0.12154674530029295,219.5059509277344,-138.47540283203122
7328,49.06374740600586,35.508480072021484,255.43142700195312,-103.09595489501952
7329,99.50003814697266,88.5402603149414,308.65020751953125,-47.04233169555664
7330,33.87975311279297,11.12059211730957,234.4917297363281,-119.3345947265625
7331,27.86225509643555,4.542108535766602,231.1519927978516,-126.98269653320312
7332,51.67045593261719,35.14944839477539,266.78201293945307,-96.30055236816406
7333,106.96862030029295,91.73413848876952,317.8503723144531,-52.76811981201172
7334,31.90882682800293,3.812828063964844,244.9110870361328,-119.84696197509766
7335,21.43336677551269,3.087287425994873,237.5434875488281,-131.41447448730472
7336,54.93539047241211,30.78124618530273,268.49862670898443,-99.04563903808594
7337,111.1909637451172,90.39524841308594,328.4529724121094,-45.00408554077149
7338,37.922584533691406,10.002362251281738,244.4361267089844,-117.0644760131836
7339,28.61397361755371,-6.456937313079834,237.8164978027344,-131.75106811523438
7340,58.52195358276367,31.02433967590332,269.04840087890625,-99.2401123046875
7341,111.14982604980469,83.12114715576172,321.605224609375,-43.048118591308594
7342,32.40249252319336,2.05507493019104,232.0383453369141,-119.9928207397461
7343,23.138761520385746,-4.070880889892578,225.17189025878903,-128.7479248046875
7344,50.918739318847656,25.10407829284668,251.8897399902344,-102.9687957763672
7345,112.06236267089844,85.67923736572266,312.6893005371094,-47.19940567016602
7346,33.520721435546875,10.219276428222656,233.7100830078125,-122.42375183105469
7347,28.479337692260746,10.230496406555176,231.40257263183597,-128.1607666015625
7348,45.90727233886719,34.42765045166016,259.75848388671875,-100.71737670898438
7349,99.04376983642578,84.2618179321289,316.70220947265625,-50.408241271972656
7350,28.11282730102539,14.688457489013672,240.26239013671875,-124.0094757080078
7351,17.626148223876953,5.783755302429199,228.1189422607422,-129.89607238769528
7352,44.38887405395508,37.139076232910156,264.5941772460937,-99.08303833007812
7353,98.1461944580078,98.50709533691406,318.5609436035156,-44.87318801879883
7354,30.356767654418945,11.808733940124512,243.27301025390625,-116.80642700195312
7355,19.271703720092773,8.876652717590332,232.4085998535156,-130.58421325683594
7356,52.08184814453125,38.81829071044922,259.42190551757807,-97.69927978515624
7357,112.81034088134766,89.07880401611328,320.4608154296875,-43.65772247314453
7358,39.03707504272461,2.2345902919769287,239.9706878662109,-116.46609497070312
7359,33.47958374023437,5.050734996795653,233.32113647460938,-123.41857147216795
7360,55.7880859375,29.79765319824219,263.79010009765625,-100.08159637451172
7361,111.43779754638672,80.73135375976562,323.6883544921875,-50.6363754272461
7362,38.85382080078125,7.750942707061768,248.000244140625,-121.74309539794922
7363,27.30875015258789,7.893058776855469,232.401123046875,-137.85832214355472
7364,56.03491973876953,33.42535400390625,263.6405029296875,-102.9538345336914
7365,109.06670379638672,90.4027328491211,320.42340087890625,-49.20025253295898
7366,29.32455635070801,10.402531623840332,234.947998046875,-121.95252990722656
7367,19.40260124206543,7.481669902801514,229.3568420410156,-129.91477966308594
7368,41.87939834594727,33.32811737060547,255.5847625732422,-103.80653381347656
7369,98.89791107177734,98.8773422241211,316.2758483886719,-50.99540710449219
7370,24.96383285522461,10.746602058410645,237.0572967529297,-126.43292999267578
7371,14.522031784057615,-0.7573297619819641,227.1016845703125,-132.71969604492188
7372,42.62363815307617,30.50823402404785,258.681396484375,-99.65150451660156
7373,98.75953674316406,88.38318634033203,311.4252014160156,-46.11857604980469
7374,36.46402359008789,4.9497575759887695,234.15887451171875,-117.004638671875
7375,31.56849479675293,2.107433557510376,230.22450256347656,-127.9251480102539
7376,53.34967422485352,28.37649154663086,254.6161346435547,-104.96590423583984
7377,106.28795623779295,85.87744903564453,309.12890625,-50.03425216674805
7378,33.34494781494141,5.58180046081543,231.2080993652344,-127.37538146972656
7379,23.64364814758301,-8.124932289123535,223.72080993652344,-137.55165100097656
7380,52.92706298828125,28.339092254638672,253.96539306640625,-105.71014404296876
7381,102.7387924194336,84.86019897460938,314.58917236328125,-58.33308792114258
7382,34.8895263671875,11.790034294128418,233.6689453125,-130.55429077148438
7383,20.07952308654785,5.046995162963867,226.8922576904297,-136.22024536132812
7384,41.733543395996094,29.82009315490723,261.12356567382807,-103.33904266357422
7385,97.25235748291016,87.26121520996094,313.02587890625,-51.62744903564453
7386,21.545562744140625,0.6189534664154053,233.77740478515625,-123.99825286865234
7387,9.417068481445312,-2.515082836151123,225.9497985839844,-131.99789428710938
7388,45.4996223449707,36.31629943847656,257.4808959960937,-98.12188720703124
7389,97.3982162475586,84.27677917480469,310.3892517089844,-45.39303588867188
7390,31.23190498352051,-0.7423701286315918,236.11859130859372,-120.25835418701172
7391,23.83064270019531,-7.926717758178711,230.09359741210938,-123.1268539428711
7392,54.29212951660156,23.080793380737305,262.66439819335943,-98.09196472167969
7393,114.1604461669922,70.85801696777344,317.08367919921875,-48.19422149658203
7394,47.20501708984375,-2.133612871170044,238.14187622070312,-123.20539093017578
7395,36.22467041015625,-12.246302604675293,224.6520538330078,-135.94723510742188
7396,59.39709091186523,21.379138946533203,255.5585784912109,-106.25242614746094
7397,106.1084442138672,78.92498016357422,313.66168212890625,-54.372535705566406
7398,34.481876373291016,-3.2967216968536377,235.2471923828125,-129.37248229980472
7399,24.99001121520996,-5.342447280883789,230.08612060546875,-138.94288635253906
7400,49.74066925048828,23.4809627532959,259.08905029296875,-108.02140045166016
7401,101.2802276611328,79.18677520751953,315.7934265136719,-54.98962020874024
7402,25.08350944519043,-0.9256252646446228,239.1441650390625,-129.22663879394528
7403,10.961647033691406,-2.705817699432373,230.6134490966797,-132.59254455566406
7404,42.00281524658203,33.690887451171875,262.84017944335943,-95.97144317626952
7405,94.69426727294922,85.12947082519531,314.5405578613281,-42.517051696777344
7406,30.124895095825195,8.768195152282715,239.20399475097656,-111.76129913330078
7407,24.148534774780273,-1.2584763765335083,229.0950469970703,-123.4896240234375
7408,54.30334854125977,25.11155891418457,258.505615234375,-96.39031219482422
7409,108.64783477783205,74.70262908935547,311.26812744140625,-50.50547790527344
7410,43.34543991088867,-5.428464889526367,229.4765167236328,-120.47526550292969
7411,26.123201370239254,-22.381431579589844,224.2032623291016,-137.9854736328125
7412,52.12672424316406,9.074867248535156,252.21511840820312,-115.94625091552734
7413,106.4712142944336,77.93390655517578,311.09234619140625,-61.81493759155274
7414,33.83861541748047,7.025402069091798,225.1157989501953,-136.36610412597656
7415,21.044416427612305,-14.88293170928955,219.9921417236328,-146.3927764892578
7416,49.08244705200195,22.22435569763184,253.8232727050781,-115.19452667236328
7417,96.94942474365234,84.2992172241211,312.1582336425781,-64.31693267822266
7418,25.6108341217041,10.98969554901123,236.0961456298828,-134.58590698242188
7419,12.674520492553713,-7.571427345275879,224.86895751953125,-140.1097412109375
7420,41.96167755126953,29.59195899963379,256.7740478515625,-104.36003875732422
7421,91.27225494384766,84.78913879394531,314.4470520019531,-47.9586067199707
7422,18.66209983825684,5.570580959320068,237.8613739013672,-112.74115753173828
7423,15.59164333343506,-1.9540977478027344,227.74868774414062,-118.60157775878906
7424,37.238182067871094,27.16102409362793,259.49295043945307,-86.72640991210938
7425,107.23040771484376,76.47908782958984,327.6339416503906,-25.44440841674805
7426,32.89616012573242,-3.524855613708496,240.1688995361328,-109.6146011352539
7427,16.859468460083008,-17.265247344970707,219.7826995849609,-127.86531066894531
7428,43.943824768066406,16.80150032043457,251.7401428222656,-106.7872314453125
7429,95.0869598388672,65.12474822998047,299.0648498535156,-59.69815444946289
7430,29.42553329467773,1.168718695640564,230.4077606201172,-126.16365814208984
7431,15.580423355102539,-12.638992309570312,218.6495056152344,-148.1580047607422
7432,44.474891662597656,16.995975494384766,247.46543884277344,-122.3863525390625
7433,95.43850708007812,77.14104461669922,304.50640869140625,-69.25733947753906
7434,25.33034324645996,2.6422393321990967,226.5070343017578,-141.38504028320312
7435,10.333343505859377,-6.733689785003662,218.0997467041016,-152.01010131835938
7436,36.26955032348633,25.94181632995605,254.68344116210938,-119.6150894165039
7437,86.22713470458984,89.12368774414062,313.28955078125,-65.74557495117189
7438,19.14828872680664,11.288887977600098,230.75369262695312,-137.42449951171878
7439,9.293651580810547,-1.7745825052261353,227.0699005126953,-143.2811737060547
7440,37.63087463378906,23.98958778381348,257.11251831054693,-117.18415832519531
7441,97.420654296875,75.9106216430664,311.4869079589844,-63.105201721191406
7442,31.602153778076172,-5.488303184509277,235.1967010498047,-129.36500549316406
7443,23.198598861694336,-16.016120910644528,225.37945556640625,-138.18370056152344
7444,52.3025016784668,18.783647537231445,254.34124755859372,-104.58069610595705
7445,103.43441009521484,66.87128448486328,308.1210021972656,-46.12979507446289
7446,32.944778442382805,-12.646471977233887,223.4272308349609,-130.46827697753906
7447,20.32261657714844,-19.98041534423828,214.1822052001953,-140.01998901367188
7448,43.562355041503906,11.154252052307127,242.10055541992188,-111.38731384277344
7449,99.3093032836914,72.03234100341797,298.1878356933594,-60.625648498535156
7450,23.72592544555664,-7.066541194915772,218.18389892578125,-138.21360778808594
7451,16.163846969604492,-9.602192878723145,211.1304473876953,-146.66204833984375
7452,42.47030258178711,21.801746368408203,239.66587829589844,-118.09668731689452
7453,94.709228515625,77.26820373535156,296.06732177734375,-71.31802368164062
7454,20.6816463470459,-0.577814519405365,224.27993774414062,-141.87496948242188
7455,1.9858869314193728,-5.955790519714356,211.98687744140625,-152.30929565429688
7456,25.83148956298828,32.56517791748047,242.149169921875,-119.54777526855469
7457,85.85314178466797,83.31562042236328,300.6972961425781,-62.83592987060547
7458,17.517690658569336,-1.6698653697967532,227.5149383544922,-130.2738037109375
7459,5.8118042945861825,-4.904878616333008,219.4741516113281,-137.18513488769528
7460,36.29573059082031,22.75542068481445,252.21324157714844,-103.62327575683594
7461,97.67122650146484,76.55014038085938,318.783447265625,-47.45746231079102
7462,26.620607376098636,5.503262996673584,245.5898742675781,-111.6191864013672
7463,14.46967315673828,-14.699676513671875,225.7497100830078,-130.74128723144528
7464,43.01258850097656,9.029988288879396,248.03952026367188,-109.6931381225586
7465,94.3277587890625,59.07733154296875,298.0419921875,-58.68838119506836
7466,29.08520126342773,-11.404825210571287,223.9994354248047,-133.99874877929688
7467,7.8388304710388175,-21.71198844909668,202.2593994140625,-156.04171752929688
7468,32.06216049194336,1.4604309797286987,227.30177307128903,-132.14749145507812
7469,88.7515640258789,73.22163391113281,286.5155944824219,-77.51129913330078
7470,17.525171279907227,-12.463216781616213,210.24034118652344,-152.85531616210938
7471,8.272658348083496,-19.38951110839844,199.6377258300781,-160.245361328125
7472,31.878908157348636,32.598838806152344,234.80026245117188,-127.861572265625
7473,86.76567840576172,80.66029357910156,293.5129699707031,-73.259033203125
7474,12.457606315612793,1.112620234489441,221.3815155029297,-142.04701232910156
7475,0.23561370372772214,-19.15763664245605,208.8790283203125,-153.2592315673828
7476,26.175559997558594,19.262353897094727,243.0729217529297,-113.29840087890624
7477,77.78617858886719,73.57318115234375,298.0943298339844,-58.49390411376953
7478,10.748472213745117,-7.649965286254883,222.2678680419922,-121.417724609375
7479,1.6642554998397827,-23.630558013916016,210.12440490722656,-131.31349182128906
7480,33.292591094970696,9.187064170837402,238.7496032714844,-99.04563903808594
7481,93.7106704711914,68.27000427246094,304.4521789550781,-44.24114608764648
7482,31.587194442749023,-16.67434310913086,229.51205444335938,-122.86132049560548
7483,21.990612030029297,-23.70535659790039,215.2480773925781,-139.64225769042972
7484,45.00969696044922,3.4463179111480717,241.55453491210938,-116.17063903808594
7485,91.75470733642578,56.511756896972656,296.411376953125,-61.23151016235352
7486,21.725078582763672,-12.328579902648926,227.4850311279297,-135.54705810546878
7487,4.18120813369751,-26.69353675842285,208.31430053710938,-150.45803833007812
7488,28.80097007751465,10.697983741760254,235.1031951904297,-123.53824615478516
7489,87.17707061767578,68.92448425292969,295.93267822265625,-73.14683532714844
7490,10.688633918762207,-11.457183837890625,222.29779052734372,-141.40748596191406
7491,-6.436367988586426,-15.260662078857422,210.2665252685547,-154.84495544433594
7492,19.301624298095703,23.080793380737305,244.64743041992188,-119.01296997070312
7493,75.08596801757812,84.2992172241211,297.1967468261719,-61.86355590820313
7494,6.470026969909668,-1.049041986465454,221.7180938720703,-129.0059814453125
7495,-6.8402771949768075,-16.494829177856445,204.0470733642578,-136.94952392578122
7496,16.006771087646484,8.981369972229004,232.7021789550781,-112.23252868652344
7497,82.22917938232422,62.03559112548828,290.8763427734375,-61.56062316894531
7498,15.546764373779295,-16.240514755249027,216.68418884277344,-131.59025573730472
7499,3.6576220989227295,-30.72140884399414,205.40464782714844,-147.11083984375
7500,42.10379409790039,9.695691108703613,242.56056213378903,-114.11743927001952
7501,98.36310577392578,57.02412414550781,300.14007568359375,-67.52202606201172
7502,26.302717208862305,-24.47577476501465,226.890380859375,-139.68339538574222
7503,14.21909999847412,-31.899477005004886,209.09593200683597,-153.30410766601562
7504,38.90991973876953,-0.9106656312942504,240.85890197753903,-125.6101531982422
7505,95.63298034667969,61.85607528686523,299.5528869628906,-68.46821594238281
7506,24.18967247009277,-9.557313919067383,231.9654235839844,-139.552490234375
7507,8.108102798461914,-32.33704376220703,211.82232666015625,-157.51524353027344
7508,31.47873878479004,9.508695602416992,241.44981384277344,-127.02383422851562
7509,83.29131317138672,67.85113525390625,296.0411376953125,-67.60056304931639
7510,16.104009628295902,-1.5015698671340942,225.37945556640625,-134.73176574707028
7511,-5.123662948608398,-11.842392921447756,214.1709747314453,-145.1137237548828
