,T7,F8,Cz,P4
6000,12.994282722473145,-59.48871994018555,188.34510803222656,-115.80599975585938
6001,44.596435546875,-20.459123611450195,225.03726196289062,-88.4486312866211
6002,100.9604721069336,39.61114883422852,289.5692443847656,-38.31901550292969
6003,81.89446258544922,19.09405899047852,268.93246459960943,-56.98859405517578
6004,18.480714797973636,-53.75171279907226,201.3076019287109,-120.75389099121094
6005,58.21341323852539,-22.127117156982425,241.1637115478516,-86.27949523925781
6006,115.32168579101562,32.05655288696289,310.8230895996094,-28.74861145019531
6007,96.8091812133789,7.866879463195801,287.5908203125,-56.60712432861328
6008,38.69487380981445,-54.0509033203125,228.17877197265625,-120.98576354980469
6009,70.26336669921875,-18.727548599243164,260.51022338867193,-81.45127868652344
6010,126.41049194335938,41.48857879638672,310.88665771484375,-24.47390556335449
6011,93.48440551757812,11.917191505432127,275.73907470703125,-52.62787246704102
6012,29.247886657714844,-64.27578735351561,207.23159790039062,-115.25249481201172
6013,55.98443222045898,-24.034467697143555,239.59669494628903,-82.9435043334961
6014,111.22649383544922,23.27526664733887,288.50335693359375,-34.57163619995117
6015,79.24286651611328,1.9316582679748533,251.6541290283203,-60.37320327758789
6016,15.309280395507812,-60.965980529785156,192.0924835205078,-124.41151428222656
6017,47.26298522949219,-28.02120018005371,226.2863922119141,-88.90863800048828
6018,111.39105224609376,37.88331604003906,289.7562255859375,-30.45400619506836
6019,84.23189544677734,8.947710990905762,260.37557983398443,-58.18910217285156
6020,13.626325607299805,-52.49884414672852,197.2647705078125,-122.69490051269531
6021,46.71321868896485,-16.831418991088867,237.2031555175781,-83.82611846923828
6022,102.03382110595705,38.279747009277344,302.5130310058594,-26.725324630737305
6023,81.80470275878906,16.064741134643555,277.1265869140625,-53.97423553466797
6024,28.06608009338379,-55.86101531982422,212.8414459228516,-119.3589096069336
6025,61.68777847290039,-26.06523323059082,249.5298614501953,-85.94664001464844
6026,117.35993194580078,37.17647552490234,306.6231689453125,-25.32286262512207
6027,90.69818115234376,3.270542621612549,267.2794189453125,-57.28778839111328
6028,29.98090744018555,-59.6794548034668,208.9444732666016,-118.6408462524414
6029,63.34081649780274,-30.407257080078125,243.6844024658203,-86.08876037597656
6030,116.46422576904295,26.168079376220703,292.2021179199219,-31.91443634033203
6031,88.47481536865234,1.4847402572631836,254.8255615234375,-63.10894012451172
6032,24.03259658813477,-59.36343383789063,188.84625244140625,-123.62425994873048
6033,54.9840087890625,-29.86310195922852,226.87728881835938,-88.7983169555664
6034,106.63202667236328,34.911964416503906,285.8630065917969,-27.62851142883301
6035,83.48578643798828,-1.6193766593933103,260.94778442382807,-55.34490966796875
6036,28.116567611694336,-49.99872207641602,201.6105194091797,-115.44884490966795
6037,60.6649169921875,-18.53494453430176,236.8628234863281,-89.93524169921875
6038,111.8978042602539,37.36907958984375,302.1352844238281,-28.15209770202637
6039,87.2219467163086,5.707087516784668,275.63436889648443,-59.07733154296875
6040,22.9704647064209,-60.496620178222656,212.36648559570312,-118.78483581542969
6041,58.56309509277344,-31.48995780944824,245.37109375,-87.30235290527344
6042,114.85606384277344,30.21839141845703,309.7684326171875,-29.99586677551269
6043,88.71416473388672,2.771265983581543,272.52651977539057,-65.78671264648439
6044,30.753196716308594,-66.02419281005861,207.42233276367188,-119.92176055908205
6045,64.09440612792969,-28.195106506347656,239.94076538085938,-90.7617645263672
6046,122.0329360961914,29.294635772705078,298.9563903808594,-33.346817016601555
6047,95.97331237792969,-5.5574913024902335,261.12728881835943,-66.2579345703125
6048,35.74970245361328,-61.49891662597656,204.68472290039062,-123.77759552001952
6049,60.75093460083008,-24.380407333374023,236.39907836914062,-92.3736572265625
6050,111.0525894165039,25.91750717163086,288.0209045410156,-39.52513122558594
6051,79.2559585571289,3.182654857635498,257.21160888671875,-69.09278106689453
6052,15.894575119018555,-53.63764572143555,195.5481414794922,-129.30143737792972
6053,49.34798049926758,-22.592735290527344,230.77052307128903,-86.5281982421875
6054,95.81997680664062,42.608680725097656,288.7801208496094,-35.54214096069336
6055,77.3448715209961,8.175421714782715,258.03439331054693,-57.95161819458008
6056,15.075536727905273,-55.94516372680664,194.7515563964844,-119.42809295654295
6057,48.71967697143555,-23.808202743530273,231.4175262451172,-86.90218353271484
6058,104.2422332763672,32.421192169189446,294.86492919921875,-30.493274688720703
6059,82.59194946289062,-6.12221622467041,260.0950927734375,-64.21968841552734
6060,27.33866882324219,-64.4796142578125,199.8789520263672,-121.14845275878906
6061,64.70401000976561,-29.36569404602051,238.4335784912109,-85.13320922851562
6062,117.44407653808594,27.17411231994629,293.9748229980469,-33.14486312866211
6063,99.78053283691406,-9.31609058380127,258.53927612304693,-67.578125
6064,32.653064727783196,-70.66915130615234,195.8735198974609,-127.41651916503906
6065,56.39395141601562,-36.0638542175293,230.89768981933597,-100.02549743652344
6066,114.55313873291016,20.704086303710934,294.4984130859375,-41.5334587097168
6067,89.34246826171875,-2.415975332260132,262.92617797851557,-70.38304901123047
6068,24.82545661926269,-58.37236022949219,197.7397308349609,-129.70159912109378
6069,53.07292175292969,-28.591535568237305,235.1574249267578,-89.49019622802734
6070,107.92229461669922,39.52700424194336,295.71014404296875,-30.25018119812012
6071,78.39952087402344,4.1774682998657235,262.31283569335943,-61.50452423095703
6072,17.095083236694336,-49.284400939941406,204.61366271972656,-115.32542419433594
6073,47.76974105834961,-19.290403366088867,237.67811584472656,-83.43529510498047
6074,103.5017318725586,37.499977111816406,293.30914306640625,-27.89030456542969
6075,83.10057830810547,1.7203539609909058,268.1508178710937,-61.78127670288086
6076,28.08664894104004,-49.51253509521485,204.8866729736328,-118.52304077148438
6077,53.58528518676758,-35.903038024902344,235.3743438720703,-88.8768539428711
6078,116.66617584228516,30.21839141845703,293.54473876953125,-32.38566207885742
6079,86.97885131835938,-9.7686185836792,255.53988647460938,-66.815185546875
6080,25.25180435180664,-64.63668823242189,200.91490173339844,-120.93153381347656
6081,52.02948760986328,-29.76212310791016,234.9853973388672,-88.77213287353516
6082,110.50656127929688,29.881799697875977,296.7872314453125,-34.15089797973633
6083,76.00225067138672,0.3702501058578491,267.87408447265625,-62.82844924926758
6084,16.24986457824707,-57.635597229003906,203.00177001953125,-122.18440246582031
6085,44.63196563720703,-26.27653694152832,232.53201293945312,-85.54833984375
6086,105.94762420654295,34.313583374023445,295.17535400390625,-31.016860961914066
6087,78.9530258178711,-1.3688033819198608,265.95925903320307,-63.4754524230957
6088,21.324909210205078,-64.19538116455078,205.49627685546875,-120.83055877685548
6089,56.70436477661133,-29.118860244750977,232.43104553222656,-87.46691131591797
6090,113.82759857177734,28.96178436279297,295.20526123046875,-32.505340576171875
6091,85.92420196533203,-8.717706680297853,264.15286254882807,-65.43141937255861
6092,28.46063804626465,-61.50639343261719,199.8789520263672,-121.6047134399414
6093,61.17354202270508,-27.806156158447266,235.0601959228516,-85.00605773925781
6094,113.98841094970705,25.53603744506836,292.7331848144531,-31.46938896179199
6095,83.79994201660156,-12.648341178894045,258.07928466796875,-66.81892395019531
6096,25.06106948852539,-67.68470764160156,195.84359741210938,-125.76348876953124
6097,47.373313903808594,-42.09257507324219,225.07839965820312,-95.0065460205078
6098,103.60270690917969,24.040077209472656,286.1060791015625,-37.41209030151367
6099,79.85808563232422,-2.371096611022949,251.6952667236328,-68.68887329101561
6100,15.647741317749025,-61.92900466918945,194.61317443847656,-122.7229461669922
6101,50.08100128173828,-27.24517059326172,227.5205535888672,-86.50201416015625
6102,103.183837890625,38.79772186279297,289.11669921875,-33.33559799194336
6103,79.86930084228516,-1.877429723739624,258.42709350585943,-66.96103668212889
6104,25.72677230834961,-60.92671203613281,201.12808227539062,-123.2465362548828
6105,58.39105987548828,-25.97734451293945,235.25466918945312,-93.42456817626952
6106,115.48062896728516,21.2688102722168,292.4339904785156,-34.24065399169922
6107,88.11578369140625,-2.2701191902160645,263.4647216796875,-59.96742630004883
6108,33.70023727416992,-62.72186279296875,205.55612182617188,-116.24169921875
6109,63.62317657470703,-32.88867950439453,238.9496917724609,-83.99628448486328
6110,118.32669830322266,22.78721046447754,299.2593078613281,-24.07560539245605
6111,87.97740936279297,-5.190980911254883,265.5179443359375,-56.80347061157226
6112,30.012697219848636,-70.06328582763672,208.9556884765625,-117.12805938720705
6113,60.41808319091797,-35.36823272705078,239.20025634765625,-87.93065643310547
6114,115.76112365722656,26.63182830810547,294.1618347167969,-33.72454833984375
6115,88.92359924316406,-7.045971393585205,259.44061279296875,-64.75823974609375
6116,26.45605278015137,-59.63644409179688,199.0823516845703,-121.91886901855469
6117,58.98570251464844,-21.990612030029297,233.69512939453125,-96.4277114868164
6118,108.8423080444336,19.35398292541504,289.98809814453125,-41.70175552368164
6119,83.16789245605469,-4.996506214141847,258.83847045898443,-67.67536163330078
6120,25.54725646972656,-56.1396369934082,201.68157958984372,-119.87688446044922
6121,52.3548583984375,-34.78107070922852,233.94944763183597,-93.76116180419922
6122,106.45999145507812,26.964677810668945,296.8994445800781,-28.69812202453613
6123,80.14979553222656,3.795998573303223,265.1776123046875,-61.2876091003418
6124,24.776836395263672,-57.65803909301758,207.4672088623047,-111.99691772460938
6125,56.75298309326172,-24.44024658203125,246.5529022216797,-77.5187759399414
6126,111.25080108642578,30.252050399780273,299.14337158203125,-19.456829071044922
6127,82.78268432617188,-3.1976144313812256,274.21694946289057,-54.20423889160156
6128,29.62000846862793,-55.93020248413086,215.0891265869141,-114.40541076660156
6129,61.7569694519043,-21.23141288757324,249.9263000488281,-78.39765167236328
6130,114.69898986816406,20.34879493713379,301.6117248535156,-30.373598098754886
6131,90.9543685913086,-8.624209403991701,268.82400512695307,-57.76836395263672
6132,25.364002227783203,-67.4490966796875,204.3556060791016,-120.31071472167969
6133,56.34159469604492,-31.942485809326172,238.5869140625,-87.14901733398438
6134,110.88055419921876,29.71724510192871,295.642822265625,-34.77545928955078
6135,87.09478759765625,-3.1639554500579834,264.268798828125,-67.29015350341797
6136,24.492605209350586,-68.34293365478516,202.83721923828125,-120.08258056640624
6137,51.59566116333008,-27.649080276489254,238.0034942626953,-86.90218353271484
6138,106.83024597167969,26.95719909667969,300.21673583984375,-29.42740249633789
6139,77.67024230957031,-9.286171913146973,258.21389770507807,-60.58824920654297
6140,14.327556610107422,-63.55960083007813,197.05532836914062,-119.86192321777344
6141,47.19379806518555,-29.71724510192871,227.1353454589844,-86.25518035888672
6142,105.37915802001952,27.36484718322754,290.7435607910156,-23.361284255981445
6143,75.037353515625,-2.150442361831665,257.1966552734375,-58.65098190307617
6144,24.6609001159668,-58.52569580078125,200.2192840576172,-109.74549102783205
6145,52.20526504516602,-35.94043731689453,234.4805145263672,-77.76560974121094
6146,106.70308685302734,30.75693702697754,298.3467712402344,-27.16850280761719
6147,80.55744171142578,-2.4122354984283447,266.310791015625,-58.1947135925293
6148,27.89591407775879,-68.30553436279297,205.4888000488281,-115.82656860351562
6149,59.86831665039063,-35.26725769042969,238.11569213867188,-83.23334503173828
6150,111.63601684570312,20.726526260375977,295.6203918457031,-30.418476104736328
6151,78.79595184326172,-2.6478490829467773,257.32382202148443,-62.23754501342773
6152,16.833290100097653,-66.06533050537111,190.7461242675781,-115.60591888427734
6153,48.43170547485352,-27.170373916625977,227.9282073974609,-83.59237670898438
6154,100.24053955078124,30.401647567749023,290.2499084472656,-29.69667625427246
6155,73.4703369140625,-5.434074401855469,258.68887329101557,-65.79792785644531
6156,20.92099952697754,-55.46645736694336,203.97789001464844,-115.77046966552734
6157,50.27173614501953,-38.45738983154297,234.1102600097656,-85.68671417236328
6158,112.6607437133789,22.734851837158203,294.85369873046875,-29.850011825561523
6159,82.9883804321289,1.6193766593933103,266.1761474609375,-61.41850662231445
6160,24.649681091308594,-66.15509033203125,206.6706085205078,-119.74598693847656
6161,53.17015838623047,-28.31478309631348,241.3843688964844,-90.91136169433594
6162,114.1604461669922,23.06396293640137,300.3326721191406,-31.60402488708496
6163,90.3559799194336,-5.804324626922607,270.73883056640625,-60.11328125
6164,30.09123420715332,-60.20864868164063,214.35610961914062,-118.59410095214844
6165,56.34907150268555,-27.630380630493164,242.14356994628903,-83.67839050292969
6166,117.32814025878906,26.7028865814209,305.5423583984375,-21.977521896362305
6167,83.77375793457031,-3.870796442031861,267.5374755859375,-54.54457092285156
6168,29.7658634185791,-55.89280319213867,208.5517883300781,-102.7107391357422
6169,55.83296585083008,-26.126941680908203,235.34068298339844,-78.39391326904297
6170,107.99335479736328,16.291004180908207,291.18487548828125,-20.19359016418457
6171,77.46454620361328,-15.905794143676758,251.62794494628903,-61.44094467163086
6172,23.65860748291016,-76.41737365722656,195.5668487548828,-118.68759155273438
6173,56.86517715454102,-42.8592529296875,231.4399719238281,-89.03766632080078
6174,115.59656524658205,16.777191162109375,287.519775390625,-32.52404022216797
6175,80.33305358886719,-15.87961483001709,253.37448120117188,-74.5081558227539
6176,23.3107967376709,-71.53306579589844,193.0723419189453,-127.33424377441406
6177,55.81052780151367,-32.11825942993164,227.50559997558597,-97.49732208251952
6178,108.28506469726562,32.36135482788086,289.47198486328125,-42.76014709472656
6179,76.82876586914062,-7.341423511505128,252.51055908203125,-73.37870788574219
6180,19.017391204833984,-59.40082931518555,200.53343200683597,-127.79798889160156
6181,54.37440490722656,-24.78805732727051,238.4971618652344,-93.0318832397461
6182,112.76546478271484,39.00715637207031,302.449462890625,-30.130504608154297
6183,74.85783386230469,3.7062408924102783,263.36376953125,-62.3721809387207
6184,18.669580459594727,-68.21577453613281,202.78858947753903,-113.11140441894531
6185,54.85685348510742,-25.03489112854004,237.1582794189453,-81.61770629882812
6186,112.50366973876952,24.55992317199707,296.334716796875,-25.38457107543945
6187,85.47541046142578,-11.148641586303713,261.47509765625,-60.73410415649414
6188,32.89242172241211,-70.93842315673828,199.75927734375,-121.36910247802734
6189,58.48081588745117,-46.77119064331055,228.60137939453125,-93.3348159790039
6190,119.01109313964844,15.778637886047365,288.8063049316406,-32.965347290039055
6191,86.26827239990234,-18.269411087036133,251.26144409179688,-69.39571380615234
6192,33.629180908203125,-67.62113189697266,199.90513610839844,-125.2511215209961
6193,61.43159484863281,-33.008358001708984,235.6062164306641,-88.92546844482422
6194,114.39605712890624,21.885894775390625,292.7855529785156,-41.15946960449219
6195,77.63284301757812,-0.2281339019536972,250.0684051513672,-76.46786499023438
6196,20.423593521118164,-65.20889282226561,187.3876800537109,-132.94035339355472
6197,47.67998504638672,-30.58116149902344,224.3079833984375,-101.6448745727539
6198,105.2669677734375,27.10305404663086,286.68951416015625,-34.09853744506836
6199,72.59146118164062,-8.856082916259766,254.5226287841797,-63.63252639770508
6200,13.19436740875244,-55.06254577636719,192.3842010498047,-119.08776092529295
6201,45.01343536376953,-21.960693359375,226.53321838378903,-90.1259765625
6202,102.93700408935548,34.99424362182617,287.01861572265625,-32.24728775024414
6203,72.490478515625,-5.684648036956787,249.7393035888672,-67.94837188720703
6204,23.961538314819336,-69.3975830078125,194.27658081054688,-123.85987854003906
6205,54.46790313720703,-25.41636085510254,229.65977478027344,-87.90821838378906
6206,112.09228515625,18.460145950317386,285.40673828125,-36.417274475097656
6207,78.66131591796875,-12.390288352966307,241.4778594970703,-70.14369201660156
6208,22.81338882446289,-67.13494110107422,187.90753173828125,-125.62510681152344
6209,52.19404220581055,-33.142993927001946,223.02145385742188,-94.55402374267578
6210,103.8271026611328,26.833782196044922,281.405029296875,-39.64480972290039
6211,69.23302459716797,-15.370988845825195,243.34780883789062,-75.03174591064453
6212,12.797937393188475,-72.7073974609375,186.20962524414062,-132.77580261230472
6213,46.655250549316406,-36.11247253417969,220.66905212402344,-99.31491088867188
6214,97.17382049560548,26.75898361206055,286.0425109863281,-34.891395568847656
6215,69.70425415039061,-7.173128128051758,249.61962890625,-71.36663818359375
6216,15.752458572387695,-62.53486633300781,191.1388092041016,-126.1786117553711
6217,48.9328498840332,-26.01100349426269,225.16441345214844,-92.45967864990234
6218,107.43236541748048,29.84814071655273,288.2303466796875,-34.61464309692383
6219,78.50050354003906,-5.250819683074951,253.0977325439453,-61.63916015625
6220,22.05792999267578,-69.17318725585939,195.0432586669922,-121.42146301269531
6221,46.84972763061523,-33.22153091430664,223.99757385253903,-87.76984405517578
6222,111.5387725830078,24.97505187988281,287.15325927734375,-31.14401626586914
6223,80.03759765625,-10.453020095825195,249.9786529541016,-73.54700469970703
6224,25.57717514038086,-64.64417266845703,191.6212615966797,-122.73416900634766
6225,60.32084655761719,-40.76865005493164,228.1488494873047,-96.12104034423828
6226,119.02605438232422,21.08555603027344,283.9145202636719,-40.06367874145508
6227,78.7922134399414,-13.41128158569336,250.17312622070312,-76.93909454345703
6228,25.25928497314453,-64.33375549316406,194.59446716308597,-125.18379974365234
6229,52.10802459716797,-28.06046867370605,224.91758728027344,-100.46680450439452
6230,109.64264678955078,28.94682502746582,285.9490051269531,-38.88935089111328
6231,76.7053451538086,-6.591573715209961,248.3087921142578,-76.52770233154297
6232,21.76995849609375,-59.77669143676758,198.47462463378903,-126.55260467529295
6233,53.8508186340332,-24.61041259765625,228.89871215820312,-100.08533477783205
6234,107.4585418701172,34.06488037109375,283.23944091796875,-41.858829498291016
6235,77.27007293701172,-4.856260299682617,244.9952392578125,-79.87865447998047
6236,21.710119247436523,-61.56062316894531,190.5909118652344,-135.43486022949222
6237,61.83550643920898,-22.822738647460934,230.7088165283203,-95.65354919433594
6238,119.1457290649414,44.63383483886719,288.8941955566406,-45.37433624267578
6239,84.36840057373047,-11.737675666809082,249.0642547607422,-82.42178344726562
6240,26.78516387939453,-57.656166076660156,188.8181915283203,-134.48118591308594
6241,57.54584121704102,-30.414735794067386,220.56246948242188,-97.22431182861328
6242,113.89491271972656,32.76713180541992,284.74664306640625,-36.6566276550293
6243,79.94409942626953,-13.312173843383787,249.4793701171875,-71.51249694824219
6244,23.441692352294922,-67.22657012939453,188.61997985839844,-127.8428726196289
6245,59.32603454589844,-41.36890411376953,220.7494659423828,-92.76634979248048
6246,121.83472442626952,24.28129959106445,282.5064392089844,-38.25730514526367
6247,87.25934600830078,-18.989341735839844,246.2181854248047,-79.11571502685547
6248,28.202585220336914,-67.49584197998047,187.9729766845703,-129.36126708984378
6249,59.63270568847656,-31.136537551879886,219.57139587402344,-96.70072174072266
6250,116.52406311035156,27.822986602783203,284.76531982421875,-38.84820938110352
6251,82.07210540771484,-0.9181454181671144,245.3692321777344,-75.97419738769531
6252,25.79034996032715,-64.00651550292969,194.35325622558597,-128.87507629394528
6253,51.04215621948242,-30.684009552001953,228.00860595703125,-98.44725799560548
6254,113.6780014038086,29.14690971374512,289.5898132324219,-34.285533905029304
6255,84.62645721435547,-2.0924739837646484,256.94796752929693,-71.32176208496094
6256,23.48283195495605,-52.78307723999024,194.91796875,-125.20623779296876
6257,55.40287780761719,-26.951589584350586,230.9556579589844,-93.96685791015624
6258,109.67630767822266,28.09599876403809,286.9643859863281,-38.73601531982422
6259,79.96653747558594,4.7029242515563965,254.22531127929688,-69.38075256347656
6260,22.39452171325684,-60.8575210571289,196.64581298828125,-122.73790740966795
6261,58.3760986328125,-33.836746215820305,228.40130615234372,-88.80579376220703
6262,115.77234649658205,25.597745895385746,291.13812255859375,-28.15209770202637
6263,85.77086639404297,-7.074020862579347,247.59446716308597,-63.81952285766602
6264,24.436506271362305,-75.5889892578125,187.23995971679688,-129.974609375
6265,57.863731384277344,-34.10601806640625,219.96408081054688,-100.5827407836914
6266,117.4552993774414,25.85579872131348,279.26766967773443,-37.995513916015625
6267,80.3592300415039,-13.40567111968994,239.9875030517578,-73.49464416503906
6268,23.05648231506348,-64.48896789550781,180.2538299560547,-126.99765014648438
6269,52.444618225097656,-32.41184234619141,217.2115173339844,-85.1668701171875
6270,109.19011688232422,28.4512882232666,280.48687744140625,-28.619585037231445
6271,81.06233215332031,-2.0139360427856445,244.24351501464844,-62.80974960327149
6272,18.961292266845703,-63.58765029907226,185.9048156738281,-122.6444091796875
6273,52.33990097045898,-23.08827209472656,222.8101501464844,-83.53253173828125
6274,116.3669891357422,33.00274658203125,288.22100830078125,-26.62995719909668
6275,80.12361907958984,-4.714143753051758,250.81451416015625,-65.25938415527344
6276,22.229965209960934,-51.0290641784668,192.23272705078125,-112.98424530029295
6277,50.59710693359375,-23.59689903259277,225.5477600097656,-87.41455078125
6278,112.54854583740234,30.971981048583984,288.2808532714844,-27.957622528076172
6279,82.08332061767578,-9.10478687286377,247.69171142578125,-66.57956695556639
6280,24.937652587890625,-63.04536437988281,191.4323883056641,-117.61798095703124
6281,56.19573593139648,-30.407257080078125,227.15591430664062,-84.92752075195312
6282,122.0703353881836,33.316898345947266,290.7641296386719,-24.501955032348636
6283,78.65757751464844,-9.269342422485352,250.90802001953125,-61.24273300170898
6284,21.328649520874023,-58.44528579711914,188.8892517089844,-117.00090026855469
6285,56.72306442260742,-28.57844543457031,227.5261688232422,-81.55413055419922
6286,110.7907943725586,32.711036682128906,288.9091491699219,-28.32787132263184
6287,82.65927124023438,0.4992766380310058,255.69883728027344,-62.01314926147461
6288,24.103654861450195,-52.05753707885742,196.3241729736328,-113.10392761230469
6289,56.20695495605469,-26.607519149780273,231.5914306640625,-83.99254608154297
6290,123.74581146240234,40.29555130004883,294.0926513671875,-28.29795265197754
6291,80.89403533935547,-8.64103889465332,251.88787841796875,-67.04705810546875
6292,24.627241134643555,-54.35757446289063,194.1625213623047,-116.75032806396484
6293,53.89196014404297,-14.565040588378904,221.9761505126953,-91.2890853881836
6294,115.23005676269531,43.11543655395508,285.6292419433594,-32.64745712280273
6295,78.3284683227539,2.8778529167175293,252.07485961914062,-61.72143936157226
6296,27.16289329528809,-49.491966247558594,192.1766357421875,-117.03829956054688
6297,63.10707092285156,-24.352357864379886,224.08544921875,-86.27761840820312
6298,115.3459930419922,32.823230743408196,285.8760681152344,-27.763147354125977
6299,80.33305358886719,-7.017922401428223,246.54730224609372,-65.61093139648439
6300,26.452312469482425,-61.35866928100586,188.3320159912109,-119.05784606933594
6301,60.23856735229492,-24.99188232421875,227.5523376464844,-81.96551513671875
6302,115.31233215332031,32.10517120361328,285.1804504394531,-29.5956974029541
6303,81.2418441772461,-3.1620852947235107,243.18885803222656,-69.86319732666016
6304,17.409235000610348,-52.22583389282226,187.23248291015625,-125.22868347167969
6305,51.47972106933594,-19.8831787109375,226.15362548828125,-92.05577087402344
6306,112.1147232055664,44.71611404418945,288.8567810058594,-33.27949905395508
6307,78.36585998535156,11.221570014953613,247.78146362304688,-72.8775634765625
6308,22.96298599243164,-49.23391342163086,195.19847106933597,-120.81185913085938
6309,54.9316520690918,-21.86532592773437,230.1553192138672,-87.48187255859375
6310,119.97972869873048,40.7518196105957,295.5137939453125,-26.1213321685791
6311,88.3887939453125,-6.868326187133789,254.22157287597656,-62.79853057861328
6312,33.191612243652344,-61.2464714050293,202.8540496826172,-114.0538558959961
6313,63.43618392944336,-29.82009315490723,229.1978912353516,-79.24286651611328
6314,120.89974212646484,24.67399024963379,285.7339782714844,-26.24848747253418
6315,81.38396453857422,-8.420384407043457,246.32290649414062,-64.08879852294922
6316,29.80326271057129,-64.21968841552734,191.3987274169922,-114.7158203125
6317,62.71812057495117,-31.955575942993164,227.76551818847656,-86.88348388671875
6318,118.62962341308594,28.09225845336914,289.6683349609375,-32.363224029541016
6319,82.90235900878906,-0.3945594429969788,250.1787414550781,-70.05393981933594
6320,21.590442657470703,-65.26686096191406,191.36880493164062,-121.37284088134766
6321,56.0760612487793,-23.80633354187012,223.3786163330078,-90.75801849365234
6322,111.20218658447266,42.19168090820313,283.5423889160156,-29.01227378845215
6323,71.33859252929688,3.693151235580444,246.46127319335938,-72.12583923339844
6324,18.11607551574707,-42.666648864746094,194.1213836669922,-118.953125
6325,52.7251091003418,-19.12397766113281,227.32794189453125,-92.2913818359375
6326,112.1371612548828,37.45696640014648,293.0267639160156,-32.108909606933594
6327,76.48843383789062,1.7671027183532717,251.3231506347656,-68.07553100585939
6328,27.06191635131836,-49.88839721679688,193.37713623046875,-119.14012145996094
6329,62.01502227783203,-29.39374351501465,233.13975524902344,-87.7773208618164
6330,120.5257568359375,38.24608612060547,294.92291259765625,-22.7703800201416
6331,82.83878326416016,-6.748649597167969,255.94940185546875,-65.00881195068361
6332,28.04176902770996,-56.852088928222656,195.2283935546875,-119.86192321777344
6333,61.85794448852539,-24.505695343017575,230.86962890625,-84.34783172607422
6334,123.30450439453124,33.41039657592773,289.1971130371094,-24.88342475891113
6335,83.95701599121094,-6.8533668518066415,248.5967559814453,-65.37158203125
6336,29.036582946777344,-57.68982696533203,188.49282836914062,-118.28368377685548
6337,56.46500778198242,-13.708602905273438,228.6369171142578,-86.67778778076172
6338,110.32331085205078,37.55794525146485,290.7716064453125,-29.027233123779297
6339,74.3342514038086,-4.796421527862549,249.0567626953125,-71.64713287353516
6340,16.354581832885742,-50.53913879394531,190.14959716796875,-123.33255004882812
6341,48.67479705810547,-19.7485408782959,218.21380615234372,-93.51058959960938
6342,104.1636962890625,45.58750915527344,281.9230041503906,-34.48000717163086
6343,68.45138549804689,5.753836154937744,248.56683349609372,-69.55278778076172
6344,18.916414260864254,-51.7620849609375,200.2323760986328,-126.77326202392578
6345,49.52749633789063,-17.007194519042972,230.5442657470703,-92.60179138183594
6346,106.83772277832031,46.36540985107422,287.5515441894531,-34.450088500976555
6347,76.97462463378906,1.0041631460189822,250.8968048095703,-73.56944274902344
6348,19.49983787536621,-49.05439758300781,201.14117431640625,-116.8213882446289
6349,54.08643341064453,-16.30783462524414,232.9527587890625,-75.49175262451172
6350,113.51344299316406,40.98369216918945,300.3158264160156,-18.27876091003418
6351,81.05859375,-0.921885311603546,256.562744140625,-58.11617660522461
6352,27.66777992248535,-52.38290786743164,203.5646209716797,-108.91897583007812
6353,59.95059585571289,-23.37998390197754,240.7429656982422,-72.12210083007812
6354,117.54131317138672,37.326072692871094,295.6185302734375,-16.558406829833984
6355,80.59110260009766,-4.908618927001953,255.10044860839844,-58.037635803222656
6356,25.019929885864254,-63.17251968383789,192.1280059814453,-119.24484252929688
6357,53.79098129272461,-25.956775665283203,228.7191925048828,-83.97010040283203
6358,116.56520080566406,26.08019256591797,292.5667724609375,-32.04159164428711
6359,78.14521026611328,-2.2084109783172607,252.6695098876953,-63.88310241699219
6360,19.81024932861328,-59.27554321289063,191.2154693603516,-126.81066131591795
6361,48.06145477294922,-22.931196212768555,228.4573974609375,-96.71194458007812
6362,107.06211853027344,40.037498474121094,290.648193359375,-38.70983505249024
6363,68.31301116943361,4.112020015716554,250.964111328125,-73.74895477294922
6364,19.5073184967041,-50.12775039672852,193.9456024169922,-126.23471069335938
6365,48.92911148071289,-20.51148223876953,230.2862091064453,-98.29766082763672
6366,116.071533203125,39.282039642333984,294.2759094238281,-36.74264526367188
6367,82.59943389892578,3.225663661956787,253.1669158935547,-69.86319732666016
6368,31.22816467285156,-45.64360809326172,202.1397247314453,-118.2088851928711
6369,66.05785369873047,-24.45333671569824,233.2706451416016,-83.50261688232422
6370,119.45240783691406,35.848812103271484,294.9602966308594,-20.69473648071289
6371,85.3370361328125,-5.39106559753418,258.0362548828125,-55.27011108398438
6372,36.69215774536133,-54.43985366821289,203.3140563964844,-110.71786499023438
6373,64.84612274169922,-23.1406307220459,237.9492645263672,-81.17639923095703
6374,116.4717025756836,32.42306137084961,302.0586242675781,-21.16222381591797
6375,78.84831237792969,-3.356560230255127,261.43209838867193,-62.07672882080078
6376,25.427579879760746,-62.71625137329102,204.90350341796875,-119.27849578857422
6377,59.34473419189453,-24.95448303222656,240.12962341308597,-84.83028411865234
6378,117.50391387939452,39.670989990234375,302.4961853027344,-30.01830673217773
6379,81.61583709716797,-0.10284724831581116,252.85276794433597,-75.30475616455078
6380,27.518184661865234,-46.17841339111328,194.91796875,-131.13772583007812
6381,59.61774444580078,-27.441516876220703,224.4033508300781,-97.2056121826172
6382,116.7746353149414,39.5662727355957,288.4192199707031,-38.04787063598633
6383,80.42280578613281,-0.5703347325325012,245.5861358642578,-79.14937591552734
6384,29.15999984741211,-55.40848922729492,190.9424591064453,-128.81150817871094
6385,65.26499176025389,-16.15823745727539,231.72607421875,-91.33770751953124
6386,127.3061981201172,38.76967239379883,293.18011474609375,-23.75023460388184
6387,83.00334167480469,-4.822600841522217,246.7305450439453,-64.68717956542969
6388,30.35302734375,-48.687889099121094,193.83714294433597,-113.00668334960938
6389,62.9537353515625,-14.602438926696776,228.0048675537109,-76.42298889160156
6390,123.90662384033205,48.47097396850586,292.93328857421875,-22.94989585876465
6391,83.6690444946289,8.001516342163086,254.1729431152344,-69.54531097412111
6392,25.23310470581055,-42.87234497070313,201.8367919921875,-115.5423355102539
6393,59.1278190612793,-18.83226585388184,238.00161743164062,-85.85875701904297
6394,117.16358947753906,40.73311996459961,297.3052062988281,-23.20420837402344
6395,83.9121322631836,-0.5366756319999695,254.6853179931641,-63.4829330444336
6396,35.057823181152344,-48.83748245239258,204.40609741210938,-113.9940185546875
6397,59.13529968261719,-19.269834518432614,234.9199523925781,-90.12972259521484
6398,118.5585708618164,48.75894546508789,293.9168701171875,-28.56722640991211
6399,77.61040496826172,8.947710990905762,254.0308380126953,-72.36893463134766
6400,26.261577606201172,-42.50209426879883,201.30198669433597,-120.4565658569336
6401,61.97388076782226,-1.3070950508117676,231.972900390625,-87.14527893066406
6402,122.94173431396484,41.61573791503906,296.00372314453125,-29.651796340942386
6403,85.5950927734375,5.398545742034912,257.62863159179693,-68.21390533447266
6404,39.23155212402344,-45.3294563293457,202.4800567626953,-119.13638305664062
6405,67.76699066162111,-7.896798610687256,230.4432830810547,-80.07312774658203
6406,121.41959381103516,47.03859329223633,297.4772644042969,-18.70137023925781
6407,78.42195892333984,2.32808780670166,253.87376403808597,-60.50971221923828
6408,24.619760513305664,-42.00094604492188,202.4800567626953,-106.663818359375
6409,51.71907806396485,-16.49856948852539,235.623046875,-81.19136047363281
6410,116.40812683105469,50.16140747070313,300.155029296875,-27.407855987548828
6411,80.460205078125,5.166671752929688,259.30410766601557,-70.40174865722656
6412,34.52301788330078,-46.18589401245117,205.46075439453125,-115.62835693359376
6413,62.33291244506836,-23.320146560668945,234.8152313232422,-87.2724380493164
6414,124.25069427490234,32.785831451416016,300.9254455566406,-28.51486778259277
6415,88.94603729248047,-2.298168420791626,256.09524536132807,-67.94463348388672
6416,42.268348693847656,-52.71575927734375,204.81375122070312,-118.0031967163086
6417,66.41314697265625,-19.89813804626465,230.7798767089844,-87.94935607910156
6418,120.29014587402344,33.982601165771484,287.9853820800781,-26.84313201904297
6419,77.24763488769531,-3.087287425994873,246.53233337402344,-70.36061096191406
6420,32.54834747314453,-49.46952819824219,197.3189849853516,-116.28658294677734
6421,60.18994903564453,-19.984155654907227,233.3304901123047,-83.76066589355469
6422,115.82096099853516,37.19143676757813,292.74627685546875,-25.56782531738281
6423,80.83045959472656,3.5622546672821045,253.5596008300781,-59.80661010742188
6424,22.443140029907227,-46.55988311767578,197.31524658203125,-113.42555236816406
6425,61.0351676940918,-23.462263107299805,234.20562744140625,-81.49803161621094
6426,113.92857360839844,39.45033645629883,298.37481689453125,-23.89235115051269
6427,79.28214263916016,-0.4656175374984741,259.27792358398443,-64.62360382080078
6428,35.27473449707031,-53.09722900390625,205.98434448242188,-115.39274597167969
6429,66.08403015136719,-22.332813262939453,237.4855194091797,-81.20257568359375
6430,120.02086639404295,37.09045791625977,299.23126220703125,-23.78015327453613
6431,83.67278289794922,-4.609426498413086,256.52908325195307,-64.25708770751953
6432,34.822208404541016,-51.53582000732422,205.2606658935547,-112.26805877685548
6433,63.82887268066406,-14.136821746826172,239.61538696289062,-77.22145080566406
6434,120.01338958740234,30.562461853027344,299.10223388671875,-22.9704647064209
6435,77.39723205566406,-11.343116760253904,253.598876953125,-66.51038360595703
6436,27.417205810546875,-52.37730026245117,198.96641540527344,-114.85980987548828
6437,58.57805252075195,-26.21669960021973,233.3809814453125,-82.11698150634766
6438,117.61237335205078,32.828842163085945,297.6623840332031,-25.71181297302246
6439,74.58856201171875,-7.584517002105713,248.8604278564453,-60.96784973144531
6440,21.803617477416992,-55.61979293823242,198.491455078125,-113.6817398071289
6441,60.36946487426758,-20.87238121032715,231.4848480224609,-73.53765106201172
6442,114.5007781982422,41.292236328125,292.7593688964844,-18.078676223754886
6443,79.8954849243164,1.0883108377456665,247.9927673339844,-60.111412048339844
6444,24.15601348876953,-46.09426879882813,200.017333984375,-106.06729888916016
6445,53.4581298828125,-17.562570571899414,229.0052947998047,-76.55200958251953
6446,115.27867889404295,40.46197891235352,294.90234375,-25.102209091186523
6447,80.7818374633789,0.36277028918266296,255.77923583984372,-63.61195755004883
6448,26.519630432128906,-43.44641876220703,197.05532836914062,-113.94353485107422
6449,52.3735580444336,-14.286417961120605,231.8812713623047,-84.77605438232422
6450,114.43720245361328,45.469703674316406,292.3031005859375,-27.26387023925781
6451,77.3673095703125,-2.064424753189087,249.42514038085938,-67.68096923828125
6452,35.86938095092773,-47.44437026977539,203.24859619140625,-115.79478454589844
6453,59.07172012329102,-18.864055633544922,238.71408081054688,-89.78003692626953
6454,124.49378967285156,40.46197891235352,302.3110656738281,-29.52276992797852
6455,83.53440856933594,6.795398235321045,254.6123962402344,-68.35041046142578
6456,27.21151161193848,-45.36124801635742,196.35597229003903,-113.73410034179688
6457,61.32313919067383,-16.335882186889652,233.1603240966797,-81.7990951538086
6458,121.04560089111328,35.17749786376953,296.6002502441406,-22.3421630859375
6459,76.39119720458984,4.9067487716674805,250.47232055664062,-64.01960754394531
6460,22.5478572845459,-54.82319259643555,195.2564392089844,-114.24646759033205
6461,58.95952224731445,-17.009065628051758,240.6326446533203,-80.54996490478516
6462,113.34514617919922,49.325538635253906,300.5308837890625,-25.9923038482666
6463,75.14955139160156,-1.2042478322982788,255.5922393798828,-67.30697631835939
6464,22.43939971923828,-48.1063346862793,200.75408935546875,-119.88623046875
6465,57.34388732910156,-16.477998733520508,237.68186950683597,-84.06172943115234
6466,116.39690399169922,55.53003311157226,297.9204406738281,-24.18219375610352
6467,74.33051300048828,2.1018238067626958,250.97720336914062,-67.22470092773439
6468,20.60310935974121,-47.83332061767578,199.68821716308597,-118.18083953857422
6469,62.13469696044922,-12.75679874420166,238.39244079589844,-82.31520080566406
6470,124.24695587158205,53.58528518676758,298.2308349609375,-20.247817993164066
6471,83.74384307861328,-6.9188151359558105,252.26373291015625,-63.94107055664063
6472,33.472103118896484,-50.94491577148438,203.17379760742188,-109.26117706298828
6473,65.16775512695311,-19.91122817993164,237.09469604492188,-77.23641204833984
6474,126.45349884033205,44.53472900390625,298.26824951171875,-20.04586410522461
6475,79.40181732177734,-2.7413465976715092,254.8704376220703,-66.20745086669922
6476,25.09098815917969,-51.06833267211914,202.7549285888672,-112.9823760986328
6477,54.93912887573242,-14.465932846069336,240.35215759277344,-78.91937255859375
6478,112.4774932861328,35.80206298828125,301.4396667480469,-16.575237274169922
6479,70.9870376586914,-11.960200309753418,250.9285888671875,-62.9649543762207
6480,22.102807998657227,-58.09560775756836,195.2190399169922,-119.22427368164062
6481,52.72137069702149,-28.655113220214844,229.865478515625,-92.21097564697266
6482,115.37965393066406,39.70651626586914,295.6016845703125,-31.99484443664551
6483,75.0971908569336,-11.799384117126465,247.40185546875,-74.52498626708984
6484,16.874427795410153,-63.3239860534668,196.08670043945312,-117.39171600341795
6485,58.05820846557617,-35.27099609375,226.70899963378903,-83.39228820800781
6486,117.92652893066406,36.99882888793945,293.32781982421875,-17.196060180664062
6487,76.64924621582031,-9.50308609008789,242.8728485107422,-64.53571319580078
6488,29.06650161743164,-53.28235626220703,193.02745056152344,-109.06670379638672
6489,57.65803909301758,-14.884801864624025,227.72250366210938,-77.55804443359375
6490,119.10833740234376,40.738731384277344,291.33447265625,-19.129589080810547
6491,71.37225341796875,-5.377975940704347,245.6777648925781,-64.56563568115234
6492,23.64738655090332,-63.697975158691406,195.40603637695312,-117.1299285888672
6493,55.27572250366211,-24.42154693603516,228.8930969238281,-83.55684661865234
6494,113.55458068847656,28.79348945617676,296.8620300292969,-25.289203643798828
6495,71.61534118652344,-12.345409393310547,246.6052703857422,-71.04688262939453
6496,19.91122817993164,-58.51073455810547,198.20721435546875,-122.42562866210938
6497,51.68541717529297,-27.869733810424805,229.8617248535156,-89.77629852294922
6498,107.62310028076172,33.393566131591804,288.0994567871094,-28.973005294799805
6499,65.64272308349611,-12.618422508239744,247.2410430908203,-71.46200561523438
6500,17.86924171447754,-54.00415420532226,188.9434814453125,-119.81891632080078
6501,54.37440490722656,-24.810495376586914,227.21762084960938,-82.48348999023438
6502,115.35347747802734,28.09786796569824,285.5899658203125,-23.01160430908203
6503,77.47576904296875,-6.600923538208008,244.55206298828125,-66.70111846923828
6504,27.30126953125,-63.49975967407226,190.87701416015625,-116.0303955078125
6505,63.11081314086914,-29.70976448059082,230.78175354003903,-78.85952758789062
6506,118.9961395263672,34.85586929321289,291.4691162109375,-17.809404373168945
6507,77.99561309814453,-16.36954116821289,244.64181518554688,-63.33894729614258
6508,31.987363815307614,-60.58263778686523,194.3775634765625,-116.56893920898438
6509,63.71293640136719,-19.552196502685547,229.1025238037109,-87.15088653564453
6510,122.19001007080078,41.273536682128906,293.9710998535156,-30.28196907043457
6511,72.79341125488281,-3.186394691467285,248.4265899658203,-78.25366973876953
6512,21.92703437805176,-54.12383270263672,196.3896331787109,-127.21269989013672
6513,57.42616271972656,-11.919060707092285,232.75267028808597,-89.97077178955078
6514,118.2182388305664,35.903038024902344,292.8266906738281,-33.84609603881836
6515,73.26090240478516,-10.954167366027832,244.92979431152344,-70.74768829345703
6516,23.3220157623291,-51.2291488647461,195.4022979736328,-120.39485931396484
6517,52.97942352294922,-20.561969757080078,231.1519927978516,-84.18141174316406
6518,119.4000473022461,38.6331672668457,293.9449157714844,-21.65402030944824
6519,72.25860595703125,-8.972020149230957,245.98443603515625,-62.98739624023438
6520,27.83607482910156,-58.90342330932617,194.7365875244141,-104.85931396484376
6521,59.75986099243164,-18.75933837890625,226.6304626464844,-71.9257583618164
6522,124.86778259277344,37.36534118652344,295.5306396484375,-13.482338905334473
6523,78.8931884765625,-9.525525093078613,244.0808258056641,-61.24085998535156
6524,24.70951843261719,-60.16751098632813,189.79244995117188,-111.29568481445312
6525,56.9511947631836,-22.514198303222656,221.85459899902344,-82.34137725830078
6526,117.04390716552734,23.75210380554199,286.2781066894531,-24.915212631225586
6527,76.88860321044922,-5.894082546234131,238.7589569091797,-71.35729217529297
6528,28.2699031829834,-51.54704284667969,199.02252197265625,-121.6327667236328
6529,54.75961685180664,-29.545209884643555,220.9757232666016,-96.01071166992188
6530,117.67969512939452,40.69385147094727,290.16387939453125,-38.412513732910156
6531,73.78074645996094,-6.286771774291992,234.7273406982422,-82.30023956298828
6532,25.73425102233887,-49.66961288452149,193.2817687988281,-124.50501251220705
6533,58.54065322875977,-20.311397552490234,226.39859008789062,-92.41666412353516
6534,122.27603149414062,44.942378997802734,297.2173156738281,-27.05443572998047
6535,80.58362579345703,-10.550257682800293,252.25999450683597,-65.94939422607422
6536,29.83692169189453,-42.0850944519043,201.34500122070312,-110.390625
6537,67.34812164306639,-22.38330078125,236.83290100097656,-78.04048919677734
6538,125.0248565673828,36.30320739746094,303.6163024902344,-13.833889961242676
6539,83.50448608398438,-3.6239631175994873,257.13681030273443,-60.80703353881836
6540,34.93814468383789,-51.31142807006836,207.92721557617188,-99.05873107910156
6541,64.32254028320311,-14.98203945159912,236.78428649902344,-67.56129455566406
6542,117.9153060913086,41.613868713378906,293.2754821777344,-13.456159591674805
6543,74.75312042236328,-7.913628101348878,237.64447021484372,-61.899085998535156
6544,20.995798110961914,-61.43533706665039,181.72921752929688,-115.8695831298828
6545,51.54330062866211,-21.010757446289066,215.89694213867188,-84.88076782226562
6546,108.8423080444336,42.93031311035156,278.89181518554693,-27.009557723999023
6547,71.67518615722656,2.6590688228607178,238.37374877929688,-75.48613739013672
6548,23.385595321655273,-54.53895950317383,196.81224060058597,-127.87091827392578
6549,56.53232955932617,-6.903855323791504,226.91842651367188,-97.21121978759766
6550,113.47230529785156,37.9599838256836,289.4346008300781,-38.12828063964844
6551,75.4786605834961,-4.031611919403076,241.0365447998047,-83.01455688476562
6552,26.39995384216309,-44.0634994506836,194.19430541992188,-123.06514739990234
6553,58.24146270751953,-9.940653800964355,228.5116271972656,-83.12301635742188
6554,116.34080505371094,51.21792984008789,292.9351501464844,-19.72049331665039
6555,81.67193603515625,2.3486571311950684,253.10894775390625,-58.17788314819336
6556,31.36280059814453,-57.403724670410156,199.13845825195312,-107.48846435546876
6557,60.51531982421875,-18.063716888427734,235.1499481201172,-71.42086791992188
6558,119.73663330078124,35.917999267578125,291.9141540527344,-11.870442390441895
6559,74.697021484375,-6.260592460632324,243.9312286376953,-62.88641738891602
6560,29.16374015808105,-47.16013717651367,194.0821075439453,-108.01953125
6561,53.59650802612305,-8.265178680419924,225.0746612548828,-78.88197326660156
6562,116.80829620361328,36.59118270874024,284.8606872558594,-25.55847549438477
6563,66.37574768066406,-9.364709854125977,240.0716552734375,-79.5925521850586
6564,23.864301681518555,-53.92187881469727,188.995849609375,-125.60079956054688
6565,52.93080520629883,-24.526264190673828,224.0461883544922,-92.04641723632812
6566,117.02520751953124,41.2623176574707,286.47259521484375,-34.32480239868164
6567,69.03107452392578,-7.894928932189941,238.0932464599609,-82.87618255615234
6568,25.023670196533203,-52.15290451049805,194.60943603515625,-126.85366821289062
6569,54.24724960327149,-7.39752197265625,228.5303192138672,-94.30157470703124
6570,116.78585815429688,52.80738830566406,287.168212890625,-28.00811004638672
6571,77.93951416015625,6.95621395111084,246.11534118652344,-70.31759643554689
6572,34.34350204467773,-32.963478088378906,204.4565887451172,-112.01374053955078
6573,70.31759643554689,-7.438661098480225,239.525634765625,-73.93408203125
6574,128.55532836914062,53.80220031738281,303.612548828125,-9.140315055847168
6575,84.60401916503906,1.2678260803222656,254.7021484375,-51.61809921264648
6576,35.244815826416016,-50.28669357299805,208.96316528320312,-99.9301300048828
6577,65.68012237548828,-11.907841682434082,239.23765563964844,-66.79835510253906
6578,121.22137451171876,30.81677627563477,285.40673828125,-13.658114433288574
6579,71.12915802001953,-10.01545238494873,232.7863311767578,-65.75865936279297
6580,22.790950775146484,-52.81112670898438,187.4213409423828,-108.66653442382812
6581,51.12443161010742,-21.14165496826172,224.18081665039062,-82.39747619628906
6582,109.72492218017578,44.34773254394531,286.4538879394531,-30.521324157714844
6583,62.63958358764648,-10.067811012268066,236.14849853515625,-77.65528106689453
6584,17.682247161865234,-60.18994903564453,193.1359100341797,-125.76909637451172
6585,49.392860412597656,-18.430227279663086,223.16357421875,-93.06366729736328
6586,109.9306182861328,46.72631072998047,290.3321838378906,-35.17749786376953
6587,64.49083709716797,0.5497652888298035,244.00228881835938,-80.75566101074219
6588,23.68478584289551,-40.2600212097168,195.2527008056641,-122.69490051269531
6589,53.98545455932617,-7.71915340423584,230.16839599609372,-88.3252182006836
6590,120.21160125732422,53.07666015625,301.7762756347656,-26.16434097290039
6591,80.88655853271484,2.3972759246826167,254.07383728027344,-68.32797241210939
6592,31.99484443664551,-45.93345260620117,201.00840759277344,-109.5267105102539
6593,66.61135864257811,-9.619022369384766,238.1605682373047,-71.42086791992188
6594,125.567138671875,38.52470779418945,298.6197814941406,-14.955860137939453
6595,83.54936218261719,-10.509119033813477,250.5957336425781,-53.398292541503906
6596,37.31672286987305,-57.12697219848633,201.0458068847656,-105.20712280273438
6597,65.03311920166016,-22.529157638549805,236.15597534179688,-71.46575164794922
6598,118.6632843017578,40.5592155456543,295.7438049316406,-17.693466186523438
6599,72.30348205566406,-7.1357293128967285,241.90794372558597,-67.22470092773439
6600,26.63930702209473,-53.439430236816406,201.93963623046875,-117.3730239868164
6601,56.93997573852539,-11.765725135803224,235.00782775878903,-84.7723159790039
6602,118.96995544433594,39.04081726074219,301.3162536621094,-27.544363021850586
6603,79.8954849243164,-4.615036487579347,253.61756896972656,-73.26837921142578
6604,27.40224647521973,-43.70072937011719,199.19081115722656,-114.73638916015624
6605,55.27946090698242,-28.77853012084961,230.4077606201172,-80.71077728271484
6606,119.9049301147461,35.89181900024414,295.41094970703125,-16.44059944152832
6607,72.97293090820312,-0.4600076973438263,250.57704162597656,-64.47213745117189
6608,28.045509338378906,-48.30080795288086,206.8837890625,-114.21280670166016
6609,64.79002380371094,-17.110042572021484,243.6470031738281,-81.35404205322266
6610,123.46157836914062,43.43145751953125,301.1891174316406,-25.81278991699219
6611,72.12397003173828,-5.579930782318115,248.69960021972656,-73.73587036132812
6612,26.46727180480957,-50.55222702026367,199.0412139892578,-119.71045684814452
6613,60.2123908996582,-19.944887161254886,236.5224914550781,-83.19033813476562
6614,124.81542205810548,39.12309265136719,304.57745361328125,-20.015945434570312
6615,77.12421417236328,-9.63398265838623,250.95103454589844,-72.15763092041016
6616,29.242277145385746,-60.80329513549805,197.49664306640625,-125.30535125732422
6617,60.070274353027344,-31.28800392150879,225.76654052734372,-87.9063491821289
6618,122.65375518798828,46.49443435668945,290.4331359863281,-23.71844482421875
6619,71.88087463378906,-19.38016128540039,236.3504638671875,-80.92395782470703
6620,32.81762313842773,-54.86433410644531,189.0332489013672,-118.42393493652344
6621,58.3461799621582,-21.661500930786133,224.22195434570312,-81.37648010253906
6622,118.49498748779295,46.52435684204102,293.9336853027344,-18.254451751708984
6623,73.11878204345703,-6.058638095855713,246.10784912109372,-61.11370468139648
6624,27.21151161193848,-48.14373397827149,199.8303375244141,-101.42982482910156
6625,56.408912658691406,-14.608049392700195,238.05210876464844,-73.5339126586914
6626,112.3578109741211,43.5810546875,302.5429382324219,-11.795644760131836
6627,71.99681091308594,-3.9044556617736816,255.1733703613281,-64.861083984375
6628,30.943931579589844,-55.05506896972656,208.80235290527344,-107.40992736816406
6629,64.67034912109375,-23.30331611633301,247.17372131347656,-76.87364196777344
6630,127.02196502685548,43.91016387939453,310.5500793457031,-16.204986572265625
6631,81.481201171875,-9.151535034179688,261.41152954101557,-58.71268844604492
6632,35.52904891967773,-52.06688690185547,218.8926086425781,-105.3268051147461
6633,69.00676727294922,-23.74088478088379,248.82676696777344,-72.7672348022461
6634,125.77096557617188,36.314430236816406,298.6534423828125,-17.061424255371097
6635,80.92208862304688,-13.385102272033693,247.7833251953125,-64.180419921875
6636,31.82093811035156,-55.305641174316406,195.37985229492188,-109.8259048461914
6637,59.11098861694336,-17.742084503173828,219.3264312744141,-79.62995147705078
6638,118.07424926757812,41.99159622192383,289.5430603027344,-16.27978515625
6639,71.06745147705078,-6.484986305236816,244.6605224609375,-62.19827651977539
6640,21.72320938110352,-51.9621696472168,193.2780303955078,-112.62334442138672
6641,55.84231567382813,-19.080968856811523,227.9356842041016,-80.04508209228516
6642,115.4376220703125,49.78554916381836,300.54583740234375,-23.389333724975586
6643,70.10629272460939,-13.523478507995605,243.3590240478516,-70.22409820556639
6644,18.54055404663086,-51.30768585205078,196.7673492431641,-114.81492614746094
6645,56.02556991577149,-12.334190368652346,230.77426147460938,-88.16814422607422
6646,114.47647094726562,45.99702835083008,292.28814697265625,-30.016437530517575
6647,71.51249694824219,-4.7982916831970215,238.6841583251953,-77.22145080566406
6648,29.382524490356445,-49.3143196105957,191.6623992919922,-118.6408462524414
6649,69.35831451416016,-18.127294540405273,231.8476104736328,-78.2125244140625
6650,131.13398742675778,39.77009582519531,293.7130432128906,-15.984332084655762
6651,75.95923614501953,-16.451820373535153,243.9648895263672,-68.61968231201172
6652,37.131595611572266,-56.491188049316406,198.43161010742188,-105.56989288330078
6653,65.35288238525389,-20.49839210510254,232.63299560546875,-74.68954467773438
6654,128.13458251953122,32.301517486572266,303.21240234375,-15.823516845703125
6655,76.6922607421875,-10.449280738830566,248.70709228515625,-60.57516098022461
6656,31.93687629699707,-58.925865173339844,199.2992706298828,-108.09059143066406
6657,60.33767700195313,-17.349395751953125,235.0265350341797,-72.23616790771484
6658,121.15966796875,37.197044372558594,299.30419921875,-12.274352073669435
6659,76.7520980834961,-7.367602825164795,250.3339385986328,-66.66371917724611
6660,27.91648292541504,-51.47972106933594,199.8901672363281,-116.62129974365234
6661,62.14030838012695,-9.850896835327148,234.12147521972656,-85.71476745605469
6662,119.48045349121094,52.59795379638672,294.5844421386719,-22.91436767578125
6663,77.0924301147461,-4.712274074554443,241.65737915039062,-73.26090240478516
6664,28.0698184967041,-44.325294494628906,200.0435028076172,-112.8178253173828
6665,65.70817565917969,-14.458453178405762,233.09674072265625,-70.16799926757811
6666,119.36077880859376,47.72860336303711,293.2754821777344,-11.87418270111084
6667,73.38992309570312,-19.107149124145508,244.7390594482422,-53.90317916870117
6668,32.060291290283196,-49.553672790527344,198.1137237548828,-99.35417938232422
6669,62.764869689941406,-19.540977478027344,227.92446899414062,-66.97039031982422
6670,115.8003921508789,34.661392211914055,285.5675354003906,-10.33708381652832
6671,69.01424407958984,-10.886848449707033,233.0369110107422,-63.43618392944336
6672,26.57011985778809,-56.78290176391602,188.85372924804688,-112.87017822265624
6673,55.89093399047852,-19.948625564575195,219.1319580078125,-78.50424194335938
6674,112.4644012451172,39.50830459594727,285.6124267578125,-23.64738655090332
6675,66.12329864501953,-4.270965576171875,230.72564697265625,-76.2416000366211
6676,20.818153381347656,-46.2812614440918,188.3226623535156,-124.24321746826172
6677,49.36106872558594,-17.476552963256836,220.54563903808597,-93.68075561523438
6678,115.37030029296876,55.960121154785156,282.4858703613281,-29.459192276000977
6679,70.52890014648438,-18.4040470123291,234.67872619628903,-79.6561279296875
6680,27.744447708129886,-48.76081466674805,192.3804473876953,-116.6512222290039
6681,62.01314926147461,-19.55593681335449,225.52345275878903,-81.47371673583984
6682,130.17657470703122,41.18751907348633,291.1100769042969,-16.17880630493164
6683,80.67899322509766,-14.09194278717041,242.8952789306641,-70.45597839355469
6684,39.79814529418945,-60.10393142700195,193.7455139160156,-109.57532501220705
6685,71.17216491699219,-24.09243583679199,233.0705718994141,-71.74250030517578
6686,123.73271942138672,34.42203903198242,293.0548095703125,-10.524078369140623
6687,72.45121002197266,-19.9187068939209,237.5210418701172,-62.69568252563477
6688,34.16211700439453,-56.1583366394043,197.2647705078125,-103.0828628540039
6689,60.0908432006836,-14.978299140930176,220.04449462890625,-78.37708282470703
6690,119.24484252929688,32.959739685058594,279.99508666992193,-23.89422035217285
6691,72.79528045654297,-17.884201049804688,233.51934814453125,-77.95447540283203
6692,29.954729080200195,-60.85191345214844,188.83502197265625,-116.44552612304688
6693,61.48582458496094,-16.908086776733402,223.0775451660156,-84.73491668701172
6694,117.07943725585938,44.171958923339844,288.8212585449219,-20.07952308654785
6695,69.28351593017578,-13.201847076416016,229.71212768554688,-69.779052734375
6696,22.90875625610352,-46.9918441772461,189.8784637451172,-108.81238555908205
6697,56.3098030090332,-16.885648727416992,228.91554260253903,-78.86701202392578
6698,118.93817138671876,41.550289154052734,288.43231201171875,-30.738237380981445
6699,82.27593231201172,-7.81265115737915,247.22608947753903,-81.4176254272461
6700,39.229679107666016,-48.73463821411133,206.3714141845703,-120.55193328857422
6701,69.44807434082031,-11.503931999206545,240.79345703125,-76.94844055175781
6702,132.86929321289062,47.45185089111328,302.273681640625,-19.26048469543457
6703,78.2779769897461,1.7801923751831057,246.2462310791016,-73.59001159667969
6704,31.757360458374023,-59.56912612915039,192.75070190429688,-115.1066436767578
6705,57.19990158081055,-31.168325424194336,223.9751281738281,-77.96943664550781
6706,124.0655746459961,34.08544921875,288.8249816894531,-16.358322143554688
6707,71.47509765625,-20.33383560180664,228.3022003173828,-66.07655334472656
6708,31.559144973754886,-62.45632934570313,183.41217041015625,-106.49365234375
6709,58.63228225708008,-26.56450843811035,219.2927703857422,-78.1938247680664
6710,118.0854721069336,32.32395553588867,281.7752685546875,-16.377021789550778
6711,72.05477905273438,-14.53325080871582,230.2431945800781,-70.3998794555664
6712,22.19443702697754,-51.25159072875977,189.4221954345703,-113.04969787597656
6713,55.03823852539063,-20.075782775878906,225.6094665527344,-79.42051696777344
6714,113.55644989013672,41.6737060546875,284.56524658203125,-27.41346740722656
6715,68.42333984375,-11.58994960784912,236.32801818847656,-78.09284973144531
6716,29.4087028503418,-51.801353454589844,199.06739807128903,-123.48027801513672
6717,60.434913635253906,-8.92340087890625,230.77426147460938,-96.04063415527344
6718,120.7744598388672,36.46776580810547,294.6106262207031,-36.23588943481445
6719,75.92557525634766,-17.581270217895508,239.76498413085938,-89.63792419433594
6720,31.24873352050781,-42.93405151367188,197.8070526123047,-121.63650512695312
6721,61.37736892700195,-15.023178100585938,228.69114685058597,-83.20903778076172
6722,121.64585876464844,43.315521240234375,285.4478759765625,-22.039230346679688
6723,73.10569763183594,-9.570404052734377,227.9506378173828,-67.99512481689453
6724,29.98090744018555,-55.29067993164063,189.91212463378903,-110.4130630493164
6725,59.440101623535156,-16.291004180908207,228.4256134033203,-71.7088394165039
6726,117.6666030883789,40.25628280639648,291.26715087890625,-21.0631160736084
6727,67.69779968261719,-15.715059280395508,232.5395050048828,-66.58143615722656
6728,20.941570281982425,-57.975929260253906,189.18658447265625,-109.2237777709961
6729,51.44793319702149,-17.181100845336914,219.9659576416016,-73.35065460205078
6730,113.2086410522461,34.893264770507805,280.32794189453125,-17.053943634033207
6731,68.11293029785156,-14.084463119506836,233.0032501220703,-74.5549087524414
6732,27.942663192749023,-53.47309112548828,191.43052673339844,-121.47943115234376
6733,56.16020584106445,-25.45375823974609,225.8226318359375,-94.42499542236328
6734,120.6772232055664,41.04540252685547,291.2821044921875,-36.95769119262695
6735,71.47509765625,-8.915921211242676,238.96090698242188,-84.37588500976562
6736,28.746740341186523,-49.42651748657226,198.24835205078125,-124.32549285888672
6737,59.79912948608398,-16.620115280151367,230.09735107421875,-87.21820831298828
6738,121.82910919189452,43.450157165527344,292.0113830566406,-32.140701293945305
6739,72.82894134521484,-18.21331214904785,238.1830139160156,-76.61184692382812
6740,31.80971908569336,-49.51627731323242,196.52426147460938,-113.8051528930664
6741,55.87971496582031,-18.40030860900879,224.2743225097656,-83.57928466796875
6742,114.66720581054688,39.56814193725586,285.148681640625,-23.052743911743164
6743,65.77175140380861,-9.596583366394043,230.65084838867188,-70.7813491821289
6744,20.459123611450195,-58.15544509887695,184.60519409179688,-114.3998031616211
6745,49.03569793701172,-25.23684501647949,220.16416931152344,-80.3554916381836
6746,111.04698181152344,36.84175491333008,284.5016784667969,-25.805309295654297
6747,62.39462280273438,-16.80337142944336,233.27252197265625,-74.98873138427734
6748,24.68520927429199,-56.1171989440918,197.0852508544922,-121.3672332763672
6749,56.893226623535156,-20.438552856445312,226.04702758789062,-91.39193725585938
6750,119.3121566772461,37.62713241577149,291.5326843261719,-35.719783782958984
6751,70.37931060791016,-18.692020416259766,232.38243103027344,-90.50557708740234
6752,32.53525924682617,-54.98027038574219,194.6617889404297,-125.7840576171875
6753,60.434913635253906,-23.20607948303223,225.7216644287109,-94.60076904296876
6754,116.02104949951172,34.122848510742195,287.8414001464844,-37.05867004394531
6755,67.64170074462889,-14.92594051361084,230.8827209472656,-85.26597595214844
6756,23.03217315673828,-55.32807922363281,188.7976226806641,-124.77428436279295
6757,53.09349060058594,-24.960092544555664,227.2288360595703,-89.18913269042969
6758,111.31251525878906,41.10523986816406,289.89459228515625,-28.09786796569824
6759,62.682594299316406,-17.970218658447266,234.0391998291016,-74.6371841430664
6760,21.293121337890625,-60.81451416015625,188.5283508300781,-114.60175323486328
6761,50.24368667602539,-28.019330978393555,221.73492431640625,-86.61981964111328
6762,110.88990020751952,37.728111267089844,286.8204040527344,-17.622407913208008
6763,59.3391227722168,-22.75729179382324,231.83639526367188,-80.22085571289062
6764,23.71283531188965,-62.8826789855957,187.5634613037109,-116.54650115966795
6765,50.6588134765625,-28.464378356933594,223.3692626953125,-86.02891540527344
6766,116.4586181640625,30.36424827575684,283.64898681640625,-25.54725646972656
6767,66.38883209228516,-19.1557674407959,233.73252868652344,-82.33015441894531
6768,24.501955032348636,-61.89160537719727,188.4834747314453,-119.62069702148438
6769,66.64315032958984,-28.75983047485352,220.0631866455078,-89.67157745361328
6770,121.44763946533205,37.14468765258789,283.6040954589844,-35.98531723022461
6771,71.02631378173828,-4.951627731323242,234.0541534423828,-79.27091979980469
6772,28.110958099365234,-56.06110000610352,190.20008850097656,-126.01966857910156
6773,52.72323989868164,-18.06745719909668,224.53985595703125,-91.87812042236328
6774,112.80099487304688,41.63630676269531,288.72027587890625,-32.563308715820305
6775,58.32561111450195,-16.358322143554688,232.27023315429688,-82.77520751953125
6776,10.776521682739258,-56.719322204589844,185.263427734375,-122.23863220214844
6777,42.09070587158203,-23.81942367553711,222.5427398681641,-79.73466491699219
6778,104.3563003540039,44.44871139526367,288.0845031738281,-16.358322143554688
6779,55.19905471801758,-13.08965015411377,235.98394775390625,-68.49253082275389
6780,15.372859001159668,-50.97857666015625,198.1772918701172,-111.50138092041016
6781,45.93532180786133,-24.26447105407715,224.1509094238281,-82.88365936279297
6782,114.18101501464844,35.40563201904297,286.0686950683594,-27.391027450561523
6783,61.5980224609375,-19.600814819335934,230.9612579345703,-77.86471557617188
6784,26.985248565673828,-53.89196014404297,186.17596435546875,-124.77802276611328
6785,56.3397216796875,-19.91122817993164,223.1299133300781,-92.92155456542969
6786,124.68639373779295,30.74197769165039,290.9492492675781,-35.39441299438477
6787,71.4152603149414,-20.273998260498047,232.6143035888672,-89.1292953491211
6788,32.236068725585945,-61.33061981201172,194.1830902099609,-127.16407775878906
6789,65.12100982666016,-27.58550262451172,223.9676513671875,-92.91033172607422
6790,124.5928955078125,31.609634399414066,290.9455261230469,-32.31273651123047
6791,71.58729553222656,-18.157215118408203,235.6361389160156,-81.8813705444336
6792,27.11614418029785,-59.97677612304688,191.5202789306641,-118.34913635253906
6793,54.29773712158203,-28.034290313720703,223.0027618408203,-87.162109375
6794,112.27740478515624,33.07567596435547,289.6851806640625,-26.05588340759277
6795,59.75799179077149,-18.579822540283203,233.2613067626953,-78.37708282470703
6796,17.83371353149414,-60.34702682495117,190.8583068847656,-120.27518463134766
6797,53.418861389160156,-14.98203945159912,228.52284240722656,-80.49760437011719
6798,110.23542022705078,37.817867279052734,286.98870849609375,-27.82111549377441
6799,67.73893737792969,-22.499238967895508,227.75616455078125,-75.19816589355469
6800,25.72864151000977,-56.70436477661133,184.31349182128903,-115.93689727783205
6801,57.52527236938477,-29.57512855529785,218.5485382080078,-87.77545166015625
6802,119.86940002441406,38.27787780761719,281.6294250488281,-25.5996150970459
6803,73.33008575439453,-19.36520195007324,232.2216033935547,-84.76856994628906
6804,38.908050537109375,-54.87929153442383,189.93829345703125,-121.10169982910156
6805,63.17626190185547,-21.306209564208984,229.9664459228516,-88.11578369140625
6806,122.06098175048828,38.11706161499024,297.6399230957031,-25.96612548828125
6807,69.82205963134766,-7.689234256744385,240.21751403808597,-77.35234832763672
6808,25.73238182067871,-53.5291862487793,198.4129180908203,-113.9023895263672
6809,52.85787582397461,-12.786718368530273,229.6522979736328,-82.03844451904297
6810,110.22794342041016,48.34942626953125,283.0842590332031,-23.06770324707031
6811,54.63806915283203,-16.990365982055664,228.4592742919922,-72.94674682617188
6812,15.832866668701172,-50.13710021972656,186.81173706054688,-107.9596939086914
6813,41.047271728515625,-22.90314674377441,214.11300659179688,-80.68460083007812
6814,101.55511474609376,40.76490783691406,277.16024780273443,-13.990965843200685
6815,51.09264373779297,-9.75739860534668,223.04763793945312,-67.98390197753906
6816,15.58603286743164,-46.15784454345703,179.43666076660156,-105.93640899658205
6817,47.65193557739258,-15.060577392578125,217.3442840576172,-77.35234832763672
6818,111.09559631347656,41.59890747070313,283.611572265625,-20.393674850463867
6819,58.39666748046875,-11.496452331542967,230.2431945800781,-79.79450225830078
6820,14.90911102294922,-60.21986770629883,182.1181640625,-128.1551513671875
6821,50.47930145263672,-27.27882957458496,219.8014068603516,-95.36744689941406
6822,126.1786117553711,48.63365936279297,289.37103271484375,-30.42408561706543
6823,77.156005859375,-23.138761520385746,239.37229919433597,-85.52403259277344
6824,37.408348083496094,-59.01935958862305,198.7420196533203,-131.30789184570312
6825,64.39173126220703,-22.805910110473636,231.78778076171875,-90.78233337402344
6826,118.46320343017578,40.2188835144043,296.839599609375,-25.360261917114254
6827,66.74038696289061,-12.790457725524902,240.4643402099609,-76.1219253540039
6828,13.989095687866213,-57.826332092285156,195.06570434570312,-105.92518615722656
6829,53.33658218383789,-29.52651023864746,228.7958526611328,-66.30842590332031
6830,111.14421844482422,37.06988906860352,285.7059020996094,-1.469780683517456
6831,61.53444290161133,-22.45435905456543,227.8160095214844,-59.36717224121094
6832,22.467449188232425,-58.3873176574707,187.8028106689453,-99.20832824707031
6833,54.39871597290039,-26.91231918334961,221.9443664550781,-68.68326568603516
6834,114.30255889892578,29.18991851806641,287.06536865234375,-14.01153564453125
6835,62.69194412231445,-24.06251716613769,232.72088623046875,-78.93994140625
6836,25.319122314453125,-59.94685745239258,190.1009826660156,-115.9425048828125
6837,59.501808166503906,-23.39681434631348,223.82366943359372,-87.38463592529297
6838,123.57003784179688,39.23155212402344,285.1954345703125,-35.28034591674805
6839,74.95881652832031,-17.457853317260742,229.8448944091797,-94.95419311523438
6840,39.52700424194336,-58.11804580688477,193.2799072265625,-132.29335021972656
6841,75.02239227294922,-14.357476234436035,227.85153198242188,-98.90726470947266
6842,136.93643188476562,44.14577865600586,300.3831481933594,-31.51426696777344
6843,81.94120788574219,-9.832197189331056,247.3364105224609,-82.44048309326172
6844,38.32649612426758,-53.05047988891602,209.47740173339844,-108.69084167480469
6845,65.73995971679689,-21.467025756835934,230.42459106445312,-66.80396270751953
6846,124.39281463623048,45.94841003417969,294.0215759277344,-3.5510349273681636
6847,72.82333374023438,-27.0955753326416,235.7090606689453,-53.17950820922852
6848,25.26676368713379,-60.42182540893555,195.54627990722656,-94.2623062133789
6849,52.717628479003906,-28.879507064819336,219.6087951660156,-63.39317321777344
6850,110.78705596923828,30.27449035644531,281.35455322265625,-10.50350856781006
6851,56.31541442871094,-27.963232040405273,222.2566375732422,-69.63132476806639
6852,23.08266258239746,-64.5618896484375,178.6120147705078,-113.11514282226562
6853,51.5283432006836,-36.93151092529297,216.5420837402344,-85.01353454589844
6854,112.2156982421875,21.983131408691406,277.760498046875,-31.551666259765625
6855,64.18416595458984,-26.28401756286621,226.09751892089844,-92.16796112060548
6856,29.148780822753906,-68.78424072265625,191.55206298828125,-127.25570678710938
6857,63.47732162475586,-17.764524459838867,234.32530212402344,-93.24131774902344
6858,120.73519134521484,48.10259246826172,291.4560241699219,-36.34621810913086
6859,70.35499572753906,-24.103654861450195,226.6622467041016,-90.7019271850586
6860,36.4266242980957,-55.46271514892578,186.7425537109375,-130.91706848144528
6861,68.73561859130861,-27.56306266784668,224.25375366210938,-97.88626861572266
6862,124.3628921508789,38.689266204833984,288.288330078125,-29.042192459106445
6863,70.9458999633789,-12.221993446350098,238.2484588623047,-76.53892517089844
6864,21.474506378173828,-53.30479431152344,188.7508850097656,-111.59674835205078
6865,56.87639999389648,-21.14165496826172,225.00547790527344,-77.51129913330078
6866,119.24671173095705,35.18871688842773,292.6004333496094,-8.476483345031737
6867,67.72584533691406,-19.05853080749512,229.56814575195312,-64.54132080078125
6868,24.458946228027344,-52.32120132446289,196.455078125,-101.73462677001952
6869,54.71473693847656,-22.08036994934082,234.6057891845703,-74.33238220214844
6870,116.12015533447266,35.9815788269043,297.5894470214844,-13.962916374206545
6871,66.57395935058594,-6.211973667144775,239.0113983154297,-69.56027221679689
6872,27.80241584777832,-59.27367401123047,192.65159606933597,-110.1980209350586
6873,63.51845932006836,-24.238290786743164,226.11248779296875,-79.85995483398438
6874,122.26107025146484,38.84634017944336,295.6671447753906,-19.531627655029297
6875,70.40735626220703,-17.338176727294922,225.55523681640625,-78.81278228759766
6876,35.12887954711914,-57.95722961425781,193.68006896972656,-110.57575225830078
6877,63.34268569946289,-27.07687568664551,228.0123443603516,-84.31417083740234
6878,122.33960723876952,42.69469833374024,294.5751037597656,-20.63863754272461
6879,65.71752166748047,-19.97480583190918,233.4726104736328,-82.0328369140625
6880,28.531696319580078,-51.57696151733398,196.28677368164062,-113.74344635009766
6881,60.82573318481445,-15.142854690551758,229.1380615234375,-80.75379180908203
6882,113.56954193115234,39.97204971313477,286.2425842285156,-18.26380157470703
6883,65.17149353027344,-9.9443941116333,228.4611358642578,-71.48632049560547
6884,24.230812072753906,-43.92512512207031,185.9496917724609,-106.66755676269531
6885,56.80160140991211,-29.23105812072754,217.5181884765625,-76.78575897216797
6886,118.91011810302734,32.35761260986328,278.92361450195307,-16.715482711791992
6887,66.06159210205078,-27.84355545043945,222.20428466796875,-74.71759033203125
6888,29.33951568603516,-61.0763053894043,182.8530578613281,-113.88182067871094
6889,61.12118530273438,-28.66259384155273,218.6925201416016,-83.73448944091797
6890,120.43225860595705,26.55702972412109,291.1455993652344,-23.44356346130371
6891,63.11455154418945,-17.659807205200195,228.79025268554688,-83.82798767089844
6892,31.38898086547852,-48.39430618286133,198.2651824951172,-116.21178436279295
6893,56.77915954589844,-19.81024932861328,229.0520477294922,-89.6846694946289
6894,119.4411849975586,47.758522033691406,296.1346130371094,-34.184555053710945
6895,58.08812713623047,-4.959107398986816,235.798828125,-83.04261016845703
6896,26.224178314208984,-44.02610397338867,197.7266387939453,-116.6007308959961
6897,59.28489303588867,-14.817483901977539,235.04710388183597,-77.98626708984375
6898,127.44083404541016,45.0957145690918,304.6092529296875,-18.895845413208008
6899,69.78279113769531,-13.908687591552734,249.68133544921875,-65.02377319335939
6900,33.31876754760742,-47.227455139160156,207.93283081054688,-105.0968017578125
6901,66.53282165527344,-13.60201644897461,244.1724548339844,-68.64025115966797
6902,128.21499633789062,44.81896209716797,302.15960693359375,-8.82055377960205
6903,66.17752838134766,-17.480293273925778,238.13999938964844,-72.75040435791016
6904,33.741378784179695,-57.57575988769531,200.50164794921875,-115.08232879638672
6905,62.48624801635742,-21.351089477539066,227.21575927734372,-78.63700866699219
6906,113.54710388183594,44.93489837646485,285.4908752441406,-25.552865982055664
6907,54.86807250976562,-11.425394058227539,222.28282165527344,-86.5693359375
6908,21.25385093688965,-58.83236694335938,186.85101318359372,-120.39299011230469
6909,55.97882080078125,-19.978546142578125,227.98243713378903,-86.83860778808594
6910,119.45988464355469,40.88832473754883,293.13897705078125,-29.9360294342041
6911,67.1087646484375,-13.45989990234375,237.20501708984372,-88.60383605957031
6912,36.21718978881836,-48.02405548095703,203.5908050537109,-119.45801544189452
6913,67.14990234375,-19.477399826049805,233.8765106201172,-92.9720458984375
6914,130.88528442382812,46.77119064331055,307.87042236328125,-21.39409828186035
6915,73.63863372802734,-17.278337478637695,250.01417541503903,-79.24661254882812
6916,32.249156951904304,-57.05591201782226,208.1684417724609,-115.71063232421876
6917,62.29551315307617,-18.31429100036621,237.4032440185547,-80.74630737304688
6918,121.64398956298828,44.11585998535156,299.463134765625,-22.246795654296875
6919,58.0133285522461,-13.994705200195312,233.13975524902344,-78.35651397705078
6920,19.626995086669922,-42.21973037719727,196.77296447753903,-111.29755401611328
6921,47.87820053100586,-11.043924331665039,229.5419769287109,-72.08470153808594
6922,112.174560546875,41.845741271972656,292.15911865234375,-17.912250518798828
6923,57.02973556518555,-22.11028861999512,233.92138671875,-78.50984954833984
6924,24.73943901062012,-54.03407287597656,197.01980590820312,-114.22589111328124
6925,58.970741271972656,-17.816883087158203,230.90328979492188,-79.73653411865234
6926,122.33586883544922,44.45619201660156,301.2769775390625,-22.86387825012207
6927,72.35210418701172,-17.65606689453125,241.24411010742188,-79.5046615600586
6928,34.16024780273437,-41.93175888061523,215.0199432373047,-113.48165130615234
6929,64.32254028320311,-8.549411773681639,247.69171142578125,-75.85826110839844
6930,124.16841888427734,52.38103866577149,304.8673095703125,-16.640684127807614
6931,68.5523681640625,-0.3365910053253174,244.59132385253903,-76.48282623291016
6932,27.18907356262207,-38.73040390014648,209.39138793945312,-108.50010681152344
6933,55.47393417358398,-3.9455945491790767,242.22396850585938,-81.13152313232422
6934,120.6865692138672,50.33905410766602,301.2283630371094,-24.05316734313965
6935,61.81306457519531,-11.047664642333984,242.1529083251953,-85.1893081665039
6936,29.18243980407715,-55.55247497558594,208.26193237304688,-115.22818756103516
6937,61.10248565673828,-24.458946228027344,234.8975067138672,-89.1386489868164
6938,122.27603149414062,34.59407424926758,297.926025390625,-25.78848075866699
6939,65.19767761230469,-23.531450271606445,235.78012084960938,-91.15818786621094
6940,30.704578399658203,-54.00415420532226,195.42660522460938,-129.69412231445312
6941,65.541748046875,-19.350242614746094,229.3961181640625,-101.25965881347656
6942,126.27397918701172,46.78988647460938,293.6625671386719,-39.955223083496094
6943,66.94795227050781,-7.685494422912598,237.97918701171875,-92.70651245117188
6944,33.34120941162109,-56.15459823608398,205.9469451904297,-118.2088851928711
6945,68.86651611328125,-11.272058486938475,241.4722442626953,-77.93390655517578
6946,126.7078094482422,51.33386611938477,310.331298828125,-12.59411334991455
6947,62.68446350097656,-13.254205703735352,246.2256622314453,-75.38329315185547
6948,25.9511661529541,-50.0959587097168,206.373291015625,-109.16580963134766
6949,51.532081604003906,-22.39826011657715,233.5511474609375,-79.25782775878906
6950,120.72770690917969,44.81896209716797,296.5534973144531,-18.690149307250977
6951,62.935035705566406,-19.61951446533203,235.28271484375,-81.54290771484375
6952,32.193058013916016,-55.67963027954102,201.04019165039062,-112.98798370361328
6953,63.3165054321289,-28.08290863037109,241.6031494140625,-86.10932922363281
6954,124.61720275878906,44.45993041992188,309.03729248046875,-24.696430206298828
6955,73.2122802734375,-26.61686706542969,246.3752593994141,-86.83113098144531
6956,41.22117614746094,-54.17245101928711,212.992919921875,-117.0270767211914
6957,73.60497283935547,-20.52831077575684,245.56744384765625,-87.68008422851562
6958,131.97358703613278,40.14034652709961,310.39111328125,-22.78907966613769
6959,78.51545715332031,-14.6865873336792,249.4868621826172,-77.64219665527344
6960,41.98785781860352,-53.71618270874024,213.85308837890625,-112.25496673583984
6961,70.31011962890625,-16.107749938964847,249.8197021484375,-74.33238220214844
6962,130.79925537109378,37.5897331237793,311.8048095703125,-16.558406829833984
6963,68.05870056152344,-12.31549072265625,248.4209899902344,-72.04730224609375
6964,28.913166046142575,-55.25328063964844,209.44749450683597,-110.1793212890625
6965,54.049034118652344,-21.758737564086914,239.613525390625,-78.03488159179688
6966,110.82445526123048,50.70930480957031,297.6679992675781,-18.559253692626953
6967,49.83042526245117,0.590904176235199,227.1671295166016,-84.3852310180664
6968,13.381361961364744,-47.82958221435547,188.5451812744141,-123.0857162475586
6969,44.7778205871582,-15.50936508178711,222.72413635253903,-96.09111785888672
6970,112.56350708007812,44.07098007202149,298.6478271484375,-32.606319427490234
6971,59.9131965637207,-11.668487548828125,240.25303649902344,-88.10643005371094
6972,29.95285797119141,-49.81920623779297,206.44061279296875,-127.76807403564452
6973,72.74853515625,-12.96249294281006,238.06146240234372,-84.62458801269531
6974,136.01641845703122,47.16013717651367,305.37591552734375,-16.614505767822266
6975,81.95616912841797,-26.05962371826172,241.0234680175781,-80.96322631835938
6976,44.54968643188477,-54.80075454711914,209.23057556152344,-108.5524673461914
6977,74.96255493164062,-23.16119956970215,242.2838134765625,-74.1229476928711
6978,134.22874450683594,47.99413681030274,306.9990234375,-12.766148567199707
6979,71.31989288330078,-26.684186935424805,241.74526977539062,-74.25010681152344
6980,38.95479965209961,-53.87326049804688,205.3560333251953,-109.52110290527344
6981,66.89559173583984,-20.861162185668945,243.2561798095703,-76.37810516357422
6982,121.40463256835938,45.28270721435547,305.1515197753906,-18.3572998046875
6983,63.21926879882813,-18.755598068237305,239.2769317626953,-82.24600982666016
6984,21.089296340942386,-49.17220306396485,201.03271484375,-112.89449310302734
6985,46.33362197875977,-14.17422103881836,234.19065856933597,-82.17121124267578
6986,107.69042205810548,53.8208999633789,301.8155212402344,-20.39928436279297
6987,51.9621696472168,-12.330450057983398,235.1593017578125,-81.76356506347656
6988,20.59188842773437,-49.24700164794922,199.39837646484372,-112.849609375
6989,56.22191619873047,-11.178561210632324,231.7559967041016,-75.83208465576172
6990,125.1669692993164,40.00944900512695,300.8543701171875,-11.008395195007324
6991,71.17029571533203,-29.42553329467773,234.7404327392578,-73.3226089477539
6992,36.879154205322266,-52.17160415649414,205.2251434326172,-106.55535888671876
6993,65.81101989746094,-23.76706504821777,241.139404296875,-75.3533706665039
6994,130.96755981445312,34.264965057373054,306.85693359375,-20.705955505371094
6995,76.75396728515625,-23.1350212097168,247.0147857666016,-77.08120727539062
6996,41.60264587402344,-59.74864196777344,214.2570037841797,-111.6191864013672
6997,70.68036651611328,-17.47281265258789,249.5429534912109,-77.55243682861328
6998,132.33262634277344,39.60179901123047,309.2467041015625,-13.125179290771484
6999,61.91778182983398,-17.480293273925778,238.932861328125,-76.96527099609375
7000,24.223331451416016,-52.3735580444336,200.01919555664062,-116.10706329345705
7001,56.61086654663086,-15.808557510375975,239.19091796875,-82.7957763671875
7002,124.62468719482422,44.48984909057617,306.4530029296875,-18.551773071289066
7003,65.27621459960939,-19.862607955932614,245.44403076171875,-73.88733673095703
7004,35.865638732910156,-47.15266036987305,221.7928924560547,-106.99666595458984
7005,69.27042388916016,-12.461346626281738,251.8467254638672,-73.0009765625
7006,130.35421752929688,48.79447555541992,312.14886474609375,-14.983909606933596
7007,67.07510375976561,-16.564016342163086,243.77603149414062,-74.09302520751953
7008,42.23469161987305,-49.35919952392578,215.1246490478516,-105.65404510498048
7009,71.7499771118164,-16.20872688293457,245.4889068603516,-70.57378387451172
7010,132.07830810546878,33.17291259765625,314.1571960449219,-16.532228469848633
7011,71.4059066772461,-24.15601348876953,241.11322021484372,-79.49344635009766
7012,38.90617752075195,-57.6318588256836,215.84271240234372,-107.74464416503906
7013,67.19478607177734,-23.52397155761719,245.56370544433597,-81.0342788696289
7014,131.83146667480472,41.45305252075195,307.1523742675781,-20.769535064697266
7015,69.39010620117189,-29.014142990112305,247.1045379638672,-81.7560806274414
7016,37.346641540527344,-49.744407653808594,214.31683349609372,-113.70230865478516
7017,58.0058479309082,-22.65257453918457,240.25303649902344,-87.73992156982422
7018,119.53468322753906,39.61676025390625,303.01605224609375,-26.21108818054199
7019,58.26016235351562,-16.261085510253903,237.16763305664062,-89.21343994140625
7020,27.271350860595703,-51.95843124389648,204.41357421875,-118.92321014404295
7021,60.75093460083008,-22.88444709777832,242.5755157470703,-83.3193588256836
7022,132.05586242675778,47.58274841308594,316.01220703125,-17.437284469604492
7023,76.39493560791016,-19.312843322753906,246.99234008789062,-74.38848114013672
7024,37.83282852172852,-49.25822067260742,209.6419677734375,-103.47742462158205
7025,74.11734008789062,-18.445186614990234,238.0913848876953,-70.64483642578125
7026,130.72821044921878,45.82125473022461,298.46832275390625,-16.075960159301758
7027,71.69013977050781,-23.49031066894531,234.44497680664062,-72.75414276123047
7028,36.50142288208008,-52.60543441772461,207.0165557861328,-101.09136199951172
7029,67.86422729492189,-15.931973457336426,235.9259796142578,-73.62928009033203
7030,127.80734252929688,42.65356063842773,294.4927978515625,-19.950496673583984
7031,65.55296325683594,-20.38245391845703,235.0209197998047,-84.11969757080078
7032,29.85936164855957,-41.3520736694336,194.22235107421875,-121.60845947265624
7033,59.4905891418457,-15.61408233642578,228.8351287841797,-88.16252899169922
7034,120.09566497802734,50.36897277832031,301.3592834472656,-23.11445236206055
7035,66.66371917724611,-9.276822090148926,240.10531616210938,-85.60070037841797
7036,29.720985412597656,-43.32113265991211,212.1458282470703,-120.98763275146484
7037,62.1197395324707,-7.855659961700439,253.19869995117188,-82.6948013305664
7038,121.15032196044922,52.15103530883789,315.490478515625,-20.081392288208008
7039,61.67095184326172,-16.939876556396484,249.38400268554688,-79.94596862792969
7040,33.41600799560547,-52.97381210327149,217.5312805175781,-106.45812225341795
7041,63.34268569946289,-14.636098861694336,251.23899841308597,-65.74182891845703
7042,124.46012878417969,49.82855606079102,314.5293273925781,-4.037221908569337
7043,67.54259490966797,-17.77761459350586,246.6875457763672,-70.57752227783203
7044,37.62713241577149,-52.09867477416992,204.5388641357422,-101.15494537353516
7045,69.48360443115234,-17.029634475708008,235.3332061767578,-67.18917083740234
7046,126.9509048461914,46.31679153442383,300.0746154785156,-8.629818916320799
7047,64.27766418457031,-18.28624153137207,231.4362335205078,-80.3087387084961
7048,31.74053001403809,-51.54516983032226,196.13905334472656,-111.88845825195312
7049,58.15170288085938,-4.2728357315063485,232.2814483642578,-76.7146987915039
7050,124.62842559814452,44.99286651611328,297.4978332519531,-13.517868041992188
7051,64.33001708984375,-12.193943977355955,237.21810913085938,-76.39306640625
7052,26.145641326904297,-43.0406379699707,204.31446838378903,-117.57310485839844
7053,55.88158416748047,-12.0219087600708,241.41427612304688,-86.38981628417969
7054,114.7850112915039,48.2877197265625,301.0395202636719,-26.173688888549805
7055,66.61509704589844,-5.907172203063965,243.9312286376953,-88.34578704833984
7056,27.99315071105957,-42.01964569091797,213.6941375732422,-120.38925170898438
7057,62.50868606567383,-9.759268760681152,251.6092529296875,-82.57138061523438
7058,121.2849578857422,54.62685012817383,318.91998291015625,-29.92854881286621
7059,66.9853515625,-10.174397468566896,249.2381591796875,-83.27448272705078
7060,39.89725112915039,-40.69572067260742,222.0378570556641,-113.5527114868164
7061,69.56587982177734,-11.06075382232666,254.00653076171875,-77.08120727539062
7062,129.34817504882812,52.4726676940918,309.8095703125,-17.100692749023438
7063,63.99342727661133,-17.863632202148438,232.81625366210938,-78.56968688964844
7064,32.338916778564446,-46.80671691894531,203.37950134277344,-102.46390533447266
7065,58.27886199951172,-18.34981918334961,232.6143035888672,-76.20233154296875
7066,119.7029800415039,45.63612747192383,294.4086608886719,-13.854459762573242
7067,63.61195755004883,-16.56214714050293,232.03086853027344,-77.2569808959961
7068,26.852481842041016,-51.66858673095703,200.6792907714844,-111.9669952392578
7069,55.59361267089844,-15.664570808410645,240.9991607666016,-76.05647277832031
7070,120.1667251586914,46.780540466308594,307.8797912597656,-22.71054267883301
7071,58.03202819824219,-18.521854400634766,240.5316619873047,-85.39874267578125
7072,24.17845344543457,-49.97441482543945,210.89295959472656,-107.09390258789062
7073,61.68965148925781,-16.206855773925778,248.3443145751953,-73.8237533569336
7074,118.57352447509766,49.29375076293945,313.9122314453125,-14.022754669189453
7075,55.26076126098633,-27.385417938232425,240.1651611328125,-85.54460144042969
7076,29.53025054931641,-57.192420959472656,204.1199951171875,-116.43617248535156
7077,57.2616081237793,-22.48614883422852,233.8746490478516,-83.85416412353516
7078,123.49149322509766,38.23860549926758,298.54498291015625,-22.661924362182614
7079,65.59784698486328,-13.450550079345705,231.28289794921875,-80.2713394165039
7080,30.401647567749023,-47.5247802734375,202.6913604736328,-114.1511001586914
7081,57.42616271972656,-15.941323280334473,235.2359619140625,-87.59780883789062
7082,120.06575012207031,40.63214492797852,298.8067932128906,-23.23412895202637
7083,63.17065048217773,-21.4389762878418,232.8199920654297,-78.45375061035156
7084,30.89157295227051,-51.78826522827149,202.90452575683597,-106.29730987548828
7085,59.9318962097168,-9.822847366333008,238.53082275390625,-75.02052307128906
7086,124.22451782226562,46.78801727294922,305.6321105957031,-10.47732925415039
7087,60.16003036499024,-14.598699569702148,243.73675537109372,-75.53662872314453
7088,26.463531494140625,-40.92011642456055,213.17803955078125,-107.83814239501952
7089,64.40855407714844,-13.1663179397583,251.1903839111328,-69.38449096679689
7090,126.8873291015625,48.87114334106445,314.9033203125,-8.345586776733397
7091,59.81969833374024,-13.790881156921387,239.92205810546875,-80.40597534179688
7092,28.6214542388916,-49.21895217895508,208.3236541748047,-109.53231811523438
7093,56.0274429321289,-20.657337188720703,236.3916015625,-82.0552749633789
7094,119.7441177368164,38.68739318847656,299.6968688964844,-19.138938903808594
7095,60.32832717895508,-19.655044555664066,233.7886199951172,-85.16313171386719
7096,24.163494110107425,-42.55445098876953,202.8820953369141,-111.1816177368164
7097,60.05531311035156,-9.721869468688963,236.6346893310547,-77.61601257324219
7098,127.3136749267578,55.03075790405274,299.8277893066406,-14.535120964050293
7099,64.34497833251953,-17.616798400878906,237.03111267089844,-75.27857971191406
7100,29.66488647460937,-47.6070556640625,197.56021118164062,-110.0933074951172
7101,60.16751098632813,-14.722116470336914,232.4385223388672,-76.40428924560547
7102,119.299072265625,46.49630737304688,293.70556640625,-11.554420471191404
7103,56.64826583862305,-12.695090293884276,233.7587127685547,-74.25384521484375
7104,22.60769462585449,-46.41776657104492,205.2531890869141,-104.57321166992188
7105,58.11430358886719,-13.637545585632324,236.0101318359375,-76.50152587890625
7106,124.96501922607422,43.70260238647461,304.6933898925781,-12.874605178833008
7107,60.7060546875,-17.628019332885742,237.76040649414062,-79.19051361083984
7108,31.594675064086914,-45.23595809936523,210.6012420654297,-111.87349700927734
7109,59.89823913574219,-1.3856329917907717,244.9036102294922,-81.4157485961914
7110,113.7602767944336,53.459999084472656,299.9137878417969,-19.8831787109375
7111,54.56513977050781,1.0453020334243774,237.1358337402344,-83.82051086425781
7112,24.260730743408203,-42.25899887084961,212.25054931640625,-107.71846771240234
7113,51.11695098876953,-4.9497575759887695,248.856689453125,-77.08120727539062
7114,116.3482894897461,56.06671142578125,310.80438232421875,-16.767841339111328
7115,57.53836059570313,-10.335213661193848,239.6864471435547,-83.46147918701172
7116,29.95285797119141,-46.780540466308594,211.22581481933597,-108.03636169433594
7117,64.37863922119139,-15.694490432739258,243.8601837158203,-75.35711669921875
7118,131.47244262695312,45.7296257019043,304.91778564453125,-10.3202543258667
7119,62.53486633300781,-24.68146896362305,232.76390075683597,-78.85765838623047
7120,29.23105812072754,-53.459999084472656,202.66143798828125,-106.31226348876952
7121,55.496376037597656,-20.85929107666016,231.1445159912109,-77.26820373535156
7122,112.74676513671876,46.72444152832031,295.21649169921875,-17.295167922973633
7123,55.48141479492188,-28.137136459350586,223.38796997070312,-87.3547134399414
7124,23.957799911499023,-41.8438720703125,197.19371032714844,-111.1778793334961
7125,51.67045593261719,-8.697136878967285,234.00927734375,-82.8182144165039
7126,111.52008056640624,51.91168212890625,300.572021484375,-16.203117370605472
7127,47.48925018310547,-13.719822883605955,235.9054107666016,-86.24396514892578
7128,24.698299407958984,-38.145111083984375,212.0635528564453,-108.25701141357422
7129,56.96241760253906,-8.08005428314209,245.39727783203125,-79.87117004394531
7130,116.58763885498048,55.27011108398438,312.57708740234375,-18.30867958068848
7131,57.78893280029297,-8.457783699035645,246.2387542724609,-76.83063507080078
7132,26.55702972412109,-42.24029922485352,212.14208984375,-106.63389587402344
7133,53.90691757202149,-6.726210117340088,237.4013671875,-72.88877868652344
7134,115.65266418457031,53.13462829589844,301.6416320800781,-12.39215850830078
7135,58.08812713623047,-16.846380233764652,229.3119659423828,-72.25299835205078
7136,31.467517852783203,-43.83723831176758,198.8130798339844,-102.27691650390624
7137,57.57575988769531,-19.688703536987305,227.7599029541016,-69.49295043945311
7138,123.26710510253906,40.527427673339844,290.0068054199219,-12.481916427612305
7139,56.97363662719727,-21.446456909179688,217.88282775878903,-81.42323303222656
7140,28.70747184753418,-45.99142074584961,191.1126251220703,-108.86287689208984
7141,57.69543838500977,-13.061600685119627,230.3740997314453,-79.15685272216797
7142,114.53443908691406,53.456260681152344,299.1695556640625,-20.287086486816406
7143,51.01971435546875,-11.49832248687744,231.8438720703125,-88.14757537841797
7144,26.11198234558105,-41.1332893371582,209.7635040283203,-111.01705932617188
7145,56.80908203125,-9.157145500183104,246.32476806640625,-81.55786895751953
7146,120.37615966796876,54.17058181762695,311.68701171875,-16.924917221069336
7147,62.00006103515625,-9.721869468688963,245.124267578125,-87.6539077758789
7148,31.14588737487793,-52.12859725952149,218.2082061767578,-115.66201782226562
7149,64.99571990966797,-8.536321640014647,255.0724029541016,-78.5397720336914
7150,126.18048095703124,53.991065979003906,310.1835632324219,-15.746849060058596
7151,64.48709869384766,-16.016120910644528,242.4464874267578,-74.9270248413086
7152,34.728710174560554,-38.29096603393555,216.34947204589844,-97.88253021240234
7153,62.935035705566406,-11.176691055297852,239.97442626953125,-69.21245574951172
7154,117.94896697998048,47.90998840332031,298.376708984375,-11.004655838012695
7155,54.71099472045898,-23.926010131835934,226.0507659912109,-81.65884399414062
7156,25.779130935668945,-50.74109268188477,202.9456787109375,-107.87554168701172
7157,49.49757766723633,-16.176937103271484,226.3910980224609,-78.73424530029297
7158,114.14922332763672,45.51271438598633,292.07122802734375,-27.01142692565918
7159,54.542701721191406,-21.532474517822266,228.0404052734375,-94.32962799072266
7160,27.155412673950195,-39.43911361694336,202.6090850830078,-119.5926513671875
7161,57.93852996826172,-18.536813735961914,239.64157104492188,-85.98590850830078
7162,125.31656646728516,42.59558868408203,307.1991271972656,-30.53815269470215
7163,64.27017974853516,-17.500862121582028,238.1231689453125,-92.6130142211914
7164,40.41709899902344,-44.66001510620117,219.348876953125,-115.95372772216795
7165,70.42231750488281,-16.247995376586914,249.8440093994141,-89.9389877319336
7166,132.68791198730472,47.5546989440918,313.4260559082031,-30.59799194335937
7167,72.62511444091797,-10.985956192016602,244.70166015625,-91.26290893554688
7168,44.05228042602539,-42.37493515014648,223.94520568847656,-113.00668334960938
7169,78.1938247680664,-20.182369232177734,252.3721923828125,-73.58814239501953
7170,137.72181701660156,51.59753036499024,320.408447265625,-13.229896545410154
7171,71.06558227539062,-14.449103355407715,250.722900390625,-74.31742095947266
7172,39.17919158935547,-42.74518585205078,219.1805725097656,-97.27666473388672
7173,71.3460693359375,-7.4255714416503915,245.288818359375,-70.67849731445312
7174,124.1010971069336,39.506431579589844,300.2615966796875,-17.504602432250973
7175,63.21926879882813,-25.72490119934082,228.9230194091797,-90.79916381835938
7176,38.12453842163086,-45.49401473999024,205.5187225341797,-111.43218994140624
7177,66.45053863525389,-20.690996170043945,236.6907958984375,-88.73473358154297
7178,127.74375915527344,41.95232772827149,303.64996337890625,-28.582185745239254
7179,61.08378601074219,-26.349464416503906,229.2259521484375,-98.7988052368164
7180,38.685523986816406,-43.18275451660156,201.62548828125,-124.27874755859376
7181,68.73561859130861,-16.259214401245114,232.41233825683597,-94.09400939941406
7182,134.65509033203122,39.92904281616211,298.3991394042969,-33.077545166015625
7183,71.1628189086914,-21.25946044921875,230.89019775390625,-95.56379699707031
7184,36.70337677001953,-49.30871200561523,206.49484252929688,-124.6115951538086
7185,66.727294921875,-8.749495506286621,236.91891479492188,-90.91883850097656
7186,127.45953369140624,46.03255844116211,299.30792236328125,-35.03351211547852
7187,60.93793106079102,-21.154743194580078,233.04812622070312,-100.16387176513672
7188,42.59371948242188,-52.05379867553711,209.0828399658203,-120.6959228515625
7189,67.45283508300781,-17.672897338867188,243.8863525390625,-88.92546844482422
7190,123.79817199707031,46.84037780761719,301.4808044433594,-29.16560935974121
7191,61.4278564453125,-19.699922561645508,235.82313537597656,-85.4436264038086
7192,35.64498519897461,-52.42778778076172,206.1582489013672,-112.0455322265625
7193,64.80498504638672,-19.73732185363769,237.21437072753903,-78.15455627441406
7194,125.17819213867188,37.23631286621094,296.30853271484375,-19.35211181640625
7195,63.44366455078125,-26.218568801879886,228.75845336914062,-86.22152709960938
7196,42.67226028442383,-52.65217971801758,204.44911193847656,-113.62003326416016
7197,72.64007568359375,-15.032527923583984,237.2742156982422,-80.57427215576172
7198,136.11740112304688,43.07803726196289,299.43133544921875,-20.582538604736328
7199,70.59435272216797,-29.99586677551269,232.54698181152344,-88.17001342773438
7200,39.407325744628906,-51.67606735229492,209.23243713378903,-113.73223114013672
7201,74.28189086914062,-21.943862915039066,242.13607788085938,-82.46666717529297
7202,132.22416687011722,28.49242782592773,304.4091491699219,-27.000207901000977
7203,69.79775238037111,-30.066925048828125,237.39015197753903,-92.80748748779295
7204,44.3739128112793,-49.18155288696289,217.03387451171875,-116.05470275878906
7205,73.93034362792969,-12.451996803283693,250.5845184326172,-84.39645385742188
7206,135.16746520996094,38.36202239990234,315.1090087890625,-22.68810272216797
7207,68.15593719482422,-23.85869216918945,247.0839691162109,-84.70686340332031
7208,42.975189208984375,-47.79779052734375,220.5755615234375,-109.98858642578124
7209,73.03650665283203,-10.144478797912598,246.66136169433597,-77.80674743652344
7210,128.81336975097656,53.97610473632813,298.84417724609375,-22.407609939575195
7211,64.8199462890625,-31.200115203857425,226.9408721923828,-91.35640716552734
7212,36.19475173950195,-55.58426284790039,196.54296875,-112.0417938232422
7213,64.72270965576172,-22.7591609954834,225.94232177734372,-75.45061492919922
7214,126.01219177246094,42.80128479003906,288.9932861328125,-21.28190040588379
7215,59.74490356445313,-28.96365547180176,221.0467834472656,-89.19474029541016
7216,30.300668716430664,-45.18733978271485,197.3433074951172,-120.86421966552734
7217,56.62582397460938,-18.316160202026367,233.45204162597656,-78.93245697021484
7218,121.58040618896484,35.897430419921875,296.087890625,-21.02384757995605
7219,55.002708435058594,-29.88741111755371,224.8914031982422,-91.92487335205078
7220,31.804109573364254,-53.52731704711914,203.0466461181641,-115.99486541748048
7221,72.5091781616211,-22.67688369750977,237.71551513671875,-85.4473648071289
7222,135.38438415527344,48.10072326660156,303.0852355957031,-27.2956600189209
7223,68.6346435546875,-37.41209030151367,237.6631622314453,-97.57585906982422
7224,45.42108535766602,-47.71925354003906,218.38771057128903,-114.49142456054688
7225,78.30228424072266,-15.855305671691895,250.56581115722656,-82.073974609375
7226,131.05731201171878,44.37578201293945,316.4628601074219,-21.913944244384766
7227,70.33629608154297,-19.774721145629886,228.19374084472656,-90.92257690429688
7228,43.89146423339844,-49.38724899291992,206.30035400390625,-106.61145782470705
7229,70.15678405761719,-15.615952491760256,239.67523193359372,-79.96092987060547
7230,123.78694915771484,50.49799728393555,301.47332763671875,-21.685810089111328
7231,53.08414077758789,-25.01058006286621,221.94810485839844,-89.41539764404297
7232,25.89506721496582,-48.00348663330078,196.03433227539062,-108.32433319091795
7233,53.207557678222656,-12.519314765930176,229.3418884277344,-73.21041107177734
7234,113.49474334716795,63.92424011230469,295.7662353515625,-16.984756469726562
7235,51.10573196411133,-25.631404876708984,222.6437225341797,-91.99967193603516
7236,24.94513320922852,-45.06392288208008,207.12501525878903,-115.2711944580078
7237,57.15315246582031,-12.324840545654295,241.9808807373047,-78.33594512939453
7238,123.88792419433594,57.60007095336914,311.4158630371094,-21.40718650817871
7239,50.97109603881836,-13.413150787353516,240.89630126953125,-95.74143981933594
7240,29.26097679138184,-51.90793991088867,217.14419555664062,-117.36553955078124
7241,68.31674957275389,-16.04604148864746,253.35765075683597,-81.5447769165039
7242,131.94366455078122,42.07574462890625,318.6675109863281,-12.25565242767334
7243,68.05496215820311,-28.511127471923828,246.7829132080078,-86.99755096435547
7244,47.91559982299805,-56.276145935058594,213.64739990234372,-109.1003646850586
7245,79.46165466308594,-20.3057861328125,243.13650512695312,-84.52548217773438
7246,139.46461486816406,50.41197967529297,309.0859069824219,-17.311996459960938
7247,68.47383117675781,-41.5035400390625,228.65187072753903,-89.0283203125
7248,32.970958709716804,-54.84750366210938,197.95103454589844,-118.53987121582031
7249,61.87290573120117,-25.44814872741699,223.73016357421875,-82.51715087890625
7250,123.2558822631836,53.47121810913086,298.33367919921875,-10.426840782165527
7251,50.62328720092773,-19.116498947143555,218.22503662109372,-87.17707061767578
7252,16.39946174621582,-55.80117797851562,185.40740966796875,-117.42911529541016
7253,45.78759384155274,-14.662278175354006,226.6884307861328,-84.33848571777344
7254,135.49282836914062,77.836669921875,325.1151123046875,2.5356521606445312
7255,34.437000274658196,-17.76265525817871,222.1743621826172,-96.71381378173828
7256,2.3486571311950684,-57.38689422607422,185.32513427734372,-133.34239196777344
7257,47.72860336303711,-10.35391330718994,231.35955810546875,-90.01939392089844
7258,141.86563110351562,84.77418518066406,326.166015625,-5.284478664398193
7259,41.30719375610352,-29.483501434326172,218.9169158935547,-107.0583724975586
7260,14.144301414489744,-65.55109405517578,183.45518493652344,-133.83232116699222
7261,62.28429412841797,-20.818153381347656,231.6886749267578,-87.07234954833984
7262,154.06143188476562,70.88419342041016,328.9335632324219,2.034505605697632
7263,51.29646682739258,-39.6373291015625,215.1171722412109,-99.63467407226562
7264,18.437705993652344,-69.526611328125,180.15658569335938,-135.29835510253906
7265,68.75057983398439,-19.82707977294922,232.7769775390625,-90.1914291381836
7266,167.49142456054688,76.87177276611328,331.8394470214844,4.293405055999757
7267,56.68940353393555,-35.09334945678711,215.05360412597656,-100.9137191772461
7268,21.122955322265625,-72.36519622802734,176.68222045898438,-129.92787170410156
7269,59.07172012329102,-14.479022979736328,231.9280242919922,-84.9368667602539
7270,157.99208068847656,90.49249267578124,332.8604431152344,16.197505950927734
7271,39.8785514831543,-40.09733581542969,217.63412475585938,-98.76702117919922
7272,10.217406272888184,-59.96742630004883,188.7770538330078,-124.8228988647461
7273,52.30624008178711,-13.850719451904295,237.4107208251953,-77.86097717285156
7274,154.0988311767578,78.83148193359375,337.5390625,13.478599548339846
7275,44.75912094116211,-32.71477508544922,214.9675750732422,-102.06561279296876
7276,12.659561157226562,-65.26686096191406,183.4364776611328,-133.08433532714844
7277,60.43304443359375,-14.258368492126465,231.66622924804688,-87.03495025634766
7278,165.7523651123047,80.31248474121094,334.39007568359375,15.464486122131348
7279,46.51687622070313,-36.76508712768555,212.22622680664062,-102.62285614013672
7280,14.623008728027346,-57.802024841308594,182.74459838867188,-125.15201568603516
7281,60.10767364501953,-13.282254219055176,231.03793334960938,-76.30143737792969
7282,162.20693969726562,76.50526428222656,331.43927001953125,16.82206916809082
7283,40.22636413574219,-37.26997375488281,202.9737243652344,-99.56361389160156
7284,13.381361961364744,-65.72687530517578,172.90492248535156,-127.7512435913086
7285,62.24689483642578,-16.797760009765625,228.6219482421875,-77.97691345214844
7286,166.00294494628906,84.4263687133789,337.55029296875,20.6816463470459
7287,52.01453018188477,-43.17527389526367,214.19715881347656,-95.26273345947266
7288,14.17422103881836,-65.02751159667969,184.6070709228516,-122.52660369873048
7289,59.82717895507813,-6.726210117340088,238.5513916015625,-71.28997039794922
7290,160.168701171875,84.07482147216797,335.30633544921875,22.98542594909668
7291,39.426025390625,-34.842777252197266,216.60191345214844,-98.49400329589844
7292,14.297637939453125,-68.35601806640625,190.66944885253903,-130.78804016113278
7293,69.438720703125,-15.451396942138672,245.6945953369141,-80.97257232666016
7294,170.0457763671875,87.23877716064453,347.8275146484375,16.874427795410153
7295,49.88278579711914,-35.34392547607422,217.6640472412109,-107.2154541015625
7296,18.460145950317386,-58.38171005249024,187.68875122070312,-139.73762512207028
7297,69.90621185302734,-1.0752211809158323,237.8894195556641,-91.68738555908205
7298,166.11514282226562,92.48959350585938,339.94757080078125,-1.8026317358016968
7299,49.44895553588867,-34.285533905029304,213.97276306152344,-118.18083953857422
7300,16.074090957641598,-64.73954010009766,175.11146545410156,-143.31671142578125
7301,61.95518112182617,-18.267541885375977,225.5739288330078,-89.27141571044922
7302,165.44943237304688,78.74920654296875,325.8443908691406,10.13886833190918
7303,37.33542251586914,-40.187095642089844,202.82786560058597,-100.2330551147461
7304,6.283031940460205,-67.14429473876953,178.38014221191406,-125.35022735595705
7305,55.94142532348633,-10.578307151794434,231.37452697753903,-75.57589721679688
7306,161.79928588867188,74.1229476928711,333.0624084472656,19.56715583801269
7307,45.12189483642578,-40.47132873535156,212.476806640625,-101.08949279785156
7308,16.896867752075195,-63.146339416503906,183.2868804931641,-128.00929260253906
7309,69.15074920654297,-18.536813735961914,229.7214813232422,-79.04652404785156
7310,169.45860290527344,78.9212417602539,333.6794738769531,17.498991012573242
7311,39.1156120300293,-44.25236511230469,200.66619873046875,-105.27818298339844
7312,13.153227806091307,-64.87417602539061,171.62962341308594,-133.42092895507812
7313,62.972434997558594,-10.170658111572266,229.2240753173828,-84.04676818847656
7314,158.1641082763672,89.48645782470703,330.06298828125,15.228872299194336
7315,35.3121337890625,-31.656383514404297,198.9495849609375,-108.67027282714844
7316,15.228872299194336,-53.87138748168945,180.0107421875,-129.74087524414062
7317,58.776268005371094,8.749495506286621,233.6558532714844,-79.28588104248047
7318,157.8649139404297,91.53591918945312,330.5005798339844,12.416467666625975
7319,31.70313262939453,-34.34163284301758,196.73556518554688,-109.34345245361328
7320,5.879122734069824,-60.87248229980469,173.92965698242188,-125.15201568603516
7321,63.20056915283203,-15.137245178222654,228.5022735595703,-74.78304290771484
7322,167.79061889648438,76.00037384033203,336.5367736816406,26.47101211547852
7323,36.40792465209961,-56.26118469238281,199.7947998046875,-96.66893768310548
7324,23.045263290405273,-70.48776245117188,182.70346069335938,-115.81722259521484
7325,75.57215881347656,-21.9962215423584,240.73922729492188,-65.28742980957031
7326,178.3894805908203,78.68562316894531,343.46307373046875,31.32166290283203
7327,48.36064529418945,-56.63143539428711,204.8960266113281,-100.7716064453125
7328,24.20089340209961,-70.61865997314453,180.16781616210938,-127.90084075927734
7329,70.82622528076172,-16.195636749267578,238.36065673828125,-78.0704116821289
7330,165.96554565429688,77.23828125,342.7786560058594,17.143701553344727
7331,36.0451545715332,-46.04751968383789,206.8968811035156,-113.11327362060548
7332,13.295344352722168,-65.48004150390625,183.0737152099609,-128.79841613769528
7333,65.64646148681639,-8.809334754943848,240.51483154296875,-75.47492218017578
7334,165.498046875,90.60094451904295,338.95648193359375,19.86634826660156
7335,30.988811492919922,-33.93398284912109,203.51974487304688,-109.78475952148438
7336,4.742193222045898,-56.02931213378906,179.00469970703125,-134.12028503417972
7337,54.6137580871582,-13.970396041870115,230.8359680175781,-81.21940612792969
7338,164.2825927734375,85.58573913574219,333.1970520019531,21.878414154052734
7339,33.61048126220703,-49.301231384277344,199.39837646484372,-109.8857421875
7340,10.228626251220703,-74.05562591552734,176.7046661376953,-130.97503662109378
7341,63.85879135131836,-18.821046829223636,228.81268310546875,-78.93058776855469
7342,170.6291961669922,83.98880004882812,336.3011474609375,23.385595321655273
7343,33.08315658569336,-57.19990158081055,200.9766082763672,-109.95680236816406
7344,11.260838508605955,-69.25360107421875,181.6450653076172,-125.55218505859376
7345,62.91259765625,-20.32074546813965,241.6405487060547,-76.6230697631836
7346,167.97012329101562,79.14189147949219,345.3853759765625,22.140207290649414
7347,35.70856475830078,-50.5952377319336,207.7682647705078,-108.41596221923828
7348,15.064316749572756,-79.18677520751953,185.7290344238281,-134.59152221679688
7349,69.21058654785156,-22.329072952270508,243.6339111328125,-82.30023956298828
7350,173.8118438720703,88.95165252685547,356.6462097167969,18.73689842224121
7351,39.14179229736328,-50.68125534057617,212.4543609619141,-108.27384185791016
7352,19.63447570800781,-74.35855865478516,191.9036102294922,-128.12896728515622
7353,69.438720703125,-16.99971580505371,237.71365356445312,-78.23497009277344
7354,176.54197692871094,73.04585266113281,345.2918701171875,27.75379753112793
7355,38.3003158569336,-53.83024978637695,199.1328430175781,-103.2436752319336
7356,9.925694465637207,-78.35277557373047,175.2984619140625,-126.07576751708984
7357,57.07461166381836,-25.61270523071289,222.60446166992188,-71.91079711914062
7358,159.67503356933594,77.15226745605469,329.3748474121094,22.229965209960934
7359,31.25808334350586,-52.56242370605469,189.2969055175781,-113.86499786376952
7360,5.351796627044678,-69.12644195556639,168.94810485839844,-131.82025146484378
7361,60.24604797363281,-18.652751922607425,230.1964569091797,-79.62621307373047
7362,161.5599365234375,85.96347045898438,339.7680358886719,18.03379821777344
7363,26.74028396606445,-41.51102066040039,197.9846954345703,-107.62683868408205
7364,3.4631474018096924,-70.8542709350586,179.5395050048828,-130.43649291992188
7365,56.67070388793945,-10.918638229370117,240.82899475097656,-73.44041442871094
7366,164.1442108154297,93.40961456298828,349.8695068359375,25.77165031433105
7367,30.252050399780273,-50.97296524047852,207.7196502685547,-114.99818420410156
7368,8.631689071655272,-73.04585266113281,183.3055877685547,-139.60298156738278
7369,63.2940673828125,-24.31869888305664,233.80545043945312,-84.35344696044922
7370,176.80003356933594,81.733642578125,342.90582275390625,15.251312255859375
7371,39.57562255859375,-51.90420150756836,203.3028259277344,-112.1558609008789
7372,21.67646026611328,-78.23310089111328,180.1229248046875,-134.53167724609378
7373,68.00260162353516,-27.849164962768555,234.41131591796875,-75.62077331542969
7374,165.81594848632812,76.68103790283203,339.9325866699219,23.123802185058594
7375,24.571142196655273,-54.09578323364258,192.48704528808597,-103.55783081054688
7376,1.3688033819198608,-73.72651672363281,167.22401428222656,-125.13705444335938
7377,58.38357925415039,-16.44247055053711,224.8184814453125,-79.86182403564453
7378,164.04696655273438,82.47040557861328,332.4976806640625,18.87901496887207
7379,28.696252822875977,-50.87199020385742,193.84461975097656,-115.43575286865234
7380,9.37592887878418,-80.1441879272461,182.86801147460938,-128.48052978515622
7381,62.9013786315918,-20.79945373535156,244.41929626464844,-77.47203063964844
7382,167.69337463378906,87.32853698730469,358.4862365722656,24.8067569732666
7383,25.30042266845703,-53.71057510375977,207.7832336425781,-114.17540740966795
7384,1.0546517372131348,-64.86295318603516,182.4267120361328,-134.15768432617188
7385,54.84937286376953,-18.402177810668945,229.2652130126953,-88.39627838134766
7386,157.9883270263672,85.19679260253906,342.14288330078125,11.829303741455078
7387,28.703731536865234,-48.65422821044922,196.43637084960938,-122.44806671142578
7388,11.60116958618164,-67.58934020996094,176.2259521484375,-136.09869384765622
7389,69.03107452392578,-16.954835891723633,236.01573181152344,-77.09056091308594
7390,167.0201873779297,91.48356628417969,340.5272521972656,20.565710067749023
7391,27.256391525268555,-54.55578994750977,188.50030517578125,-113.54710388183594
7392,7.255405902862549,-67.37242889404297,163.27468872070312,-125.41380310058594
7393,58.96326446533203,-32.228588104248054,217.4546203613281,-73.8705062866211
7394,156.3577423095703,72.53349304199219,324.37835693359375,20.614328384399414
7395,20.446033477783203,-66.89372253417969,182.01905822753903,-112.94123840332031
7396,-3.777298927307129,-79.5457992553711,162.6314239501953,-130.13729858398438
7397,45.34628677368164,-25.83335876464844,222.0546875,-77.47950744628906
7398,153.03671264648438,74.39969635009766,333.2568664550781,24.32804870605469
7399,21.657760620117188,-58.68463897705078,196.7430419921875,-111.92024230957031
7400,1.0658714771270752,-70.86175537109375,176.49522399902344,-131.9287109375
7401,55.23084259033203,-16.655645370483402,238.0390167236328,-78.50050354003906
7402,156.06228637695312,79.11197662353516,341.80255126953125,16.44059944152832
7403,24.395366668701172,-50.86077117919922,189.85415649414062,-123.71215057373048
7404,7.988426208496094,-64.26457214355469,177.7144317626953,-138.02101135253906
7405,69.40132141113281,-22.3889102935791,233.4576416015625,-89.70149993896484
7406,170.0308074951172,80.93330383300781,338.7582702636719,5.01520586013794
7407,32.57826995849609,-55.92085266113281,198.6728363037109,-129.65484619140622
7408,17.128742218017578,-76.64737701416016,175.844482421875,-142.3144073486328
7409,72.38202667236328,-18.80234718322754,233.9363555908203,-80.47516632080078
7410,175.2255401611328,75.6937026977539,338.971435546875,24.223331451416016
7411,33.65161895751953,-71.14972686767578,194.8244781494141,-108.71141052246094
7412,8.691527366638184,-87.50804901123047,172.27662658691406,-125.98974609375
7413,58.394798278808594,-27.576152801513672,228.6256866455078,-71.10671997070312
7414,154.1511993408203,72.75414276123047,329.02703857421875,23.729665756225586
7415,15.81977653503418,-50.00059127807617,188.54144287109372,-110.65242004394531
7416,-6.084817409515381,-78.88758087158203,168.63021850585938,-130.58235168457028
7417,45.21165084838867,-23.18177032470703,221.8938751220703,-81.39144134521484
7418,156.1408233642578,83.55497741699219,336.87335205078125,16.926786422729492
7419,12.928833961486815,-52.51754379272461,194.9591217041016,-119.22801208496094
7420,-2.0569450855255127,-72.41754913330078,178.58209228515625,-134.78225708007812
7421,49.84912490844727,-7.182477951049805,237.7510528564453,-85.2771987915039
7422,153.78094482421875,89.15360260009766,335.5008239746094,0.8863562941551208
7423,23.83064270019531,-48.37747573852539,192.44590759277344,-130.43649291992188
7424,17.371835708618164,-63.21365737915039,177.17962646484375,-144.54713439941406
7425,66.6861572265625,-9.09356689453125,239.4564514160156,-92.87667846679688
7426,172.7422332763672,83.4577407836914,348.22021484375,7.045971393585205
7427,40.00571060180664,-54.88116073608398,205.93197631835938,-121.03812408447266
7428,17.125001907348633,-64.11123657226561,182.99517822265625,-136.01641845703122
7429,62.86771774291992,-27.93144226074219,230.6190643310547,-82.2628402709961
7430,164.0619354248047,80.94452667236328,334.13201904296875,21.54930305480957
7431,25.07602882385254,-68.07926940917969,183.73193359375,-112.10723876953124
7432,2.468333959579468,-80.63037109375,166.36009216308594,-128.09906005859378
7433,49.32928085327149,-28.4101505279541,223.7862701416016,-79.49531555175781
7434,153.10775756835938,79.94971466064453,336.16650390625,21.07059669494629
7435,17.196060180664062,-54.00228500366211,187.7037048339844,-117.3730239868164
7436,-6.092297077178955,-73.05707550048828,171.19952392578125,-141.22610473632812
7437,46.07556915283203,-19.099668502807614,233.65960693359372,-90.1727294921875
7438,148.35435485839844,93.44888305664062,341.1368408203125,8.48209285736084
7439,13.426240921020508,-56.92501831054688,199.35723876953125,-126.92098236083984
7440,0.30667179822921753,-65.39962768554689,179.96585083007812,-142.29571533203125
7441,60.04035568237305,-12.442646980285645,233.9961853027344,-94.58580780029295
7442,155.4526824951172,81.0772933959961,339.8353576660156,6.578484058380128
7443,23.46413230895996,-52.56803512573242,197.7004547119141,-127.7362823486328
7444,12.509964942932127,-65.23507690429689,188.2646942138672,-138.84751892089844
7445,69.51351928710939,-11.530111312866213,241.89111328125,-78.45935821533203
7446,180.27066040039062,88.3700942993164,349.6862487792969,24.78431701660156
7447,42.28330993652344,-53.17763900756836,199.1702423095703,-111.4564971923828
7448,21.54930305480957,-69.85385131835939,180.6839141845703,-124.86778259277344
7449,70.17174530029297,-26.9497184753418,232.3656005859375,-72.01551055908203
7450,173.88290405273438,82.25535583496094,340.6918029785156,25.27424430847168
7451,33.03079605102539,-73.30577850341797,186.23019409179688,-117.26082611083984
7452,12.872735977172852,-86.13363647460938,171.23692321777344,-136.166015625
7453,68.94131469726561,-26.45605278015137,231.303466796875,-75.02613067626953
7454,168.40396118164062,75.8227310180664,340.7890319824219,15.023178100585938
7455,27.566802978515625,-62.8826789855957,198.45591735839844,-124.13101959228516
7456,6.675721645355225,-75.38890075683594,182.52769470214844,-133.92207336425778
7457,60.60881805419922,-16.182546615600586,241.93600463867188,-87.00877380371094
7458,159.24867248535156,87.53609466552734,354.2601623535156,13.474859237670898
7459,24.75813865661621,-55.16726303100586,204.43228149414062,-128.52914428710938
7460,5.7818851470947275,-57.73657608032226,181.83580017089844,-148.5525665283203
7461,58.51447296142578,-16.100269317626953,237.0591735839844,-91.6986083984375
7462,164.07688903808594,84.43572235107422,341.6529541015625,9.241292953491213
7463,32.70168685913086,-47.3845329284668,203.21307373046875,-120.0844497680664
7464,11.68344783782959,-79.11758422851562,180.02943420410156,-138.72784423828122
7465,74.89897918701172,-21.83353614807129,236.02696228027344,-79.11758422851562
7466,174.61593627929688,79.34945678710938,338.12249755859375,27.768756866455078
7467,33.84983444213867,-61.75322723388672,194.0503234863281,-112.855224609375
7468,25.805309295654297,-79.50279235839844,178.05850219726562,-123.86922454833984
7469,74.01261901855469,-36.00027847290039,235.47344970703125,-81.11094665527344
7470,178.7335662841797,69.18814849853516,345.2170715332031,17.760784149169922
7471,33.232749938964844,-67.38552093505861,194.2073974609375,-120.484619140625
7472,11.186040878295898,-72.19876861572266,178.52224731445312,-139.89469909667972
7473,63.2641487121582,-15.415867805480955,229.7588806152344,-83.22773742675781
7474,167.59988403320312,78.60895538330078,340.0410461425781,18.49006462097168
7475,29.36195373535156,-53.87699890136719,198.3923492431641,-121.54300689697266
7476,7.999646186828612,-73.38805389404297,189.4577178955078,-133.08433532714844
7477,65.25751495361328,-13.594536781311035,244.9092254638672,-82.24040222167969
7478,170.13926696777344,92.67845916748048,347.8985900878906,15.097975730895994
7479,28.04924964904785,-51.45354461669922,197.5882568359375,-118.8989028930664
7480,8.938361167907715,-70.80378723144531,179.741455078125,-134.94680786132812
7481,63.2940673828125,-6.548564910888673,238.2933349609375,-74.30059051513672
7482,169.85877990722656,91.657470703125,342.5692138671875,32.36883544921875
7483,20.95465850830078,-51.5395622253418,190.9761199951172,-104.99768829345705
7484,-0.42634859681129456,-66.15882873535156,168.9406280517578,-123.76824951171876
7485,52.3735580444336,-18.407787322998047,224.4669189453125,-67.23592376708984
7486,159.57778930664062,83.76254272460938,330.59033203125,29.20113945007324
7487,20.947179794311523,-54.89799118041992,188.8555908203125,-117.22342681884766
7488,7.1918277740478525,-72.49422454833984,175.23861694335938,-136.54000854492188
7489,63.59325790405274,-16.055391311645508,233.76431274414062,-90.9581069946289
7490,166.87432861328125,85.62126922607422,346.9224548339844,8.616729736328125
7491,32.144439697265625,-54.88677215576172,201.36557006835938,-126.34130096435548
7492,12.87647533416748,-64.26270294189453,183.70201110839844,-139.2589111328125
7493,62.68446350097656,-5.718307018280028,239.2657165527344,-83.41847229003906
7494,167.26329040527344,85.88680267333984,349.5478820800781,13.886248588562012
7495,32.944778442382805,-53.10284042358398,207.0053253173828,-120.14054870605469
7496,16.545316696166992,-65.35101318359375,189.48016357421875,-136.07626342773438
7497,73.7919692993164,-10.243585586547852,242.5306396484375,-83.53440856933594
7498,175.82017517089844,89.45840454101562,350.1088562011719,2.980700254440308
7499,31.905086517333984,-50.71678161621094,202.0163116455078,-135.57511901855472
7500,21.60540199279785,-62.07485961914063,187.9355773925781,-145.72520446777344
7501,68.19333648681639,-9.536745071411133,240.60086059570312,-89.57808685302734
7502,165.10536193847656,91.47421264648438,346.4848937988281,14.581870079040527
7503,25.749210357666016,-51.00475692749024,195.07879638671875,-116.58016204833984
7504,12.427687644958494,-62.37031173706055,183.5935516357422,-121.42707061767578
7505,62.37405014038086,-6.683201313018799,236.07183837890625,-64.34871673583984
7506,159.1851043701172,87.01998901367188,343.4181823730469,28.17640686035156
7507,18.800477981567386,-55.6758918762207,197.6069641113281,-116.40438842773438
