,T7,F8,Cz,P4
6000,66.8507080078125,-53.39081192016602,111.41909790039062,-34.35845947265625
6001,113.77897644042969,3.0667178630828857,160.7932586669922,9.521785736083984
6002,117.75823211669922,0.6769219040870667,157.98458862304688,6.623363018035889
6003,28.935606002807614,-81.1221694946289,77.45333099365234,-78.22000885009766
6004,54.583839416503906,-42.451602935791016,112.48870849609376,-48.59252166748047
6005,108.43091583251952,8.818683624267578,175.48731994628906,-5.572451114654541
6006,110.22607421875,6.3241705894470215,175.6481475830078,-10.632535934448242
6007,37.01379013061523,-70.61679077148438,101.32884979248048,-82.85374450683594
6008,68.08113861083984,-35.32709503173828,134.66258239746094,-55.73946762084961
6009,117.4926986694336,8.650388717651367,180.74562072753903,-6.470026969909668
6010,121.64398956298828,13.190627098083494,177.5779266357422,-11.391735076904295
6011,44.86758041381836,-68.05496215820311,92.91407775878906,-80.79679870605469
6012,76.44355773925781,-42.70217895507813,122.65375518798828,-54.70725631713867
6013,128.52540588378906,12.70818042755127,182.18174743652344,9.675121307373047
6014,130.63844299316406,6.376529216766357,174.01380920410156,4.039092063903809
6015,47.48925018310547,-68.98245239257811,92.87667846679688,-63.93358993530274
6016,81.5223388671875,-42.39176559448242,126.67041015625,-33.008358001708984
6017,123.85426330566406,-3.4855866432189937,172.704833984375,10.419361114501953
6018,120.91470336914062,-0.2954520881175995,169.69796752929688,8.369895935058594
6019,36.93899154663086,-67.84926605224611,94.54093170166016,-63.09585189819336
6020,68.11479949951172,-34.30236053466797,126.47219848632812,-39.11935424804688
6021,103.36709594726562,1.4099422693252563,167.05010986328125,-3.257452964782715
6022,108.24766540527344,5.793105125427246,167.64476013183594,0.007479799911379814
6023,32.57452774047852,-68.79171752929689,92.06511688232422,-80.3143539428711
6024,63.5165901184082,-43.12852478027344,123.91036224365234,-55.17100524902344
6025,115.38526153564452,1.9260485172271729,172.04661560058594,-7.289064884185791
6026,114.64850616455078,-0.4674874842166901,173.4004669189453,-9.596583366394043
6027,47.41632080078125,-67.14990234375,95.20663452148438,-80.56492614746094
6028,70.52890014648438,-44.42627334594727,120.43599700927734,-47.33965301513672
6029,120.77072143554688,9.809757232666016,174.78048706054688,11.466533660888672
6030,126.27210998535156,4.783331871032715,164.55560302734375,12.023777961730955
6031,42.42355346679688,-71.29371643066406,82.42739868164062,-59.5728645324707
6032,74.53433990478516,-36.78939437866211,118.67450714111328,-28.42323875427246
6033,117.84986114501952,6.541085243225098,164.406005859375,17.03524398803711
6034,116.46609497070312,3.182654857635498,162.880126953125,8.657868385314941
6035,46.68704223632813,-69.62197875976561,86.22339630126953,-61.80184555053711
6036,74.15287017822266,-40.36473846435547,123.1773452758789,-37.6196517944336
6037,120.87169647216795,16.051651000976562,181.48239135742188,15.299930572509766
6038,115.48998260498048,9.813497543334961,178.62136840820312,8.141761779785156
6039,37.711280822753906,-64.64417266845703,98.7071762084961,-69.16571044921875
6040,68.28496551513672,-37.30176162719727,128.97044372558594,-43.15470504760742
6041,119.14012145996094,14.873581886291506,181.93490600585938,3.15647554397583
6042,121.71317291259766,12.8876953125,179.91537475585938,1.1406694650650024
6043,45.3780746459961,-67.98016357421875,94.58580780029295,-84.79100799560547
6044,76.26590728759766,-32.297775268554695,133.41719055175778,-44.684326171875
6045,124.55923461914062,17.484031677246097,179.3656005859375,3.564124584197998
6046,126.8592758178711,10.355782508850098,175.05349731445312,-0.6096037030220032
6047,52.40908813476562,-68.45513153076172,96.5941390991211,-71.33859252929688
6048,80.63410949707031,-39.8486328125,122.27228546142578,-42.56006240844727
6049,126.65731811523438,12.076136589050293,174.75804138183594,16.24986457824707
6050,128.35897827148438,5.60984992980957,169.2865753173828,14.372435569763185
6051,42.29265975952149,-70.70281219482422,86.9227523803711,-60.48914337158203
6052,67.79503631591797,-45.38368606567383,114.85606384277344,-33.99195098876953
6053,117.93213653564452,8.99071979522705,169.7877197265625,15.090496063232422
6054,120.52762603759766,6.470026969909668,167.16978454589844,10.886848449707033
6055,36.97452163696289,-69.44245910644531,94.31653594970705,-64.65164947509766
6056,72.1370620727539,-43.01258850097656,121.4308090209961,-38.78650283813477
6057,120.52762603759766,13.78153133392334,178.9055938720703,11.324417114257812
6058,112.4083023071289,6.836536884307861,171.79605102539062,3.448187828063965
6059,32.83071136474609,-59.311073303222656,97.15138244628906,-74.85035705566406
6060,59.982383728027344,-28.909425735473636,120.19290161132812,-51.67419815063477
6061,117.01586151123048,12.902654647827148,172.716064453125,4.7945518493652335
6062,118.31360626220705,13.45989990234375,175.32650756835938,-0.22065410017967224
6063,43.29869079589844,-62.81909942626953,86.23834991455078,-78.76602935791016
6064,75.21499633789062,-38.18063735961914,118.42767333984376,-46.995582580566406
6065,128.28044128417972,15.875875473022461,172.61508178710938,7.936067581176758
6066,130.25885009765622,15.980592727661133,177.78736877441406,9.776098251342773
6067,52.36795043945313,-59.71498107910156,94.42125701904295,-67.63234710693361
6068,72.40259552001953,-31.029949188232425,120.8623504638672,-37.48127746582031
6069,124.8733901977539,11.945240020751953,175.2965850830078,15.094236373901367
6070,122.84262084960938,7.476059913635254,169.7428436279297,10.13512897491455
6071,45.44539260864258,-64.54693603515625,90.50557708740234,-67.50145721435547
6072,76.77827453613281,-31.923786163330078,122.175048828125,-30.745718002319336
6073,124.1740264892578,17.263378143310547,176.46717834472656,12.973712921142578
6074,123.47467041015624,18.87901496887207,178.7298126220703,9.600322723388672
6075,43.90455627441406,-60.79207229614258,101.82251739501952,-62.52364730834961
6076,68.77114868164061,-32.54460906982422,130.60104370117188,-36.84549331665039
6077,116.37633514404295,14.106903076171875,177.293701171875,4.543978214263916
6078,122.08342742919922,17.326955795288086,182.4697113037109,4.102670192718507
6079,46.11857604980469,-57.31770706176758,99.53369903564452,-74.25945281982422
6080,74.43709564208984,-29.97903823852539,133.01327514648438,-45.22286987304688
6081,121.40650177001952,15.030657768249512,183.1952667236328,7.577037334442139
6082,129.33134460449222,22.10654830932617,189.2464141845703,8.463393211364746
6083,45.46035385131836,-66.93672943115234,104.0066146850586,-68.67578125
6084,75.63760375976562,-33.042015075683594,130.79551696777344,-33.30754852294922
6085,123.91597747802734,18.3629093170166,185.12130737304688,21.220191955566406
6086,122.93985748291016,14.772604942321776,179.57504272460938,18.576082229614254
6087,53.73675155639648,-57.99836730957031,101.57194519042969,-57.96096801757813
6088,73.40862274169922,-38.588287353515625,129.67355346679688,-31.254343032836914
6089,121.30552673339844,14.394874572753904,181.90126037597656,7.535898208618164
6090,117.98075103759766,4.779592037200928,172.61508178710938,4.9104886054992685
6091,37.77859878540039,-64.58433532714844,101.16803741455078,-71.83599853515625
6092,65.56231689453125,-35.13262176513672,128.55157470703122,-41.48297119140625
6093,117.33374786376952,12.75679874420166,178.4418487548828,7.633135795593263
6094,116.4586181640625,18.7742977142334,176.3175811767578,-1.5071797370910645
6095,41.9149284362793,-66.15509033203125,95.52826690673828,-77.65154266357422
6096,70.30451202392578,-25.786609649658203,133.18157958984378,-47.82583999633789
6097,117.25147247314452,15.389688491821287,178.3483428955078,0.7704194188117981
6098,123.02587890625,10.187487602233887,176.72523498535156,-0.4712274074554443
6099,51.4404525756836,-65.90077972412111,102.05065155029295,-72.80089569091797
6100,82.50032043457031,-30.229610443115234,138.77272033691406,-39.16797256469727
6101,129.27525329589844,13.026071548461914,184.94927978515625,4.3121047019958505
6102,133.71824645996094,9.084217071533203,189.3735809326172,7.85004997253418
6103,54.65676879882813,-68.13723754882811,106.9573974609375,-64.16920471191406
6104,85.62687683105469,-32.13695907592773,143.51492309570312,-29.74716377258301
6105,123.02587890625,14.510811805725098,184.93431091308597,16.362062454223633
6106,118.45945739746094,3.698760986328125,184.066650390625,10.96912670135498
6107,50.1838493347168,-66.40940093994139,106.5347900390625,-63.3763427734375
6108,76.19485473632812,-32.107040405273445,138.70541381835938,-33.475845336914055
6109,120.57250213623048,17.450372695922848,189.7587890625,16.881908416748047
6110,121.59349822998048,17.065162658691403,187.73175048828125,10.797091484069824
6111,44.61887741088867,-67.98390197753906,110.23355102539062,-71.65274047851562
6112,75.80963897705078,-35.99653625488281,142.38172912597656,-42.82185363769531
6113,125.34087371826172,17.510211944580078,189.9457855224609,8.960800170898438
6114,117.60302734375,10.804571151733398,180.39781188964844,4.420561790466309
6115,45.87548446655274,-62.11225891113281,109.968017578125,-71.82852172851562
6116,76.99893188476562,-27.79119682312012,142.20220947265625,-37.17460632324219
6117,126.40300750732422,16.717351913452152,190.9069366455078,10.45676040649414
6118,119.85070037841795,15.5579833984375,184.9305725097656,3.9081954956054688
6119,47.62201690673828,-56.27427291870117,105.98128509521484,-73.70594787597656
6120,72.48487091064453,-32.208019256591804,129.91664123535156,-53.33471298217773
6121,119.44679260253906,12.031258583068848,177.97061157226562,-3.429488182067871
6122,114.74200439453124,10.34082317352295,181.76287841796875,-2.857283592224121
6123,43.4520263671875,-72.03421020507812,102.08431243896484,-78.64261627197266
6124,69.25733947753906,-40.56295394897461,137.19075012207028,-39.29887008666992
6125,118.953125,14.331296920776367,190.6675720214844,12.106056213378904
6126,117.08317565917969,8.61298942565918,186.273193359375,7.3002848625183105
6127,41.563377380371094,-71.40965270996094,106.52731323242188,-68.46634674072266
6128,72.20063781738281,-33.621700286865234,144.98095703125,-40.742469787597656
6129,119.44679260253906,15.10171604156494,186.2133636474609,4.723493576049805
6130,114.44654846191406,13.100869178771973,179.51145935058594,-0.3104116916656494
6131,41.96354675292969,-62.5423469543457,101.90853118896484,-76.82128143310547
6132,79.93101501464844,-30.180992126464844,139.84982299804688,-39.30260848999024
6133,125.96543884277344,17.11378288269043,192.81802368164062,3.4594075679779053
6134,113.2348175048828,5.766925811767577,187.99354553222656,-2.6553289890289307
6135,46.96005249023438,-62.8826789855957,111.18348693847656,-75.3178482055664
6136,76.38932800292969,-42.900390625,139.03825378417972,-52.05192947387695
6137,126.3805694580078,17.570049285888672,197.36947631835938,-2.479553699493408
6138,122.09464263916016,12.394028663635256,191.1051483154297,-1.5595382452011108
6139,44.37578201293945,-67.07136535644531,113.73410034179688,-70.72525024414062
6140,79.42986297607422,-32.529651641845696,152.2401123046875,-33.438446044921875
6141,118.71377563476562,17.532651901245114,195.8136749267578,16.055391311645508
6142,118.4108428955078,1.22668719291687,188.71160888671875,7.203047275543213
6143,40.15343475341797,-59.01935958862305,112.65326690673828,-62.36657333374024
6144,65.19954681396484,-29.69106483459473,137.27302551269528,-31.086048126220703
6145,120.46405029296876,22.570295333862305,193.97738647460938,17.192319869995114
6146,122.24797821044922,15.408388137817385,186.5611724853516,7.1357293128967285
6147,47.47990036010742,-61.106224060058594,109.59402465820312,-72.7073974609375
6148,73.57691955566406,-34.84464645385742,140.06672668457028,-49.3143196105957
6149,122.77904510498048,16.13766860961914,191.8493804931641,0.19447480142116547
6150,121.69447326660156,12.154674530029295,191.50157165527344,0.3104116916656494
6151,54.53709030151367,-66.46923828125,114.8672866821289,-70.52703094482422
6152,76.70347595214844,-35.712303161621094,145.72146606445312,-44.658145904541016
6153,133.10490417480472,16.683692932128903,201.74142456054688,13.06721019744873
6154,129.98208618164062,4.865609645843506,194.21299743652344,7.696713924407959
6155,49.86221694946289,-71.95567321777344,115.07298278808594,-69.74913787841797
6156,80.49573516845703,-37.39152145385742,141.37196350097656,-33.019577026367195
6157,123.7439422607422,8.67282772064209,196.614013671875,13.47111988067627
6158,117.23651123046876,-0.3403308987617493,191.08644104003903,8.80372428894043
6159,36.50703430175781,-77.27381134033203,112.36903381347656,-69.438720703125
6160,72.23056030273438,-28.92812538146973,142.67344665527344,-36.0227165222168
6161,120.15363311767578,20.352535247802734,201.77508544921875,13.83014965057373
6162,115.72933197021484,12.382808685302734,196.88330078125,2.8984224796295166
6163,40.46384811401367,-61.92152404785156,118.97369384765624,-67.45657348632811
6164,66.83762359619139,-41.53907012939453,142.29197692871094,-43.711952209472656
6165,121.75431060791016,14.742685317993164,193.79039001464844,1.7801923751831057
6166,129.41737365722656,5.370496273040772,197.4741973876953,2.1953213214874268
6167,54.76522445678711,-62.972434997558594,123.61117553710938,-68.22325134277344
6168,80.11426544189453,-32.488510131835945,155.46389770507812,-39.639198303222656
6169,132.56636047363278,14.028365135192873,210.182373046875,13.441200256347654
6170,126.0177993774414,16.20872688293457,204.05642700195312,10.284725189208984
6171,45.55759048461914,-69.74913787841797,121.8122787475586,-66.34956359863281
6172,72.83641815185547,-27.49948501586914,156.9037628173828,-29.545209884643555
6173,118.88207244873048,22.29354286193848,204.759521484375,21.93825340270996
6174,118.57540130615234,19.305362701416016,199.04869079589844,14.507071495056152
6175,43.78861999511719,-59.120338439941406,118.78670501708984,-62.441368103027344
6176,66.98722076416016,-34.56041717529297,141.6449737548828,-40.5704345703125
6177,115.8003921508789,15.70009994506836,199.1085357666016,13.070950508117676
6178,118.63150024414062,14.817483901977539,197.7659149169922,7.4611005783081055
6179,38.0590934753418,-70.63922882080078,112.52610778808594,-76.32762145996094
6180,76.23973083496094,-33.303810119628906,152.9207763671875,-42.55632019042969
6181,131.19755554199222,15.621562004089355,200.3352203369141,5.6472487449646
6182,127.94384765625,4.323324203491212,199.99114990234372,0.9312350749969482
6183,53.83398818969727,-69.13953399658203,125.5073013305664,-70.8224868774414
6184,84.08978271484375,-36.57995986938477,150.744140625,-41.00426483154297
6185,130.1092529296875,22.68623352050781,201.80874633789062,8.246479034423826
6186,131.57902526855472,15.737499237060547,200.58953857421875,5.632289409637451
6187,47.30412292480469,-61.68217086791992,119.14947509765624,-67.63609313964844
6188,78.05358123779297,-29.12634086608887,156.29415893554688,-39.65042114257813
6189,128.93865966796878,14.260238647460938,204.0526885986328,12.300531387329102
6190,120.42290496826172,7.6518354415893555,195.9819793701172,5.187241077423097
6191,41.32776260375977,-70.67662811279297,115.92193603515624,-68.25691223144531
6192,70.89167022705078,-37.728111267089844,144.9547882080078,-41.20621871948242
6193,118.37718200683594,10.355782508850098,199.8004150390625,8.16046142578125
6194,115.65453338623048,5.276998996734619,195.65660095214844,-0.5983840227127075
6195,35.47481918334961,-68.90765380859375,112.80286407470705,-79.9141845703125
6196,70.29702758789061,-37.93380355834961,146.56668090820312,-48.48406219482422
6197,113.36197662353516,18.85283660888672,195.3873291015625,-1.305225133895874
6198,109.4799575805664,8.347456932067871,196.59158325195312,-4.727233409881592
6199,39.54757308959961,-65.19767761230469,110.17371368408205,-81.63079833984375
6200,71.38533782958984,-30.880353927612305,142.80059814453125,-50.72426223754883
6201,122.17317962646484,18.721939086914066,196.67759704589844,2.43093490600586
6202,121.08860778808594,8.80372428894043,191.13507080078125,-6.380269527435303
6203,46.18963623046875,-66.94420623779297,110.5477066040039,-76.04712677001953
6204,71.90144348144531,-32.604446411132805,144.74160766601562,-39.841156005859375
6205,125.26608276367188,19.95236587524414,199.35536193847656,13.676814079284668
6206,121.69821166992188,6.784178733825684,198.09127807617188,12.969972610473633
6207,41.91119003295898,-64.87604522705078,116.89057159423828,-65.57166290283203
6208,74.32864379882812,-31.67695236206055,151.177978515625,-39.98326873779297
6209,124.95940399169922,11.829303741455078,202.5978546142578,8.339977264404299
6210,117.3861083984375,4.820731163024902,195.099365234375,-0.9274951815605164
6211,47.58087539672852,-59.842140197753906,120.1891632080078,-73.51895141601562
6212,70.46532440185547,-34.777328491210945,148.3880157470703,-44.48611068725586
6213,116.07340240478516,12.311750411987305,202.6838836669922,1.4996998310089111
6214,115.5385971069336,11.144902229309082,198.8130798339844,0.8452174067497253
6215,43.54552459716797,-66.48419952392578,123.50271606445312,-76.60810852050781
6216,69.27230072021484,-37.59347534179688,147.64002990722656,-47.3770523071289
6217,122.05350494384766,12.644601821899414,201.4459686279297,5.950181007385254
6218,119.81330871582031,8.310057640075684,197.7546844482422,-0.9461947083473206
6219,44.383262634277344,-70.10816192626953,120.01338958740234,-73.12252044677734
6220,76.58380126953125,-42.073875427246094,154.8730010986328,-43.10234832763672
6221,116.79520416259766,13.276644706726074,200.15196228027344,6.559784412384032
6222,112.23252868652344,11.096282958984377,194.1269836425781,3.1377761363983154
6223,43.14161682128906,-57.09705352783203,116.24730682373048,-66.2635498046875
6224,65.18832397460939,-34.55293655395508,143.3877716064453,-46.6627311706543
6225,119.66931915283205,16.24986457824707,197.3900451660156,-1.3725433349609375
6226,120.97828674316406,0.2169141918420792,191.2977600097656,-5.299437999725342
6227,43.62593460083008,-74.61474609375,107.67733001708984,-86.21591186523438
6228,69.75287628173828,-46.804847717285156,143.3260498046875,-52.72885131835938
6229,126.37870025634766,12.091096878051758,195.5649719238281,-1.1593689918518066
6230,123.69718933105469,6.844017028808594,193.11907958984372,-6.163355350494385
6231,47.82210159301758,-73.93408203125,112.87579345703124,-82.28901672363281
6232,74.80921936035156,-49.3629379272461,142.9109344482422,-57.785194396972656
6233,123.48401641845705,6.971173286437987,194.24853515625,-6.9188151359558105
6234,130.26445007324222,7.988426208496094,199.0617828369141,-8.253959655761719
6235,47.19379806518555,-66.59265899658203,111.25267028808594,-84.20758819580078
6236,81.4587631225586,-30.97385215759277,148.01588439941406,-49.42651748657226
6237,127.2912368774414,21.515644073486328,203.51600646972656,-0.8115583062171936
6238,123.9814224243164,17.132482528686527,200.6362762451172,-2.662808656692505
6239,47.567787170410156,-60.44052505493164,127.2407455444336,-66.37574768066406
6240,79.274658203125,-25.61831474304199,165.0773162841797,-23.01160430908203
6241,125.2642059326172,12.394028663635256,216.82257080078125,31.65825271606445
6242,121.45325469970705,15.07927703857422,208.4115295410156,25.244325637817386
6243,44.418792724609375,-61.28200149536133,120.54632568359376,-54.71473693847656
6244,73.28334045410156,-45.33880615234375,147.24546813964844,-33.3636474609375
6245,121.21389770507812,13.85258960723877,198.37364196777344,23.41551399230957
6246,119.57208251953124,-1.5557984113693235,193.17892456054688,8.190381050109862
6247,40.72003173828125,-71.79112243652344,112.22879028320312,-68.73936462402344
6248,64.0570068359375,-46.49817657470703,136.73635864257812,-48.28584671020508
6249,116.31836700439452,15.303670883178713,194.6599273681641,6.989872932434082
6250,113.4049835205078,13.242985725402832,191.2977600097656,-3.5603847503662114
6251,34.545455932617195,-61.72330856323242,109.93622589111328,-82.72284698486328
6252,67.32193756103516,-26.20547866821289,144.50038146972656,-49.61725234985352
6253,111.84170532226562,19.799030303955078,195.1161956787109,-9.940653800964355
6254,107.73529815673828,23.94657897949219,189.9326934814453,-11.55255126953125
6255,32.286556243896484,-55.193443298339844,116.7054443359375,-91.0964813232422
6256,73.85928344726562,-25.45001983642578,151.62115478515625,-54.68481826782226
6257,125.0809555053711,12.012558937072756,207.41297912597656,-3.1153366565704346
6258,128.59272766113278,15.872135162353516,202.0050811767578,0.01869950070977211
6259,47.4069709777832,-71.02818298339844,120.97267150878906,-67.067626953125
6260,74.02010345458984,-38.820159912109375,147.4848175048828,-34.70627212524414
6261,122.16757202148438,15.393427848815918,197.0347595214844,20.105701446533203
6262,113.43490600585938,6.38400936126709,186.6490631103516,13.702993392944336
6263,38.89870071411133,-72.36332702636719,111.3012924194336,-61.52883529663086
6264,68.91887664794922,-38.07966232299805,137.9854736328125,-30.00895690917969
6265,114.28760528564452,19.63447570800781,191.76150512695312,12.390288352966307
6266,111.06381225585938,10.33708381652832,189.577392578125,5.2882184982299805
6267,40.40587997436523,-59.45318984985352,114.47647094726562,-67.61739349365234
6268,62.512428283691406,-25.865148544311523,152.01010131835938,-39.66164016723633
6269,124.14224243164062,20.973358154296875,209.86636352539062,7.932327747344972
6270,114.57557678222656,15.988072395324707,201.84800720214844,1.791412115097046
6271,42.18981170654297,-66.14761352539061,122.52847290039062,-75.1607666015625
6272,76.92974090576172,-39.53074264526367,154.6018524169922,-49.93888473510742
6273,131.99229431152344,20.973358154296875,210.9097900390625,3.9792535305023193
6274,130.90771484375,10.011712074279783,204.6118011474609,-2.4608540534973145
6275,54.20610809326172,-61.14362335205078,128.80027770996094,-71.29745483398438
6276,84.66011810302734,-34.541717529296875,157.80694580078125,-47.64258575439453
6277,133.36483764648438,12.659561157226562,205.88710021972656,5.138622760772705
6278,129.54264831542972,7.670534610748291,199.6938323974609,0.11967679858207705
6279,50.01742172241211,-69.80522918701172,122.35643768310548,-69.34148406982422
6280,76.48843383789062,-40.81726837158203,145.3643035888672,-40.07302856445313
6281,126.9471664428711,15.251312255859375,201.99012756347656,11.545071601867676
6282,120.4621810913086,4.196167945861816,191.5745086669922,5.950181007385254
6283,40.58539581298828,-71.48445129394531,109.06109619140624,-72.55780029296875
6284,67.77072906494139,-46.382240295410156,144.904296875,-43.49503707885742
6285,123.77572631835938,14.53325080871582,196.80288696289062,14.039584159851074
6286,118.77922058105469,11.223440170288086,194.81700134277344,-0.7442401051521301
6287,46.13914489746094,-63.04723358154297,123.1268539428711,-67.84178161621094
6288,74.3753890991211,-31.63581466674805,155.25259399414062,-42.264610290527344
6289,127.69514465332031,17.30451774597168,207.80941772460938,5.2882184982299805
6290,127.35481262207031,9.402108192443848,199.33853149414062,-1.200507879257202
6291,49.3218002319336,-62.86397933959961,123.29888916015624,-79.2335205078125
6292,77.10551452636719,-35.042861938476555,151.3331756591797,-50.77288055419922
6293,131.52479553222656,21.8260555267334,210.4535217285156,11.126202583312988
6294,124.63216400146484,3.8259177207946777,203.88999938964844,1.5557984113693235
6295,43.371620178222656,-64.12058258056639,122.59578704833984,-65.23507690429689
6296,74.08367919921875,-41.23613739013672,151.5500946044922,-32.09208297729492
6297,120.484619140625,12.296791076660154,202.5024871826172,21.19027328491211
6298,121.68138122558594,7.591997146606445,197.81265258789062,18.0225772857666
6299,38.37511444091797,-70.88606262207031,117.93961334228516,-58.19658279418945
6300,64.0570068359375,-43.02380752563477,145.162353515625,-36.59492111206055
6301,117.26456451416016,13.441200256347654,199.2263336181641,15.733758926391602
6302,112.82904052734376,0.6058638095855713,193.5641326904297,5.744486331939697
6303,31.68069267272949,-75.95736694335938,117.33000946044922,-69.59205627441406
6304,61.31192016601562,-40.170265197753906,149.3585205078125,-40.611572265625
6305,117.66099548339844,17.517690658569336,209.2230987548828,9.473166465759276
6306,113.6406021118164,5.9427008628845215,198.84112548828125,-6.548564910888673
6307,47.57900619506836,-67.90536499023439,123.5083236694336,-80.62102508544922
6308,83.8934326171875,-35.783363342285156,152.2906036376953,-53.61894607543945
6309,136.49139404296878,11.99385929107666,208.7817840576172,-4.7721123695373535
6310,139.2589111328125,13.13826847076416,204.35374450683597,-12.094836235046387
6311,62.489990234375,-65.541748046875,137.11407470703122,-73.69847106933594
6312,83.45586395263672,-38.95479965209961,161.67774963378906,-44.86009979248047
6313,130.67958068847656,15.524324417114258,210.51710510253903,15.599123001098633
6314,120.34249877929688,7.105809688568115,198.6541290283203,11.877922058105467
6315,38.45738983154297,-75.37394714355469,121.4813003540039,-60.32084655761719
6316,66.74973297119139,-38.83885955810547,148.9284210205078,-26.13068008422852
6317,113.18059539794922,7.7303733825683585,198.46714782714844,19.19690704345703
6318,115.06924438476562,5.03764533996582,199.3460235595703,17.906641006469727
6319,35.88433837890625,-77.43463134765625,117.74140167236328,-57.57949829101562
6320,67.99137878417969,-44.21683883666992,151.62115478515625,-31.4974365234375
6321,124.21703338623048,9.921954154968262,205.8497009277344,15.221392631530762
6322,115.83218383789062,-2.7563061714172363,199.17398071289062,1.4024624824523926
6323,44.235538482666016,-80.16475677490234,121.04747009277344,-75.60581970214844
6324,79.5140151977539,-44.684326171875,156.6924591064453,-43.06868743896485
6325,131.63699340820312,10.299684524536133,208.99496459960938,8.998199462890625
6326,142.79685974121094,2.9433012008666988,216.2877655029297,7.775251865386963
6327,58.88098526000977,-74.22205352783203,129.37623596191406,-65.74369812011719
6328,94.4062957763672,-34.437000274658196,164.9015350341797,-31.41889953613281
6329,131.43504333496094,10.026671409606934,214.93017578125,14.858622550964355
6330,123.77572631835938,8.695267677307129,205.66644287109372,9.95935344696045
6331,39.60179901123047,-71.10298156738281,123.45222473144531,-66.97412872314453
6332,67.41543579101561,-36.20971298217773,158.37167358398438,-32.948516845703125
6333,124.14598083496094,13.717952728271484,204.01715087890625,20.49839210510254
6334,112.76546478271484,5.849203586578369,196.84402465820312,12.027518272399902
6335,36.71833801269531,-75.882568359375,123.36247253417969,-60.2535285949707
6336,64.48709869384766,-44.0634994506836,155.0655975341797,-29.60504722595215
6337,111.52008056640624,7.274105548858643,197.2554168701172,13.452420234680176
6338,108.28132629394531,3.5790841579437256,191.39498901367188,8.201601028442383
6339,36.86045455932617,-66.88063049316406,112.03430938720705,-66.47298431396484
6340,64.35993957519531,-37.1484260559082,141.48602294921875,-46.382240295410156
6341,124.51248931884766,19.5484561920166,196.38401794433597,7.535898208618164
6342,117.52261352539062,12.079876899719238,198.81495666503903,7.229226589202881
6343,48.861793518066406,-66.52533721923828,123.02214050292969,-74.51376342773438
6344,73.72464752197266,-42.84429550170898,147.35018920898438,-41.890621185302734
6345,125.69055938720705,14.705286979675293,211.2201995849609,18.51250457763672
6346,131.03861999511722,4.917968273162842,204.5556945800781,11.784424781799315
6347,43.62593460083008,-74.51750946044922,121.71691131591795,-67.78194427490234
6348,78.72489166259766,-42.156150817871094,152.8777618408203,-36.06759643554688
6349,119.21305084228516,6.915074825286865,205.9693756103516,11.212220191955566
6350,118.58848571777344,-5.527572154998778,197.9248504638672,7.416221618652344
6351,42.23094940185547,-74.83539581298828,118.97557067871094,-63.67179489135742
6352,63.03601455688477,-42.27956771850586,148.74142456054688,-33.87975311279297
6353,115.3272933959961,6.608403205871582,204.1742248535156,18.579822540283203
6354,112.42513275146484,1.5445786714553833,190.7180633544922,4.0353522300720215
6355,39.75139617919922,-70.5606918334961,114.58866119384766,-71.3273696899414
6356,63.312767028808594,-47.08160018920898,145.64479064941406,-45.469703674316406
6357,118.7605209350586,2.3823163509368896,205.187744140625,5.572451114654541
6358,116.91300964355469,-4.379422664642334,195.9950714111328,-2.980700254440308
6359,47.57152557373047,-69.84637451171875,121.17089080810548,-76.41363525390625
6360,77.28129577636719,-43.52495574951172,151.08261108398438,-48.67853927612305
6361,135.80699157714844,18.75933837890625,210.89108276367188,5.845463752746582
6362,132.38497924804688,0.3814697861671448,202.55859375,1.5109195709228516
6363,57.85999298095703,-76.6679458618164,127.9064483642578,-69.73417663574219
6364,89.63792419433594,-43.01633071899414,160.7539825439453,-37.47379684448242
6365,130.84414672851562,7.5171990394592285,208.27316284179688,10.67367458343506
6366,123.67101287841795,-6.245633125305176,201.02149963378903,7.405002117156982
6367,45.29393005371094,-79.07270812988281,118.28742218017578,-66.50663757324219
6368,65.59784698486328,-47.93429946899414,145.42039489746094,-38.03478240966797
6369,118.48377227783205,8.010866165161133,199.89952087402344,11.451573371887207
6370,113.62190246582031,3.2985918521881104,185.1194305419922,6.612143039703369
6371,36.62483978271485,-68.27187347412111,105.65778350830078,-73.70968627929688
6372,65.49686431884766,-38.17689895629883,148.22906494140625,-48.30454635620117
6373,120.43599700927734,19.50357818603516,209.2230987548828,3.2537128925323486
6374,108.5057144165039,0.5871642827987671,188.7396545410156,-19.42504119873047
6375,43.54739379882813,-68.85903930664061,118.87832641601562,-86.12989807128906
6376,71.304931640625,-40.925724029541016,155.37600708007812,-56.84647750854492
6377,125.8251953125,12.487525939941404,203.5047912597656,-3.9081954956054688
6378,131.35650634765622,9.705039978027344,209.0136566162109,-4.140069484710693
6379,56.40517044067383,-63.79521179199219,134.55224609375,-68.44764709472656
6380,74.6371841430664,-44.91619873046875,158.0874481201172,-43.39031982421875
6381,129.49777221679688,15.404647827148438,217.3723297119141,14.94838047027588
6382,119.43370819091795,2.39353609085083,200.4866943359375,7.565817832946777
6383,45.38742446899414,-69.49855804443361,125.66999053955078,-64.5618896484375
6384,72.22494506835938,-37.387779235839844,152.07742309570312,-34.63521194458008
6385,130.59730529785156,14.679107666015625,209.6045684814453,13.489819526672365
6386,125.61202239990234,14.465932846069336,201.6685028076172,11.402955055236815
6387,38.88747787475586,-67.54633331298828,115.23192596435548,-72.49422454833984
6388,72.24364471435547,-44.37017440795898,148.69281005859375,-40.79856872558594
6389,118.19953918457031,8.055744171142576,202.0499725341797,1.6979146003723145
6390,116.76715850830078,0.4413082003593445,195.04513549804688,-3.9792535305023193
6391,43.42023849487305,-70.26149749755861,122.97351837158205,-73.91912078857422
6392,64.88352203369139,-43.95878219604492,147.7802734375,-60.23482894897461
6393,121.26251983642578,16.268564224243164,204.4285430908203,-4.8543901443481445
6394,112.05862426757812,14.970819473266602,192.87599182128903,-14.428533554077148
6395,43.70447158813477,-66.25606536865234,124.4919204711914,-90.24004364013672
6396,73.52268981933594,-35.97783660888672,155.09178161621094,-61.70087051391602
6397,130.02510070800778,19.589595794677734,208.3516998291016,-1.2715660333633425
6398,129.13874816894528,6.286771774291992,209.32032775878903,2.1803617477416988
6399,49.96880340576172,-62.2020149230957,130.91706848144528,-72.01551055908203
6400,80.73322296142578,-35.570186614990234,165.44381713867188,-31.71809196472168
6401,129.27711486816406,18.142253875732425,217.0020904541016,24.0737361907959
6402,119.62818145751952,5.766925811767577,200.4829406738281,12.502485275268555
6403,44.67310333251953,-70.99078369140625,122.62944793701172,-59.29611206054688
6404,68.99367523193361,-43.1696662902832,147.7391357421875,-27.750057220458984
6405,115.63396453857422,6.862716197967528,197.5882568359375,15.146595001220705
6406,112.59342956542969,1.1032705307006836,189.0799865722656,3.9568140506744394
6407,39.96083068847656,-64.96205902099611,117.91717529296876,-66.98160552978516
6408,64.48335266113281,-41.52784729003906,146.0449676513672,-55.26076126098633
6409,118.67076873779295,9.461946487426758,201.6236114501953,-9.020638465881348
6410,116.89805603027344,-2.041985273361206,192.4720764160156,-17.502731323242188
6411,44.92367935180664,-72.21746826171875,118.21263122558594,-96.71381378173828
6412,71.06558227539062,-45.45474243164063,148.6292266845703,-69.00489044189453
6413,134.49801635742188,9.42080783843994,209.00991821289062,-2.932081460952759
6414,115.83966064453124,-2.6478490829467773,190.38522338867188,-22.24866485595703
6415,50.24181747436523,-65.63524627685547,121.24942779541016,-80.82672119140625
6416,79.62621307373047,-33.26266860961914,161.70018005371094,-44.20187759399414
6417,129.78201293945312,17.37557601928711,216.44857788085938,15.703840255737305
6418,127.48944854736328,10.393181800842283,208.69577026367188,5.239599704742432
6419,49.49009704589844,-57.58697891235352,133.800537109375,-59.11285781860352
6420,79.1699447631836,-31.160846710205078,168.86209106445312,-25.0012321472168
6421,134.50924682617188,18.175912857055664,227.66079711914062,23.65860748291016
6422,126.6517105102539,10.056591033935547,216.7178497314453,12.715660095214846
6423,46.46825790405274,-69.779052734375,133.460205078125,-68.22699737548828
6424,78.593994140625,-38.88747787475586,160.5819549560547,-34.130325317382805
6425,130.01014709472656,8.500792503356934,211.9532165527344,9.173974990844727
6426,118.66515350341795,-3.8577067852020255,204.37057495117188,-3.053628206253052
6427,45.71466827392578,-70.58499908447266,126.70033264160156,-72.19316101074219
6428,81.43819427490234,-46.4738655090332,157.23287963867188,-44.918067932128906
6429,119.63752746582031,7.908018589019775,201.6554107666016,0.4356983304023743
6430,112.9094467163086,-6.516775608062744,197.03663635253903,-4.545848369598389
6431,39.12870407104492,-69.56401062011719,120.5893325805664,-76.17240905761719
6432,74.74376678466797,-41.9560661315918,156.7354736328125,-36.44345474243164
6433,128.70304870605472,16.607025146484375,215.41075134277344,14.875452041625975
6434,123.7663803100586,7.4779300689697275,208.2899932861328,10.110819816589355
6435,52.95511245727539,-69.75848388671875,133.88841247558594,-57.15127944946289
6436,83.20716094970703,-43.0181999206543,161.12611389160156,-32.61379623413086
6437,127.12480926513672,6.81970739364624,216.0988922119141,13.989095687866213
6438,120.17607879638672,-1.9017391204833984,207.1231384277344,2.0401153564453125
6439,46.32801055908203,-72.06226348876953,137.01870727539062,-69.63880920410156
6440,84.17205810546875,-39.40919494628906,165.931884765625,-33.42535400390625
6441,130.59169006347656,5.832374095916747,218.05113220214844,10.35765266418457
6442,127.1360321044922,7.91549825668335,215.3621368408203,4.220477104187012
6443,47.05729293823242,-71.93510437011719,127.17155456542969,-80.79866790771484
6444,75.05418395996094,-41.02483367919922,156.91123962402344,-45.71466827392578
6445,123.71775817871094,9.882685661315918,203.8694305419922,-1.2846556901931765
6446,115.79291534423828,1.086440920829773,198.3194122314453,-8.020215034484862
6447,48.40365600585938,-69.80335998535156,118.41271209716795,-78.93994140625
6448,70.80939483642578,-45.486534118652344,155.6209716796875,-42.43103408813477
6449,123.4709243774414,15.683270454406738,210.60498046875,12.27622127532959
6450,113.5938491821289,8.109972953796388,200.88497924804688,0.1589457541704178
6451,35.59075927734375,-64.2271728515625,124.7593231201172,-69.57522583007811
6452,69.57897186279297,-32.10143280029297,156.33529663085938,-40.41522979736328
6453,112.67009735107422,11.285147666931152,206.7304534912109,9.703170776367188
6454,112.55042266845705,8.551280975341799,200.58580017089844,1.2023777961730957
6455,44.68993377685547,-67.78755950927734,125.51852416992188,-71.9201431274414
6456,71.1534652709961,-41.712974548339844,155.22080993652344,-46.0512580871582
6457,118.88207244873048,11.696537017822266,211.4464569091797,8.566241264343263
6458,115.55729675292969,-0.5254559516906738,204.5126953125,-6.064247608184815
6459,47.18070602416992,-70.53264617919922,126.47967529296876,-80.27882385253906
6460,67.14803314208984,-39.59244918823242,156.90750122070312,-52.99999237060547
6461,121.70569610595705,18.73502922058105,212.7703857421875,1.430511713027954
6462,122.2405014038086,9.658291816711426,210.9901885986328,-6.49807596206665
6463,51.91168212890625,-59.47002029418945,135.062744140625,-68.22138214111328
6464,72.41381072998047,-39.26333999633789,157.30767822265625,-43.99805450439453
6465,116.79520416259766,15.279361724853516,210.8667755126953,9.968703269958496
6466,110.31769561767578,9.527395248413086,204.1237335205078,7.863139629364014
6467,33.219661712646484,-66.73290252685547,122.62010192871094,-65.70442962646484
6468,59.33538436889648,-30.32123947143555,148.84054565429688,-36.37239837646485
6469,112.62147521972656,19.49422836303711,208.1104736328125,17.18297004699707
6470,103.44002532958984,11.266448974609375,195.12928771972656,1.318314790725708
6471,29.98464775085449,-57.14006042480469,125.5447006225586,-66.8974609375
6472,59.3391227722168,-35.55335998535156,150.17193603515625,-41.59329605102539
6473,115.0112762451172,19.80463981628418,207.9945373535156,4.6206464767456055
6474,113.56393432617188,8.121192932128906,206.37515258789062,-0.05796844884753227
6475,37.520545959472656,-62.15526580810547,130.28315734863278,-74.91206359863281
6476,74.18278503417969,-32.72599411010742,167.25955200195312,-45.00408554077149
6477,124.53679656982422,20.79945373535156,223.7133331298828,10.634405136108398
6478,117.68156433105469,0.7124509215354919,208.7163391113281,-6.412058353424072
6479,46.17467498779297,-69.46677398681639,132.08952331542972,-77.0924301147461
6480,68.71878814697266,-28.77292060852051,156.0996856689453,-52.1547737121582
6481,119.62631225585938,26.854351043701172,208.0992584228516,0.08414775133132935
6482,116.05470275878906,11.718976974487305,203.97039794921875,-3.21070408821106
6483,44.74603271484375,-61.97201156616211,126.91350555419922,-68.99928283691406
6484,63.41187286376953,-32.05655288696289,154.74957275390625,-40.807918548583984
6485,107.07894897460938,16.120838165283207,199.38902282714844,9.508695602416992
6486,109.96240997314452,5.7388763427734375,194.42991638183597,5.813674449920653
6487,30.414735794067386,-64.91157531738281,114.43345642089844,-66.02606201171875
6488,61.48956680297852,-30.829864501953125,147.12017822265625,-34.498706817626946
6489,110.21298217773438,16.334012985229492,203.63755798339844,14.684717178344727
6490,110.31021881103516,11.849872589111328,200.7279052734375,6.531735420227051
6491,36.76882553100586,-64.11497497558594,123.8991470336914,-69.11895751953125
6492,69.85198211669922,-34.704402923583984,161.8179931640625,-36.2564582824707
6493,124.09548950195312,13.884378433227539,212.0074462890625,6.991743087768555
6494,121.582275390625,13.652504920959473,207.59811401367188,-2.2046709060668945
6495,45.40425491333008,-68.53179931640625,133.48825073242188,-78.2368392944336
6496,72.01737976074219,-32.56517791748047,163.2167205810547,-49.02447891235352
6497,125.03794860839844,23.55575942993164,215.8932037353516,8.210949897766112
6498,114.37174987792969,7.160038471221924,211.5885772705078,5.3574066162109375
6499,42.03834533691406,-53.14958953857422,134.44566345214844,-71.34420013427734
6500,70.0726318359375,-25.7810001373291,166.76588439941406,-41.57085800170898
6501,121.30552673339844,21.52125358581543,221.89573669433597,8.59242057800293
6502,113.80328369140624,21.59231185913086,216.7945251464844,1.3931127786636353
6503,41.38012313842773,-64.39173126220703,135.88926696777344,-71.76680755615234
6504,64.29448699951172,-40.00384140014648,160.60252380371094,-47.9773063659668
6505,115.0150146484375,9.92756462097168,208.0356750488281,-1.034082293510437
6506,111.91837310791016,6.81970739364624,199.172119140625,-6.576613903045653
6507,31.671342849731445,-67.26770782470703,114.95330810546876,-81.04550170898438
6508,61.29508972167969,-40.06741714477539,148.10751342773438,-45.449134826660156
6509,113.00668334960938,11.423524856567385,197.9342041015625,8.087533950805664
6510,110.6206283569336,11.943370819091795,194.5047149658203,-0.8283878564834595
6511,37.85713577270508,-70.25588989257811,123.6373519897461,-71.20956420898438
6512,69.77718353271484,-33.1112060546875,157.67791748046875,-38.601375579833984
6513,116.54837036132812,3.767949104309082,203.9105682373047,9.579753875732422
6514,104.54329681396484,-2.3056483268737797,195.8623046875,3.696891069412232
6515,34.68570327758789,-64.67221832275389,122.01423645019531,-65.05368804931639
6516,65.6707763671875,-36.82866668701172,153.53411865234375,-39.521392822265625
6517,113.60881042480469,11.96207046508789,208.1104736328125,9.119746208190918
6518,107.62123107910156,9.53487491607666,197.2273712158203,-5.402285575866699
6519,37.77486038208008,-61.6167221069336,123.1362075805664,-84.56475067138672
6520,65.16214752197266,-29.79391288757324,149.96250915527344,-57.12884140014648
6521,120.71088409423828,18.353559494018555,204.090087890625,-8.857953071594238
6522,115.68819427490234,15.713190078735352,204.7782287597656,-5.619199752807617
6523,38.63877487182617,-65.41645812988281,126.40487670898438,-75.88818359375
6524,68.47570037841797,-36.66785049438477,162.56222534179688,-46.49630737304688
6525,121.42146301269531,17.12687110900879,210.7433624267578,2.1223931312561035
6526,121.61219787597656,6.943124294281006,206.51353454589844,-1.2173374891281128
6527,43.384708404541016,-63.74472427368164,126.49837493896484,-72.6419448852539
6528,71.7518539428711,-35.467342376708984,160.05650329589844,-46.0288200378418
6529,119.36077880859376,20.634897232055664,211.7980194091797,5.088133811950684
6530,111.9445571899414,15.03626823425293,201.5020751953125,-1.961577534675598
6531,37.53176498413086,-63.99903869628906,122.74725341796876,-74.67645263671875
6532,62.19640731811523,-36.26020050048828,153.94924926757812,-48.078285217285156
6533,108.57864379882812,9.179584503173828,200.7653045654297,-4.586987495422363
6534,111.0020980834961,11.363685607910154,203.7310485839844,-8.734536170959473
6535,34.094799041748054,-71.0300521850586,116.83447265625,-82.98277282714844
6536,70.56256103515625,-39.65977096557617,151.75765991210938,-47.012413024902344
6537,115.70315551757812,8.719576835632324,199.1160125732422,2.1111736297607417
6538,119.80208587646484,6.984262943267822,194.1269836425781,-0.6900115609169006
6539,41.22304916381836,-67.52202606201172,115.86583709716795,-68.67391204833984
6540,64.48896789550781,-42.94713973999024,147.5240936279297,-43.22015380859375
6541,114.03141784667969,14.505202293395994,206.7977752685547,16.588325500488278
6542,105.42964935302734,5.043254852294922,197.08151245117188,4.429911613464356
6543,31.82841873168945,-74.05562591552734,115.17769622802734,-73.19171142578125
6544,64.61238098144531,-41.07719039916992,149.40525817871094,-41.07719039916992
6545,115.26932525634766,11.161731719970703,210.47409057617188,5.3274874687194815
6546,110.5794906616211,2.0662946701049805,199.6620330810547,1.0714813470840454
6547,36.42101669311523,-63.827003479003906,120.25648498535156,-80.04695129394531
6548,66.30655670166016,-40.841575622558594,151.507080078125,-54.02472305297852
6549,116.4810562133789,8.828033447265625,203.3720245361328,-7.002962589263916
6550,111.29755401611328,7.40313196182251,194.2578887939453,-16.11709976196289
6551,39.38301467895508,-65.12100982666016,117.61237335205078,-92.66537475585938
6552,70.35686492919922,-39.44285583496094,155.32553100585938,-54.0396842956543
6553,124.18524932861328,16.797760009765625,208.96316528320312,5.619199752807617
6554,123.66165924072266,14.336906433105467,206.89126586914062,10.55960750579834
6555,42.244041442871094,-70.96273040771484,128.13270568847656,-62.0505485534668
6556,66.16069793701172,-33.941463470458984,153.82955932617188,-30.291318893432614
6557,115.0112762451172,18.854705810546875,204.078857421875,23.95966911315918
6558,105.57550811767578,-5.06943416595459,188.3114471435547,8.861693382263184
6559,37.81973648071289,-78.82400512695312,116.19121551513672,-63.86066055297852
6560,70.06515502929689,-36.226539611816406,156.49984741210938,-32.348262786865234
6561,112.13529205322266,5.895952224731445,196.69630432128903,7.563947677612305
6562,110.33265686035156,7.893058776855469,198.4091796875,-1.4753905534744265
6563,32.64371490478516,-69.19750213623047,121.46820831298828,-77.4140625
6564,66.19062042236328,-37.27371215820313,156.1370849609375,-45.97272109985352
6565,120.99137115478516,11.935891151428224,211.8615875244141,1.022862672805786
6566,115.87145233154295,1.2883955240249634,200.8176727294922,-11.023355484008787
6567,42.7003059387207,-76.69973754882812,123.80564880371094,-81.00062561035156
6568,69.28725433349611,-35.097091674804695,161.7618865966797,-44.80213165283203
6569,124.81729125976562,17.725255966186523,219.5059509277344,2.298168420791626
6570,113.32457733154295,6.468156814575195,207.91973876953125,-8.801854133605957
6571,37.12785720825195,-60.70044708251953,127.32489776611328,-86.07192993164062
6572,70.88045501708984,-26.67483711242676,157.5320587158203,-52.03135681152344
6573,121.29430389404295,16.319053649902347,209.82708740234372,6.688811302185059
6574,113.1712417602539,1.4417314529418943,198.80560302734372,-1.9840168952941892
6575,42.12436294555664,-79.51588439941406,113.92857360839844,-71.96502685546875
6576,71.39656066894531,-50.43815994262695,147.60263061523438,-37.09045791625977
6577,125.08282470703124,10.724163055419922,204.72959899902344,14.856752395629885
6578,112.0642318725586,-3.7567296028137207,188.4722595214844,0.5404155254364014
6579,42.02338409423828,-80.2489013671875,110.76461791992188,-76.08265686035156
6580,69.67994689941406,-43.85593795776367,134.50550842285156,-45.71466827392578
6581,124.0094757080078,9.254382133483887,195.67904663085938,6.12782621383667
6582,109.96614837646484,3.173305034637451,192.4290771484375,-10.43993091583252
6583,42.288917541503906,-62.45071792602539,120.48835754394531,-74.82978820800781
6584,78.33781433105469,-32.441761016845696,159.92185974121094,-45.19108200073242
6585,128.22433471679688,12.41833782196045,209.2735748291016,-0.6600923538208008
6586,121.84780883789062,6.681331157684326,203.37576293945312,-10.077160835266113
6587,51.18239974975586,-64.77320098876953,128.57028198242188,-80.72386932373047
6588,79.41116333007812,-33.354297637939446,163.6318359375,-52.05005645751953
6589,131.43316650390622,12.08548641204834,215.7772674560547,-3.842747211456299
6590,127.1622085571289,4.747803211212158,205.6009979248047,-11.808733940124512
6591,54.96343994140625,-62.92194747924805,132.11196899414062,-80.57801818847656
6592,77.02510833740234,-36.1816635131836,158.52313232421875,-53.66569519042969
6593,123.62052154541016,14.505202293395994,213.10324096679688,13.042901039123535
6594,116.1220245361328,13.521608352661133,208.151611328125,7.1488189697265625
6595,43.94195556640625,-59.14464950561523,128.73483276367188,-55.86849594116211
6596,72.16323852539062,-37.42704772949219,151.33131408691406,-36.944602966308594
6597,115.08981323242188,7.8070411682128915,197.0067138671875,11.180431365966797
6598,116.47357177734376,2.163532018661499,197.6537170410156,5.7650556564331055
6599,42.33005905151367,-72.9822769165039,115.07672119140624,-70.08385467529297
6600,72.36893463134766,-40.88645553588867,150.93487548828125,-37.225093841552734
6601,124.70135498046876,8.218430519104004,203.0279541015625,9.445116996765137
6602,118.21263122558594,-3.2555828094482417,193.74925231933597,-5.260169506072998
6603,46.88151550292969,-75.55532836914062,114.49703979492188,-80.09182739257812
6604,74.39221954345703,-41.522239685058594,146.20016479492188,-49.73505783081055
6605,122.00862884521484,3.408918857574463,199.6059417724609,-3.5884339809417725
6606,122.46489715576172,-5.215290546417236,197.5751800537109,-6.651412010192871
6607,49.4844856262207,-69.50417327880861,119.53094482421876,-80.970703125
6608,78.53228759765625,-41.1744270324707,153.7659912109375,-54.99335861206055
6609,131.94180297851562,2.930211544036865,205.1372528076172,-3.4014389514923096
6610,128.20938110351562,-3.996083021163941,197.3433074951172,-12.53427505493164
6611,57.77958297729492,-75.3122329711914,126.41236114501952,-83.60733032226562
6612,76.38184356689453,-44.85074996948242,147.93548583984375,-57.10640335083008
6613,132.22976684570312,3.708110809326172,198.9178009033203,-0.9592843651771544
6614,129.36874389648438,-3.326641082763672,199.1010589599609,2.189711332321167
6615,62.98552322387695,-66.33647918701172,128.63011169433594,-58.05259704589844
6616,75.45061492919922,-39.24837875366211,151.71278381347656,-35.048473358154304
6617,123.8336944580078,20.032773971557614,199.42642211914062,17.867372512817386
6618,113.22360229492188,5.701477527618407,193.16583251953125,6.845886707305907
6619,39.16610336303711,-66.00362396240234,117.68717193603516,-64.18229675292969
6620,72.24925994873047,-39.6373291015625,142.6884002685547,-35.56831741333008
6621,120.50144958496094,11.977029800415039,193.5323486328125,10.245455741882324
6622,119.28971862792969,9.02250862121582,189.07064819335938,-3.408918857574463
6623,48.87488174438477,-71.32176208496094,114.25768280029295,-77.70577239990234
6624,77.16348266601562,-33.58243179321289,147.59889221191406,-49.0618782043457
6625,121.8627700805664,16.240514755249027,201.6367034912109,-1.348233938217163
6626,122.71920776367188,11.849872589111328,195.9894561767578,-6.842146873474121
6627,49.29375076293945,-60.52093124389648,117.2944793701172,-77.068115234375
6628,79.58319854736328,-31.27117347717285,152.5318145751953,-43.35292053222656
6629,126.75456237792969,11.558160781860352,203.09152221679688,0.20569449663162231
6630,121.6047134399414,0.8732666373252869,195.0507354736328,-10.774651527404783
6631,48.61309051513672,-75.21125793457031,116.07901763916016,-81.02119445800781
6632,76.95404815673828,-52.71950149536133,145.26145935058594,-52.94202423095703
6633,121.0549545288086,-0.951804518699646,197.7883453369141,1.6268564462661743
6634,117.61798095703124,-4.549588203430176,189.1042938232422,-1.439861536026001
6635,38.096492767333984,-71.21330261230469,108.03074645996094,-71.40965270996094
6636,68.47196197509766,-45.96150207519531,139.2589111328125,-35.45799255371094
6637,114.91777801513672,9.568533897399902,192.047607421875,20.902301788330078
6638,102.22081756591795,4.190557956695557,175.84262084960938,6.451327323913574
6639,39.58123016357422,-71.01509094238281,105.59233856201172,-66.56273651123047
6640,64.39173126220703,-39.37179565429688,136.27447509765622,-42.1262321472168
6641,118.31360626220705,14.340646743774414,187.9524078369141,11.096282958984377
6642,108.78060150146484,-3.3378608226776123,181.8563690185547,-5.987579822540282
6643,39.82806396484375,-68.26252746582031,106.20568084716795,-77.41967010498047
6644,68.07926940917969,-32.37444305419922,140.33599853515622,-50.0548210144043
6645,121.32422637939452,17.64297866821289,200.1295318603516,2.804924964904785
6646,112.15025329589844,-1.0976606607437134,181.45620727539062,-11.776945114135742
6647,47.70803451538086,-71.57981872558594,116.7073211669922,-74.34172821044922
6648,75.96672058105469,-42.44599533081055,142.83799743652344,-44.21309661865234
6649,128.26922607421878,10.342693328857422,194.9647216796875,9.177714347839355
6650,120.68096160888672,-5.551881313323975,187.5821685791016,-0.7704194188117981
6651,45.88670349121094,-73.15057373046875,107.7016372680664,-71.43209075927734
6652,73.80131530761719,-49.06561660766602,130.92642211914062,-40.85092544555664
6653,132.97401428222656,12.235082626342773,192.62355041503903,9.50682544708252
6654,122.89498138427734,-2.922731876373291,179.42918395996094,-7.023531913757324
6655,49.66026306152344,-75.40573120117188,101.18672943115234,-78.67253875732422
6656,79.8487319946289,-44.16634750366211,133.95573425292972,-43.158447265625
6657,134.58590698242188,14.333166122436525,191.8082427978516,7.81265115737915
6658,124.6714324951172,12.62029266357422,186.58360290527344,-5.80058479309082
6659,42.04582595825195,-60.11702346801758,104.94158935546876,-77.63658142089844
6660,65.27808380126953,-32.980308532714844,139.38232421875,-49.90148544311523
6661,124.24134826660156,14.927810668945312,189.0968170166016,2.8161447048187256
6662,121.8814697265625,7.062800884246826,182.2041931152344,-4.031611919403076
6663,43.05559921264648,-71.68079376220703,104.91167449951172,-79.41303253173828
6664,71.74436950683594,-36.073204040527344,139.67778015136722,-39.534481048583984
6665,128.51979064941406,12.302400588989258,200.50726318359372,12.872735977172852
6666,114.49890899658205,-5.7613158226013175,180.95132446289062,-7.150688648223878
6667,47.89128875732422,-64.48148345947266,109.73988342285156,-76.94096374511719
6668,80.55557250976562,-37.10541915893555,142.8118133544922,-46.33736038208008
6669,133.04133605957028,11.359946250915527,198.9252777099609,7.670534610748291
6670,122.3078155517578,2.844193935394287,187.52606201171875,-2.6740283966064453
6671,46.780540466308594,-79.81507110595703,110.47664642333984,-75.89379119873047
6672,79.21295166015625,-45.41921615600586,140.85585021972656,-44.33651351928711
6673,130.64031982421878,9.59097385406494,188.56948852539062,2.96574068069458
6674,124.3311004638672,-1.5838476419448853,181.3140869140625,-12.58102321624756
6675,57.54771041870117,-66.5982666015625,112.54480743408205,-73.35813903808594
6676,78.66692352294922,-38.07405090332031,138.13320922851562,-50.29043579101562
6677,131.42568969726562,20.11505126953125,197.646240234375,17.068902969360348
6678,120.3780288696289,9.58349323272705,189.85227966308597,5.8903422355651855
6679,45.47905349731445,-63.0715446472168,115.2450180053711,-73.70594787597656
6680,78.60708618164062,-34.457569122314446,145.42974853515625,-41.2623176574707
6681,127.69327545166016,19.59146499633789,199.9799346923828,9.222593307495117
6682,119.94046020507812,14.669757843017578,198.54754638671875,3.0367987155914307
6683,37.812259674072266,-57.77958297729492,111.96138763427734,-68.7169189453125
6684,68.26252746582031,-31.132797241210934,140.35096740722656,-40.42831802368164
6685,120.09005737304688,10.754082679748537,187.43630981445312,5.209680557250977
6686,112.0642318725586,-0.4169988334178925,179.18234252929688,-6.286771774291992
6687,39.36057662963867,-66.05598449707031,99.97500610351562,-78.97920989990234
6688,66.12704467773439,-35.39628219604492,131.09844970703122,-47.33217239379883
6689,120.89413452148438,17.20541000366211,189.324951171875,2.6179299354553223
6690,114.21467590332031,8.528841972351074,179.9265899658203,-6.50368595123291
6691,47.38266372680664,-65.95126342773439,102.95944213867188,-79.2559585571289
6692,77.26820373535156,-31.85085868835449,132.23164367675778,-44.08219909667969
6693,127.99246978759766,19.7186222076416,191.1874237060547,8.515751838684082
6694,114.25955200195312,0.6600923538208008,180.8391265869141,-5.7295265197753915
6695,47.86137008666992,-62.98552322387695,112.00252532958984,-68.47383117675781
6696,73.3637466430664,-38.18998718261719,145.063232421875,-43.04624938964844
6697,123.59808349609376,20.43668365478516,201.1991424560547,19.178207397460934
6698,115.42266082763672,5.402285575866699,181.93490600585938,4.517799377441406
6699,43.070556640625,-63.92050170898438,100.45745086669922,-68.32423400878906
6700,66.96852111816406,-38.9043083190918,131.24430847167972,-40.60783386230469
6701,119.56272888183594,19.38951110839844,184.77349853515625,10.752212524414062
6702,114.49142456054688,3.1546056270599365,175.56961059570312,-5.6696882247924805
6703,39.78318405151367,-71.26566314697266,100.1919174194336,-78.78099060058594
6704,74.66522979736328,-33.776905059814446,132.8150634765625,-48.30454635620117
6705,122.27790069580078,20.06643295288086,189.8896789550781,-2.165402173995972
6706,123.98329162597656,15.660831451416016,190.7910003662109,-5.340577125549316
6707,48.36625671386719,-60.513450622558594,112.22317504882812,-78.4930191040039
6708,81.72242736816406,-30.265140533447266,147.54278564453125,-46.273780822753906
6709,141.35887145996094,28.08477783203125,199.73309326171875,10.860669136047363
6710,128.99850463867188,12.242562294006348,189.98692321777344,-0.2879723012447357
6711,46.95257568359375,-63.11642074584961,107.02471923828124,-74.66336059570312
6712,73.52082061767578,-37.31111145019531,131.50984191894528,-46.995582580566406
6713,119.40191650390624,23.978368759155273,192.0326385498047,8.104363441467285
6714,112.32976531982422,6.299861431121826,180.78302001953125,2.528172254562378
6715,44.16634750366211,-65.35288238525389,108.25514221191406,-65.71752166748047
6716,77.60853576660156,-31.01312065124512,145.47462463378906,-32.787704467773445
6717,126.54886627197266,18.39469718933105,193.62957763671875,13.168188095092773
6718,113.8294677734375,-0.495536744594574,181.4898681640625,-4.461700439453125
6719,40.12351608276367,-65.31548309326172,105.7718505859375,-74.92141723632812
6720,69.46303558349611,-34.51366806030273,137.774169921875,-46.954444885253906
6721,115.89015197753906,8.958930015563965,183.3934783935547,2.9433012008666988
6722,108.77686309814452,-0.2449634522199631,171.26124572753906,-12.902654647827148
6723,45.07514572143555,-61.11931610107422,104.81443786621094,-81.69063568115234
6724,67.93341064453125,-38.44804000854492,128.454345703125,-57.68795776367188
6725,128.87507629394528,24.99188232421875,193.5248565673828,-1.7465332746505735
6726,112.01560974121094,-0.4880569577217102,175.26292419433594,-17.921600341796875
6727,48.0184440612793,-63.70358657836914,114.1866226196289,-78.13398742675781
6728,81.13899993896484,-37.42704772949219,141.87684631347656,-47.53786849975586
6729,134.04362487792972,25.713682174682614,201.8610992431641,11.036444664001463
6730,121.18959045410156,13.985356330871582,182.02093505859372,-2.692728042602539
6731,49.031959533691406,-62.65267562866211,107.9746551513672,-69.97352600097656
6732,79.72905731201172,-30.414735794067386,144.92112731933594,-38.81642150878906
6733,132.3157958984375,20.417984008789066,202.07801818847656,14.712766647338867
6734,117.2252960205078,6.191404342651367,187.8065490722656,1.2379069328308103
6735,50.41197967529297,-54.97465896606445,114.28385925292969,-69.88002777099611
6736,79.60189819335938,-36.46589279174805,143.56353759765625,-38.09461975097656
6737,121.74309539794922,21.26320075988769,196.7449188232422,9.940653800964355
6738,109.92127227783205,8.828033447265625,175.58456420898438,-2.4084956645965576
6739,39.47651290893555,-58.48268508911133,107.80261993408205,-67.61365509033203
6740,67.14055633544922,-32.179969787597656,131.18821716308594,-46.6215934753418
6741,119.9142837524414,9.231943130493164,186.3704376220703,0.7853789925575256
6742,109.50240325927734,-0.17016544938087466,172.17002868652344,-13.942346572875975
6743,43.31739044189453,-70.53638458251953,100.69680786132812,-83.51570892333984
6744,71.29183959960938,-40.40774917602539,130.5262451171875,-51.763954162597656
6745,124.29744720458984,14.65853786468506,187.72427368164062,3.044278621673584
6746,117.8274154663086,0.27114275097846985,179.29454040527344,-14.436014175415039
6747,51.41801452636719,-58.62106323242188,108.28880310058594,-82.92854309082031
6748,77.0961685180664,-33.889102935791016,140.31730651855472,-52.17534255981445
6749,132.02407836914062,20.507741928100586,194.93479919433597,1.98962676525116
6750,116.24918365478516,14.976428985595705,190.20382690429688,-4.4168219566345215
6751,40.650840759277344,-62.44697952270508,112.75050354003906,-69.27790832519531
6752,69.75474548339844,-26.895490646362305,143.15963745117188,-32.88119888305664
6753,122.46115112304688,24.352357864379886,199.19454956054688,20.26277732849121
6754,110.18680572509766,4.639346122741699,182.79135131835938,4.820731163024902
6755,42.59933090209961,-62.402099609375,114.63915252685548,-61.51013565063477
6756,63.89057922363281,-30.94206237792969,143.8739471435547,-31.516136169433594
6757,126.3169937133789,25.425710678100586,193.84649658203125,23.763324737548828
6758,114.80184173583984,3.248103141784668,186.25076293945312,4.2036476135253915
6759,49.8659553527832,-63.97285842895508,112.42139434814452,-62.25811386108398
6760,77.88528442382812,-35.88621139526367,141.2186279296875,-36.164833068847656
6761,132.99644470214844,22.310373306274414,196.68133544921875,17.255897521972653
6762,120.7594985961914,-3.2742824554443364,183.7001495361328,4.454220771789551
6763,46.62720108032226,-72.43999481201172,105.89152526855469,-68.31301116943361
6764,72.28291320800781,-42.81250381469727,132.96092224121094,-39.36992645263672
6765,121.55609893798828,13.671204566955565,186.50880432128903,7.4087419509887695
6766,110.5159149169922,6.580353736877441,179.13746643066406,-8.175421714782715
6767,38.279747009277344,-59.7205924987793,114.28385925292969,-73.09260559082031
6768,67.98203277587889,-37.76737976074219,138.30523681640622,-51.54330062866211
6769,119.45427703857422,18.877145767211914,195.9408416748047,9.832197189331056
6770,112.37090301513672,7.14133882522583,178.0042724609375,-2.546871900558472
6771,36.9782600402832,-66.10086059570311,109.47061157226562,-66.20371246337889
6772,68.97684478759766,-36.05076599121094,140.01811218261722,-29.462932586669922
6773,129.58192443847656,15.33545970916748,199.79293823242188,29.21609878540039
6774,115.46379852294922,-0.4917968511581421,179.61244201660156,12.558584213256836
6775,44.70489501953125,-74.79238891601562,107.32765197753906,-56.868919372558594
6776,74.37725830078125,-43.50438690185547,139.81990051269528,-33.374866485595696
6777,129.27151489257812,15.604732513427734,197.2086639404297,20.40489387512207
6778,115.8415298461914,1.4866101741790771,178.28103637695312,-2.546871900558472
6779,44.11024856567383,-67.56316375732422,102.30870056152344,-73.24220275878906
6780,70.7532958984375,-35.44490051269531,132.50465393066406,-50.619544982910156
6781,122.0235824584961,27.8828239440918,193.1920166015625,4.805771350860597
6782,115.72185516357422,23.058353424072266,188.1581115722656,-3.7997384071350098
6783,39.41667556762695,-50.28482437133789,109.79598236083984,-84.18515014648438
6784,67.59307861328125,-23.74649429321289,143.36158752441406,-49.9949836730957
6785,118.53800201416016,26.682315826416016,200.05099487304688,0.23935359716415405
6786,114.52134704589844,17.76265525817871,190.1776580810547,-5.434074401855469
6787,38.48543930053711,-53.68439483642578,116.4492645263672,-75.18321228027344
6788,73.68537902832031,-34.704402923583984,148.7919158935547,-39.38862609863281
6789,123.03335571289062,17.081993103027347,204.1274719238281,17.125001907348633
6790,117.42350769042969,9.47877597808838,192.9975433349609,0.8152981996536255
6791,51.29833602905274,-59.66449356079102,124.27313232421876,-66.34208679199219
6792,79.69913482666016,-32.86437225341797,148.3319091796875,-37.83282852172852
6793,123.57190704345705,18.013227462768555,199.36285400390625,8.822423934936523
6794,110.40371704101562,-0.4992766380310058,178.13143920898438,-5.273259162902832
6795,49.89961624145508,-58.93147277832031,114.5867919921875,-71.83599853515625
6796,69.11148071289061,-36.1629638671875,138.96345520019528,-51.86119079589844
6797,124.26004791259766,17.829973220825195,197.41061401367188,5.254559516906738
6798,110.23168182373048,7.33207368850708,184.29852294921875,-11.92280101776123
6799,35.38880157470703,-63.50537109375,106.98731994628906,-88.63562774658203
6800,70.46158599853516,-28.649503707885746,149.4351806640625,-47.3770523071289
6801,125.15013885498048,38.27226638793945,208.9594268798828,5.026425361633301
6802,109.45378112792969,27.69208908081055,190.7311553955078,-10.800830841064453
6803,31.903217315673828,-46.0699577331543,116.4754409790039,-79.82068634033203
6804,60.69296646118164,-18.319900512695312,144.49102783203125,-46.43459701538086
6805,117.33749389648438,31.20759582519531,202.8147735595703,8.108102798461914
6806,107.73342895507812,12.006948471069336,184.8595123291016,-9.237552642822266
6807,45.15742111206055,-66.87502288818361,108.55433654785156,-74.13603973388672
6808,79.93849182128906,-36.78752517700195,143.80288696289062,-40.9219856262207
6809,139.28695678710938,11.647918701171875,205.36538696289062,8.755105972290039
6810,120.19851684570312,-11.745155334472654,181.25799560546875,-6.873936176300049
6811,54.42489242553711,-70.5700454711914,115.1066436767578,-67.18730163574219
6812,83.21090698242188,-43.96813201904297,144.16566467285156,-41.54280853271485
6813,133.52377319335938,11.457183837890625,200.3614044189453,10.01545238494873
6814,118.92694854736328,1.8979992866516116,182.035888671875,-13.867548942565918
6815,44.009273529052734,-66.63192749023439,104.20109558105469,-85.78956604003906
6816,78.02740478515625,-36.89972305297852,140.94935607910156,-52.43713760375977
6817,127.51750183105469,11.756375312805176,201.6965484619141,-0.6096037030220032
6818,118.10043334960938,-3.7791688442230233,191.89427185058597,-5.531311988830566
6819,42.65542984008789,-73.50586700439453,116.7110595703125,-68.86277770996094
6820,75.77598571777344,-36.72394943237305,155.78927612304688,-34.672611236572266
6821,131.17512512207028,25.631404876708984,220.0631866455078,21.481985092163086
6822,110.71038818359376,0.005609849933534861,193.92877197265625,-11.623608589172365
6823,43.89333724975586,-62.04307174682617,126.6479721069336,-72.50543975830078
6824,73.62928009033203,-32.94664764404297,150.9236602783203,-50.55596923828125
6825,127.685791015625,23.361284255981445,204.84927368164062,-0.6432628035545349
6826,118.26124572753906,7.257276058197021,186.8827972412109,-11.455313682556152
6827,52.566162109375,-59.03619003295898,118.01254272460938,-73.60497283935547
6828,78.07415008544922,-28.47372817993164,152.38035583496094,-40.841575622558594
6829,130.63844299316406,22.216875076293945,205.07928466796875,10.092120170593262
6830,112.90757751464844,12.496875762939453,184.8539123535156,-5.0619544982910165
6831,41.46052932739258,-64.60490417480469,114.08003997802734,-71.81916809082031
6832,76.6268081665039,-29.36008453369141,150.1064910888672,-44.536598205566406
6833,133.5892333984375,20.23098945617676,208.4564208984375,10.436190605163574
6834,117.51139831542969,15.780508041381836,192.4533843994141,-3.364039897918701
6835,46.35606002807617,-57.233558654785156,124.68265533447266,-59.54855728149414
6836,71.34233093261719,-29.846271514892575,150.4505615234375,-33.372997283935554
6837,126.76016998291016,24.93578338623047,212.3047637939453,19.355852127075195
6838,108.3972625732422,2.1485724449157715,188.97528076171875,-2.1971912384033203
6839,41.120201110839844,-70.95899200439453,119.84696197509766,-72.45869445800781
6840,79.19985961914062,-39.237159729003906,156.8495330810547,-39.82432556152344
6841,128.35336303710938,9.22446346282959,209.9710693359375,13.876898765563965
6842,112.73554229736328,1.1163601875305176,194.22608947753903,-5.6827778816223145
6843,41.96167755126953,-64.948974609375,122.08342742919922,-80.83606719970703
6844,74.85783386230469,-33.6160888671875,147.6605987548828,-42.74518585205078
6845,132.26530456542972,17.287687301635742,209.3539886474609,12.91574478149414
6846,111.28072357177734,-0.11780685186386107,188.24974060058597,-6.647672176361084
6847,43.64837265014648,-71.02256774902344,110.34014129638672,-70.43540954589844
6848,69.68555450439453,-32.8531494140625,135.62559509277344,-39.08008575439453
6849,126.5656967163086,14.864232063293455,197.5658264160156,17.568180084228516
6850,119.803955078125,-0.9892035126686096,192.90591430664062,9.08234691619873
6851,57.46356201171875,-63.06032180786133,132.74214172363278,-57.233558654785156
6852,81.25306701660156,-42.59185028076172,153.5135498046875,-34.95123672485352
6853,136.94392395019528,21.136045455932614,210.3263702392578,19.045440673828125
6854,115.14404296875,-0.6825317144393921,193.63519287109372,-0.8283878564834595
6855,41.400691986083984,-67.98203277587889,120.14615631103516,-70.28955078125
6856,76.93347930908203,-32.950389862060554,150.21868896484375,-39.05016708374024
6857,128.29727172851562,10.424971580505373,211.66151428222656,10.424971580505373
6858,114.26890563964844,0.9705040454864502,199.6751251220703,-1.086440920829773
6859,49.11984634399414,-74.59417724609375,120.9577178955078,-73.63301849365234
6860,84.55913543701172,-35.32896423339844,161.59921264648438,-41.63817596435547
6861,130.84788513183594,21.539953231811523,212.981689453125,7.926717758178711
6862,118.02376556396484,4.81886100769043,194.7122802734375,-6.18766450881958
6863,49.41156005859375,-58.86041641235352,124.0880126953125,-70.58126068115234
6864,77.13543701171875,-33.86292266845703,146.7667694091797,-45.17612075805664
6865,134.22126770019528,15.126025199890135,203.3701477050781,12.616552352905273
6866,116.5315399169922,-3.2555828094482417,181.65255737304688,-3.4500577449798584
6867,47.62388610839844,-67.82495880126953,115.66201782226562,-63.97659683227539
6868,81.83649444580078,-34.498706817626946,150.02047729492188,-29.2030086517334
6869,122.64627838134766,5.050734996795653,201.01026916503903,14.983909606933596
6870,116.67366027832031,5.637899398803711,189.9962615966797,7.406871795654298
6871,46.1802864074707,-71.39656066894531,114.80931854248048,-67.08819580078125
6872,80.18345642089844,-30.55685234069824,152.84036254882812,-33.27576065063477
6873,126.80878448486328,22.98729515075684,209.73919677734372,11.876051902770994
6874,109.8857421875,4.788941860198975,192.81614685058597,-11.520761489868164
6875,39.399845123291016,-62.570396423339844,125.10526275634766,-77.33926391601562
6876,64.42351531982422,-35.418724060058594,161.65904235839844,-45.81938552856445
6877,119.5458984375,20.275867462158203,215.49864196777344,1.239776849746704
6878,115.72372436523438,1.0191227197647097,202.71192932128903,-13.484209060668945
6879,57.31022644042969,-72.11836242675781,133.72200012207028,-82.71723937988281
6880,89.17791748046875,-45.87922286987305,160.57073974609375,-49.66026306152344
6881,144.71542358398438,10.43993091583252,211.9345245361328,2.3991458415985107
6882,133.43589782714844,-1.7147440910339355,196.16336059570312,-3.8577067852020255
6883,66.727294921875,-73.87611389160156,124.72753143310548,-69.50042724609375
6884,95.5320053100586,-36.63045120239258,150.97415161132812,-34.749279022216804
6885,135.36567687988278,12.09670639038086,200.80458068847656,16.775321960449222
6886,116.13885498046876,-10.7017240524292,184.5921173095703,0.07666794955730437
6887,41.25109481811523,-66.5982666015625,106.66755676269531,-64.41790771484375
6888,67.29949951171875,-31.431989669799805,142.16294860839844,-37.464447021484375
6889,117.98636627197266,21.75686836242676,203.89747619628903,19.49796867370605
6890,106.97235870361328,3.928764820098877,188.93038940429688,0.895706057548523
6891,40.53303527832031,-63.23235702514648,122.83514404296876,-68.81228637695311
6892,71.69013977050781,-31.88825607299805,153.60704040527344,-44.83953094482422
6893,126.03462982177734,18.267541885375977,209.95985412597656,3.4500577449798584
6894,108.81613159179688,0.8583070635795593,189.50634765625,-19.808380126953125
6895,32.49599075317383,-66.22801971435547,116.90740203857422,-87.63894653320312
6896,71.05809783935547,-36.55191040039063,148.73020935058594,-51.29459762573242
6897,126.76390838623048,22.923717498779297,210.9584045410156,9.84528636932373
6898,114.31378173828124,8.323147773742676,194.30462646484372,-12.796067237854006
6899,48.45414352416992,-68.20268249511719,121.44763946533205,-69.1451416015625
6900,77.03820037841797,-33.99008178710937,144.37322998046875,-45.06392288208008
6901,135.79576110839844,14.980169296264648,206.0105133056641,20.507741928100586
6902,125.98226928710938,-9.519915580749512,188.0702209472656,7.122639656066895
6903,46.75996780395508,-77.79927062988281,106.28982543945312,-69.75100708007811
6904,77.50942993164062,-47.6070556640625,139.11492919921878,-36.24898147583008
6905,124.51248931884766,14.9652099609375,196.1596221923828,13.577706336975098
6906,108.39352416992188,-7.066541194915772,173.0545196533203,-8.147372245788574
6907,41.83452224731445,-67.96333312988281,110.51217651367188,-67.10689544677734
6908,63.48854064941406,-35.063430786132805,140.6258544921875,-40.99865341186523
6909,116.87935638427734,15.67205047607422,202.21826171875,12.324840545654295
6910,109.44817352294922,7.795821666717528,188.60128784179688,-1.5277491807937622
6911,42.320709228515625,-65.25190734863281,126.98643493652344,-71.89396667480469
6912,74.07245635986328,-39.338138580322266,155.3423614501953,-46.79549789428711
6913,125.89625549316406,23.26030731201172,212.1439514160156,10.294075012207033
6914,106.8152847290039,8.166071891784668,188.23851013183597,-8.756976127624513
6915,42.35436630249024,-60.19929885864258,127.27066802978516,-75.27857971191406
6916,69.73417663574219,-33.982601165771484,149.17152404785156,-52.65966033935547
6917,126.09820556640624,24.13544464111328,200.8157958984375,3.0648479461669917
6918,114.30255889892578,5.428464889526367,185.41114807128903,-6.397099018096924
6919,51.12069320678711,-68.14658355712889,110.54957580566406,-66.55339050292969
6920,76.97087860107422,-34.15089797973633,138.89801025390622,-33.25331878662109
6921,131.44625854492188,16.607025146484375,199.9369201660156,22.923717498779297
6922,118.5997085571289,-0.6413928270339966,182.7595672607422,8.876652717590332
6923,51.06459426879883,-73.83497619628906,116.80642700195312,-55.25889205932617
6924,76.26777648925781,-42.78258514404297,145.29698181152344,-26.51028060913086
6925,130.46267700195312,11.659137725830078,201.8779296875,20.560100555419922
6926,116.42682647705078,-1.2996152639389038,182.2471923828125,-5.836113929748535
6927,42.18981170654297,-67.24153137207031,110.10826110839844,-80.33118438720703
6928,74.00514221191406,-33.41039657592773,142.48831176757812,-49.46952819824219
6929,126.57317352294922,18.78738784790039,207.48403930664062,4.796421527862549
6930,110.3494873046875,1.6698653697967532,196.0175018310547,-15.720669746398926
6931,38.636905670166016,-65.86898803710939,122.29286193847656,-83.48391723632812
6932,73.09260559082031,-29.16560935974121,153.13955688476562,-50.07538986206055
6933,125.73917388916016,22.493627548217773,204.49212646484372,4.609426498413086
6934,114.54191589355469,7.174998283386231,191.454833984375,-9.47503662109375
6935,48.38308715820313,-73.53952026367188,119.94046020507812,-76.62120056152344
6936,80.46768951416016,-39.282039642333984,151.5500946044922,-40.699462890625
6937,140.47438049316406,16.99223518371582,209.0921936035156,19.53536796569824
6938,123.4989776611328,-12.85590648651123,184.96609497070312,0.5217160582542419
6939,53.1177978515625,-78.80530548095703,109.88761138916016,-64.268310546875
6940,79.44669342041016,-47.27420425415039,145.9552001953125,-33.14486312866211
6941,127.50814819335938,-0.18512505292892456,195.1049652099609,16.13205909729004
6942,120.67161560058594,-4.908618927001953,184.04234313964844,6.722470283508301
6943,42.72087860107422,-73.04585266113281,111.2788543701172,-67.660400390625
6944,70.5606918334961,-36.78378677368164,145.4652862548828,-38.171287536621094
6945,126.59187316894531,21.842885971069336,206.16758728027344,10.914897918701172
6946,103.43441009521484,-8.895352363586426,179.0757598876953,-15.71692943572998
6947,34.014389038085945,-68.84968566894531,114.40541076660156,-82.62374114990234
6948,74.33051300048828,-30.64661026000977,156.65879821777344,-54.54457092285156
6949,123.22970581054688,17.474681854248047,212.3795623779297,-11.767595291137695
6950,113.5994644165039,6.105386734008789,195.28448486328125,-24.083086013793945
6951,41.49419021606445,-71.43769836425781,122.75660705566406,-89.6622314453125
6952,73.0664291381836,-40.145957946777344,153.34898376464844,-53.90878677368164
6953,136.49139404296878,14.01527500152588,206.291015625,0.16268564760684967
6954,124.30305480957031,-5.8211541175842285,192.8610382080078,-12.448257446289062
6955,58.40227890014648,-75.13272094726562,125.94673919677734,-71.04126739501953
6956,94.94483947753906,-35.37384414672852,161.8497772216797,-33.163562774658196
6957,142.7744140625,13.525348663330078,213.92041015625,22.134597778320312
6958,126.28146362304688,-2.5898807048797607,195.83050537109372,8.854212760925293
6959,46.419639587402344,-86.95828247070312,118.52677917480469,-69.13018035888672
6960,74.34172821044922,-41.50727844238281,151.86050415039062,-34.59594345092773
6961,123.26335906982422,10.727903366088867,204.23033142089844,11.861092567443848
6962,103.87572479248048,-4.601946830749512,196.3989715576172,-5.74635648727417
6963,39.7364387512207,-68.35601806640625,133.00019836425778,-74.53807830810547
6964,77.4271469116211,-33.67966842651367,164.16477966308594,-45.39303588867188
6965,124.14971923828124,22.830219268798828,214.87782287597656,6.0941667556762695
6966,104.82191467285156,6.587833881378174,194.8805694580078,-15.19334316253662
6967,33.3636474609375,-66.15322113037111,119.89932250976562,-82.53024291992188
6968,66.19996643066406,-42.3188362121582,153.78282165527344,-57.74592590332031
6969,124.79672241210938,28.16705703735352,215.09848022460938,-2.2794690132141118
6970,116.38195037841795,6.071727752685548,205.1952209472656,-14.400485038757324
6971,52.03696823120117,-70.2484130859375,130.20274353027344,-81.41949462890625
6972,80.36296844482422,-31.734920501708984,156.74855041503906,-45.12376403808594
6973,129.3818359375,15.058707237243652,215.4762115478516,13.723563194274902
6974,115.6264877319336,0.349680632352829,198.66909790039062,-3.6557521820068364
6975,40.30116271972656,-66.79648590087889,118.17897033691406,-66.53469085693361
6976,70.75890350341797,-34.229434967041016,146.47879028320312,-37.73746109008789
6977,127.08927917480469,19.396991729736328,206.1114959716797,16.56214714050293
6978,105.58485412597656,1.6586456298828125,182.48654174804688,-11.861092567443848
6979,41.42687225341797,-63.01544570922852,113.73970794677734,-72.35023498535156
6980,69.90995025634766,-26.30832672119141,152.04002380371094,-37.95811462402344
6981,123.64857482910156,25.085378646850586,208.43771362304688,15.219522476196287
6982,107.6380615234375,11.38238525390625,191.4959716796875,-11.404825210571287
6983,40.62653350830078,-55.64784240722656,128.50857543945312,-78.47992706298828
6984,73.42919921875,-25.900676727294922,162.00685119628906,-50.73361206054688
6985,122.90433502197266,33.073806762695305,216.17930603027344,1.5763678550720217
6986,108.01204681396484,12.354759216308596,201.91159057617188,-18.600393295288086
6987,43.91016387939453,-54.95222091674805,131.10032653808594,-85.7652587890625
6988,71.22639465332031,-24.92082405090332,156.78221130371094,-60.77150344848633
6989,128.63760375976562,28.41389083862305,212.15892028808597,6.023108959197997
6990,112.56350708007812,6.352220058441162,194.1176300048828,0.24870334565639496
6991,46.39345932006836,-53.9873275756836,123.08197784423828,-57.94414138793945
6992,76.67916870117188,-29.468542098999023,160.56700134277344,-22.73672103881836
6993,131.10218811035156,13.151358604431152,211.4932098388672,30.62042999267578
6994,116.16876983642578,-7.571427345275879,190.54229736328125,5.67529821395874
6995,46.43085861206055,-68.48691558837889,117.18789672851562,-57.98154067993164
6996,76.93347930908203,-40.25815200805664,146.2955322265625,-28.88511657714844
6997,130.55616760253906,12.178984642028807,209.4661865234375,23.926010131835934
6998,107.30895233154295,-8.06883430480957,196.6944274902344,-0.024309350177645683
6999,48.83561325073242,-64.57498168945311,126.1150360107422,-64.88539123535156
7000,76.40989685058594,-24.77122688293457,160.95594787597656,-41.68305587768555
7001,125.95983123779295,19.01926040649414,211.8410186767578,7.52280855178833
7002,109.94184112548828,4.231696605682373,195.84173583984372,-17.50834083557129
7003,39.7962760925293,-60.53215026855469,124.28996276855469,-87.8558578491211
7004,67.50893402099611,-28.52234649658203,160.7091064453125,-56.73615264892578
7005,122.9192886352539,14.093812942504885,211.38848876953125,-12.493135452270508
7006,111.2919464111328,1.086440920829773,197.62191772460938,-21.59979248046875
7007,51.30394744873047,-66.53469085693361,130.00827026367188,-80.95948791503906
7008,84.47686004638672,-40.56856536865234,163.8431396484375,-38.8444709777832
7009,132.56449890136722,18.577953338623047,216.8001251220703,16.397590637207028
7010,121.88333892822266,-2.918991804122925,198.47462463378903,-0.948064625263214
7011,50.275474548339844,-73.50586700439453,128.4075927734375,-62.110389709472656
7012,76.43233489990234,-41.252967834472656,157.86305236816406,-32.8531494140625
7013,125.98226928710938,9.20202350616455,213.29959106445312,22.50484848022461
7014,110.23355102539062,-1.591327428817749,198.0707092285156,1.755882978439331
7015,42.63486099243164,-62.25998306274414,123.33255004882812,-62.98178482055664
7016,76.35753631591797,-30.71392822265625,159.8676300048828,-35.055953979492195
7017,126.69659423828124,14.666017532348633,210.45726013183597,12.044347763061525
7018,114.7850112915039,-0.25244325399398804,199.10292053222656,-3.812828063964844
7019,49.07122802734375,-73.2777328491211,126.97521209716795,-76.92039489746094
7020,76.59315490722656,-30.76254653930664,164.75942993164062,-45.19108200073242
7021,127.11546325683594,28.301692962646484,218.1240539550781,5.450904369354248
7022,114.2240219116211,1.782062292098999,193.1415252685547,-17.209150314331055
7023,50.24555587768555,-60.54711151123047,124.57793426513672,-79.85247039794922
7024,75.07475280761719,-38.92300796508789,155.70138549804688,-51.83314514160156
7025,137.97613525390622,18.62283134460449,216.05963134765625,1.9840168952941892
7026,124.13849639892578,3.2892420291900635,198.3512115478516,-14.50146198272705
7027,61.0875244140625,-61.44468688964844,129.35379028320312,-75.26361846923828
7028,84.70873260498047,-33.71706771850586,154.53826904296875,-43.11169815063477
7029,140.22193908691406,19.7130126953125,214.4795227050781,7.255405902862549
7030,121.49626159667969,-6.234413146972656,193.76422119140625,-8.702747344970701
7031,43.98683166503906,-81.00623321533203,119.03727722167969,-81.98983001708984
7032,78.681884765625,-36.40792465209961,154.19607543945312,-44.02984237670898
7033,128.81150817871094,14.682847023010256,210.3357086181641,5.209680557250977
7034,110.5159149169922,0.06731820106506348,192.61231994628903,-8.732666015625
7035,44.04667282104492,-64.06074523925781,122.42936706542969,-70.95338439941406
7036,70.7345962524414,-35.570186614990234,156.0548095703125,-40.08798599243164
7037,121.64585876464844,26.45605278015137,214.9956359863281,15.943193435668945
7038,112.56912231445312,6.941254138946532,192.9376983642578,-6.8402771949768075
7039,39.42041397094727,-56.41638946533203,122.08529663085938,-80.31060791015625
7040,69.97539520263672,-28.471858978271484,151.91473388671875,-50.58588790893555
7041,129.24533081054688,19.630735397338867,213.34259033203125,-5.276998996734619
7042,106.87325286865234,6.081077098846436,185.27838134765625,-25.835227966308594
7043,50.748573303222656,-61.106224060058594,122.50790405273438,-88.60945129394531
7044,78.58464813232422,-32.436153411865234,156.60830688476562,-50.52604675292969
7045,129.45477294921878,20.99205780029297,210.71717834472656,0.5722047090530396
7046,120.86795806884766,1.7278337478637695,195.4247283935547,-10.180007934570312
7047,50.17262649536133,-55.75442886352539,129.73338317871094,-74.28189086914062
7048,75.74606323242188,-34.51553726196289,155.14601135253906,-42.70591735839844
7049,132.75709533691406,22.854528427124023,218.0997467041016,11.919060707092285
7050,116.16316223144531,-1.3949826955795288,196.59532165527344,-5.172281742095947
7051,45.60247039794922,-62.022499084472656,128.05416870117188,-69.02359008789061
7052,75.94053649902344,-36.531341552734375,158.0855712890625,-38.00112533569336
7053,120.45282745361328,21.149133682250977,216.0802001953125,13.489819526672365
7054,105.71388244628906,11.821824073791506,196.1951446533203,-9.06551742553711
7055,37.812259674072266,-62.47502899169922,126.32633972167969,-78.92684936523438
7056,76.0302963256836,-30.970111846923828,158.3436279296875,-48.52520370483398
7057,135.65925598144528,26.08580207824707,217.7257537841797,11.844263076782227
7058,118.63150024414062,12.072397232055664,203.3533172607422,-8.500792503356934
7059,53.87138748168945,-61.368019104003906,131.74171447753906,-75.29166412353516
7060,86.55811309814453,-34.455699920654304,166.81076049804688,-40.74995040893555
7061,141.15316772460938,22.97794532775879,226.6454162597656,17.540130615234375
7062,121.17462921142578,0.34407079219818115,208.4395904541016,2.505733013153076
7063,51.81818389892578,-68.6346435546875,134.92811584472656,-50.30539321899414
7064,81.39704895019531,-37.118507385253906,162.42385864257812,-23.378114700317386
7065,133.47142028808594,20.662946701049805,219.3787841796875,27.978191375732425
7066,107.68480682373048,-5.60984992980957,192.3318328857422,3.212574005126953
7067,39.97391891479492,-65.90825653076172,121.329833984375,-65.75118255615234
7068,65.23694610595703,-30.16603279113769,155.52000427246094,-40.61531448364258
7069,121.29804229736328,27.989410400390625,216.0428009033203,13.878768920898438
7070,100.0217514038086,2.83484411239624,192.57493591308597,-12.057437896728516
7071,42.00094604492188,-53.61146545410156,132.45603942871094,-70.15678405761719
7072,72.6008071899414,-25.31164360046387,162.04238891601562,-43.895206451416016
7073,136.852294921875,21.38100814819336,221.4656524658203,14.34251594543457
7074,112.01187133789062,3.481846809387207,194.15316772460938,-10.927988052368164
7075,48.51585388183594,-63.12951278686523,130.20835876464844,-75.23182678222656
7076,88.06903076171875,-27.85103416442871,164.64161682128906,-41.33711242675781
7077,132.32327270507812,15.356029510498047,216.21484375,6.978653430938722
7078,114.70460510253906,1.2865256071090698,200.27163696289062,-9.424548149108887
7079,47.95112609863281,-61.65599060058594,134.98046875,-69.65189361572266
7080,72.00990295410156,-29.90049934387207,160.13877868652344,-47.63136672973633
7081,129.727783203125,24.26821136474609,211.6371917724609,11.257099151611328
7082,110.82632446289062,0.42634859681129456,194.79269409179688,-9.06551742553711
7083,43.624061584472656,-66.44306182861328,124.13475799560548,-71.80982208251953
7084,74.0818099975586,-33.46462631225586,156.55221557617188,-40.85466766357422
7085,132.01286315917972,25.9511661529541,218.6308135986328,17.745824813842773
7086,113.9977569580078,4.671134948730469,193.8165740966797,-0.029919199645519257
7087,44.51416015625,-68.13723754882811,119.93111419677734,-67.59495544433594
7088,76.51274108886719,-33.3636474609375,155.2881317138672,-36.505165100097656
7089,131.34715270996094,22.83582878112793,213.0770568847656,15.210172653198242
7090,112.75611114501952,-0.4450480937957764,195.11431884765625,-2.853543758392334
7091,47.02737045288086,-66.49168395996094,116.83821105957031,-73.54138946533203
7092,76.64737701416016,-30.00895690917969,156.53724670410156,-37.36534118652344
7093,126.14495849609376,20.015945434570312,210.6274261474609,14.11438274383545
7094,118.27994537353516,14.065763473510742,202.5118408203125,0.254313200712204
7095,44.55903625488281,-59.85709762573242,126.93594360351562,-67.62113189697266
7096,77.64967346191406,-32.49225234985352,165.27366638183594,-34.33975982666016
7097,131.21626281738278,24.87033462524414,220.93084716796875,16.294744491577152
7098,106.81341552734376,-0.44878798723220825,196.9468688964844,-0.15333589911460874
7099,47.64445495605469,-59.34099197387695,132.78889465332028,-64.34497833251953
7100,75.40199279785156,-33.573081970214844,164.7912139892578,-36.15735244750977
7101,129.43980407714844,22.809650421142575,218.5522766113281,19.14454841613769
7102,109.5959014892578,-0.7255405783653259,187.9374542236328,-9.839676856994627
7103,45.22473907470703,-66.52908325195311,125.43624114990234,-69.779052734375
7104,73.763916015625,-37.42144012451172,142.96514892578125,-46.81980895996094
7105,131.37333679199222,13.407541275024414,203.63006591796875,9.222593307495117
7106,119.12142181396484,-0.6544824838638306,187.36151123046875,-8.86356258392334
7107,51.60874938964844,-61.63355255126953,123.6784896850586,-72.1090087890625
7108,77.29438018798828,-29.63122749328613,151.58937072753906,-38.588287353515625
7109,131.9754638671875,21.680200576782227,208.7612152099609,14.817483901977539
7110,103.28668975830078,0.9200153946876526,181.3290557861328,-9.69382095336914
7111,38.79211044311523,-59.94685745239258,119.63565826416016,-72.48300170898438
7112,72.44373321533203,-24.32056999206543,160.04153442382812,-35.293434143066406
7113,128.50483703613278,20.83498191833496,212.8339691162109,15.827256202697756
7114,107.75586700439452,-7.203047275543213,195.2527008056641,-5.415375232696533
7115,44.58147811889648,-66.16631317138672,120.81372833251952,-71.77616119384766
7116,79.29148864746094,-37.91510391235352,156.5559539794922,-33.25519180297852
7117,133.40036010742188,16.074090957641598,213.7465057373047,15.834736824035645
7118,119.66744995117188,-7.438661098480225,196.81971740722656,-1.709134221076965
7119,56.511756896972656,-72.24739074707031,127.6689682006836,-64.25896453857422
7120,85.17809295654297,-40.31238174438477,159.58152770996094,-31.97988510131836
7121,136.81489562988278,7.4087419509887695,212.6058349609375,17.420454025268555
7122,111.7837371826172,-13.987225532531738,187.3914337158203,-7.203047275543213
7123,47.30038452148438,-71.18525695800781,113.10579681396484,-66.79835510253906
7124,80.49573516845703,-33.715198516845696,150.5945587158203,-36.60614013671875
7125,134.60835266113278,29.68732643127441,210.3506774902344,20.67042732238769
7126,114.48768615722656,2.090604066848755,190.6900177001953,-7.629395961761475
7127,37.46070861816406,-68.52993011474611,121.3485336303711,-70.34751892089844
7128,65.78671264648439,-32.59322738647461,155.02259826660156,-36.35930633544922
7129,114.89159393310548,30.11367416381836,216.6748504638672,17.551349639892578
7130,94.621337890625,4.270965576171875,199.48626708984372,-6.5111656188964835
7131,38.86690902709961,-58.23398208618164,128.21124267578122,-67.47901153564453
7132,73.77887725830078,-29.63122749328613,167.45028686523438,-38.214298248291016
7133,130.77120971679688,21.766218185424805,217.92770385742188,9.31609058380127
7134,119.00174713134766,-1.5744979381561282,199.25439453125,-11.848003387451172
7135,50.96548843383789,-76.37249755859375,123.81312561035156,-82.33015441894531
7136,76.26590728759766,-42.56006240844727,154.50648498535156,-39.35870742797852
7137,132.71221923828122,11.066364288330078,212.3814392089844,12.128495216369627
7138,110.63558959960938,-3.014359474182129,188.8088531494141,-6.297991752624513
7139,48.75894546508789,-69.28164672851561,116.28470611572266,-71.84722137451172
7140,76.90917205810547,-39.51952362060547,150.42625427246094,-35.98531723022461
7141,129.03590393066406,13.60201644897461,210.41050720214844,15.943193435668945
7142,111.79122161865234,-4.611296653747559,191.0191345214844,-3.968033790588379
7143,39.330657958984375,-73.0477294921875,118.93255615234376,-65.38467407226561
7144,65.29678344726561,-44.53472900390625,155.5536651611328,-38.17689895629883
7145,119.3345947265625,23.15746116638184,216.3457336425781,18.145994186401367
7146,102.39659118652344,-5.190980911254883,190.3534240722656,-7.14694881439209
7147,47.9361686706543,-67.15738677978516,127.33985137939452,-69.78279113769531
7148,75.38329315185547,-35.304656982421875,163.69915771484375,-35.360755920410156
7149,141.56829833984375,17.139961242675778,225.24668884277344,23.44917297363281
7150,119.38321685791016,-14.47341251373291,192.57118225097656,-6.271812438964844
7151,50.2661247253418,-74.53620910644531,120.20038604736328,-75.91622924804688
7152,90.69444274902344,-40.75743103027344,160.69601440429688,-43.9924430847168
7153,141.23545837402344,14.080723762512207,211.61849975585938,6.7579994201660165
7154,116.75406646728516,-6.118476390838622,185.9216461181641,-15.48318576812744
7155,48.11194229125977,-78.26862335205078,117.26082611083984,-78.26862335205078
7156,77.2158432006836,-46.58419418334961,148.290771484375,-42.96771240234375
7157,137.16270446777344,24.35048866271973,210.20481872558597,10.049111366271973
7158,110.81510925292969,-9.783577919006348,187.7541961669922,-13.171927452087402
7159,39.94400024414063,-72.20250701904297,114.59801483154295,-74.32302856445312
7160,65.88394927978516,-34.06300735473633,153.6276092529297,-36.0451545715332
7161,119.62631225585938,21.67646026611328,213.66049194335938,19.675613403320312
7162,98.08822631835938,-0.1458560973405838,190.5292053222656,-6.776698589324951
7163,39.917823791503906,-69.44245910644531,124.43021392822266,-74.61100769042969
7164,76.53892517089844,-34.122848510742195,160.8007354736328,-39.71025848388672
7165,127.59603881835938,17.816883087158203,213.54454040527344,15.445786476135256
7166,103.66815948486328,-7.120769500732423,179.46658325195312,-21.706378936767575
7167,41.92988967895508,-62.80039978027344,120.32379913330078,-72.64381408691406
7168,75.25988006591797,-34.71375274658203,151.54074096679688,-43.78300857543945
7169,136.64659118652344,17.102561950683597,209.14268493652344,9.581624031066896
7170,122.6219711303711,-11.373035430908205,180.9363555908203,-15.89083480834961
7171,56.43696212768555,-80.3554916381836,113.33018493652344,-79.3344955444336
7172,83.81302642822266,-43.80544662475586,151.10691833496094,-47.76974105834961
7173,139.12240600585938,19.05853080749512,213.7876434326172,7.685494422912598
7174,112.71497344970705,-10.774651527404783,192.58241271972656,-20.173019409179688
7175,47.24802780151367,-70.97956085205078,124.14598083496094,-78.0068359375
7176,80.84354400634766,-29.53025054931641,165.931884765625,-42.42916488647461
7177,134.01744079589844,22.77225112915039,216.3382568359375,13.145748138427734
7178,109.67069244384766,-6.256852626800537,190.28610229492188,-13.807710647583008
7179,45.50149154663086,-62.213233947753906,123.2334442138672,-74.46514892578125
7180,74.0406723022461,-36.71833801269531,156.35400390625,-38.247955322265625
7181,131.83334350585938,17.611188888549805,215.50425720214844,21.134174346923828
7182,103.22310638427734,-3.9418544769287114,186.25823974609372,-6.851496696472168
7183,39.77570724487305,-67.37803649902344,117.30944061279295,-71.09923553466797
7184,74.99808502197266,-31.014989852905273,153.26858520507812,-34.22382354736328
7185,132.25221252441406,28.090389251708984,206.0647430419922,19.14828872680664
7186,112.4681396484375,5.060084819793701,181.04481506347656,-10.883109092712402
7187,50.827110290527344,-67.33316040039061,115.1627426147461,-73.2347183227539
7188,82.64617919921875,-41.25857543945313,146.24130249023438,-45.94841003417969
7189,138.77459716796878,27.686479568481445,205.84783935546875,13.063470840454102
7190,108.81426239013672,-8.212820053100586,178.07533264160156,-13.78153133392334
7191,51.548912048339844,-63.94480895996094,123.41295623779295,-71.12541961669922
7192,76.86803436279297,-33.35616683959961,153.4106903076172,-47.69494247436523
7193,129.34257507324222,23.39307403564453,213.97837829589844,6.013759136199951
7194,106.71991729736328,-1.54831862449646,188.1020050048828,-21.7961368560791
7195,44.08781051635742,-62.71812057495117,125.45120239257812,-80.62476348876953
7196,80.9071273803711,-30.584901809692386,164.11802673339844,-47.09281921386719
7197,133.60604858398438,24.443986892700195,221.18890380859372,13.02981185913086
7198,114.54752349853516,2.1953213214874268,195.9333648681641,-8.242739677429201
7199,49.63034057617188,-58.64911270141602,129.25094604492188,-65.15279388427734
7200,81.66632843017578,-25.91002655029297,168.78543090820312,-24.47016525268555
7201,134.892578125,20.6816463470459,221.4619140625,27.77623748779297
7202,109.24808502197266,0.5048865079879761,200.08839416503903,3.2200539112091064
7203,48.04836654663086,-59.48684692382813,131.37519836425778,-59.23627471923828
7204,77.7768325805664,-32.525909423828125,159.4020233154297,-35.353275299072266
7205,133.52377319335938,21.04815673828125,221.6414337158203,19.76537132263184
7206,104.86492156982422,-10.56521701812744,188.00103759765625,-12.966233253479006
7207,49.17781448364258,-70.20166015625,124.43021392822266,-70.68411254882812
7208,75.43565368652344,-42.118751525878906,149.67453002929688,-42.00281524658203
7209,132.96279907226562,16.54157829284668,204.77447509765625,11.02896499633789
7210,108.45896911621094,-13.964786529541016,178.2585906982422,-16.20872688293457
7211,48.23535919189453,-72.9130859375,112.9375,-82.05340576171875
7212,74.8447494506836,-37.27184295654297,148.01402282714844,-46.3111801147461
7213,129.43606567382812,16.896867752075195,207.7514495849609,5.6696882247924805
7214,108.84043884277344,-1.1182301044464111,182.5445098876953,-15.868395805358887
7215,52.39786911010742,-54.28464889526367,128.66377258300778,-70.15678405761719
7216,77.02884674072266,-41.52784729003906,154.40550231933594,-46.55801391601562
7217,135.89862060546878,19.679353713989254,213.8624420166016,8.684047698974611
7218,114.798095703125,5.2321200370788565,196.7449188232422,-10.112689018249512
7219,50.35588455200195,-63.15568923950195,127.8746566772461,-76.2453384399414
7220,83.43155670166016,-31.15710639953613,167.7569580078125,-43.50251770019531
7221,136.4708251953125,22.697452545166016,223.7956085205078,14.054544448852539
7222,108.20465850830078,-6.290511608123778,199.2581329345703,-7.7602925300598145
7223,52.86909484863281,-66.96665191650389,141.7683868408203,-62.403968811035156
7224,81.47184753417969,-27.58176231384277,163.91233825683594,-37.05492782592773
7225,136.22772216796878,20.82002258300781,212.1084289550781,18.527463912963867
7226,112.83464813232422,-12.607202529907227,189.05567932128903,-4.835690498352051
7227,49.17781448364258,-65.27247619628906,124.71070098876952,-69.93612670898439
7228,78.40513610839844,-39.938392639160156,151.0583038330078,-43.82040786743164
7229,135.00477600097656,17.181100845336914,210.698486328125,14.028365135192873
7230,104.95468139648438,-6.533605098724365,184.6220245361328,-15.01382827758789
7231,47.356483459472656,-68.60098266601561,122.06846618652344,-72.48860931396484
7232,74.45579528808594,-27.069395065307614,152.2906036376953,-43.87463760375977
7233,131.53414916992188,19.7429313659668,210.13937377929688,11.939630508422852
7234,108.41409301757812,-3.1602153778076167,185.2166748046875,-16.195636749267578
7235,43.50438690185547,-61.61111068725586,123.43352508544922,-74.60539245605469
7236,73.0009765625,-29.08894157409668,147.30905151367188,-46.4102897644043
7237,129.63801574707028,28.65885353088379,206.7098846435547,7.275975227355957
7238,103.87384796142578,-4.162508487701416,182.0676727294922,-17.38118553161621
7239,41.20808792114258,-59.93937683105469,118.47441864013672,-78.09845733642578
7240,72.48113250732422,-26.69540596008301,152.4364471435547,-40.36661148071289
7241,126.75830078125,20.65920829772949,210.7153167724609,19.015522003173828
7242,103.78409576416016,0.9499346017837524,187.1240234375,-7.006702423095702
7243,39.28952026367188,-62.9649543762207,118.33230590820312,-68.19146728515625
7244,63.75968551635742,-27.27882957458496,150.86569213867188,-41.39882278442383
7245,122.943603515625,27.86599540710449,209.2978973388672,14.924070358276367
7246,106.51048278808594,-7.846310138702393,179.84243774414062,-13.502908706665039
7247,45.58750915527344,-62.00754165649414,119.14385986328124,-72.58210754394531
7248,83.76815032958984,-24.37292861938477,162.81468200683594,-33.28697967529297
7249,132.31205749511722,21.526865005493164,213.22103881835938,9.635851860046387
7250,105.71014404296876,-4.869349956512451,188.3843688964844,-16.95109748840332
7251,46.83663558959961,-70.82996368408203,122.00862884521484,-77.72447204589844
7252,83.54749298095703,-34.44821929931641,158.13232421875,-46.22703170776367
7253,131.1302490234375,17.891681671142578,211.8896484375,9.920084953308104
7254,105.33615112304688,-6.297991752624513,188.4105529785156,-15.810426712036133
7255,47.49111938476562,-73.63863372802734,118.99800872802734,-84.20571899414062
7256,78.83895874023438,-37.309242248535156,157.17117309570312,-54.73904418945313
7257,130.7899169921875,19.23430633544922,210.7452392578125,4.665524959564209
7258,107.37439727783205,-9.772358894348145,178.32029724121094,-25.751081466674805
7259,47.36022186279297,-66.06533050537111,118.57913970947266,-80.51817321777344
7260,77.57113647460938,-31.011249542236328,153.36021423339844,-44.99286651611328
7261,127.89148712158205,24.414066314697266,210.8985748291016,16.206855773925778
7262,99.67020416259766,-0.3291111886501312,182.9091644287109,-10.73538303375244
7263,33.30194091796875,-61.15110397338867,123.60556030273438,-68.94318389892578
7264,68.74123382568361,-27.7126579284668,154.6841278076172,-38.657474517822266
7265,125.34835815429688,23.591289520263672,213.57260131835938,16.74540138244629
7266,94.3184051513672,0.9125356078147888,180.85595703125,-14.075113296508787
7267,31.30109214782715,-64.54693603515625,110.83380889892578,-75.87322235107422
7268,65.94752502441406,-29.28715705871582,151.20602416992188,-42.621768951416016
7269,127.33424377441406,18.87153434753418,209.85513305664062,11.790034294128418
7270,101.75706481933594,-5.602370262145996,180.11170959472656,-13.03916072845459
7271,47.05355072021485,-62.71438217163086,114.5961456298828,-79.56076049804688
7272,73.55448150634766,-31.848987579345703,148.41232299804688,-49.48822784423828
7273,126.43292999267578,21.066856384277344,207.6785125732422,5.697737693786621
7274,97.61699676513672,-9.327310562133787,179.0757598876953,-18.72380828857422
7275,39.10252380371094,-67.24713897705078,115.62088012695312,-83.86912536621094
7276,73.24407196044922,-31.73679161071777,151.02276611328125,-51.07020568847656
7277,129.62306213378906,23.759584426879886,204.85862731933597,5.35366678237915
7278,101.7234115600586,-8.018345832824707,177.0262908935547,-24.296260833740234
7279,43.76617813110352,-67.31446075439453,110.73656463623048,-80.9108657836914
7280,76.0714340209961,-37.08858871459961,151.83058166503906,-47.11713027954102
7281,133.66963195800778,15.860916137695312,210.1094512939453,12.481916427612305
7282,105.983154296875,-3.4893267154693604,179.412353515625,-14.90911102294922
7283,43.44828796386719,-63.28658676147461,113.4666976928711,-71.8752670288086
7284,73.13561248779297,-29.94911956787109,152.76556396484375,-37.7411994934082
7285,129.27151489257812,24.79553604125977,210.25157165527344,16.42003059387207
7286,104.26280212402344,-6.720600128173827,181.6562957763672,-9.751789093017578
7287,35.39628219604492,-68.19707489013672,115.22444915771484,-73.84619140625
7288,68.22886657714844,-37.817867279052734,147.46238708496094,-43.36227035522461
7289,129.09947204589844,24.518783569335934,211.8933868408203,13.1663179397583
7290,106.00933074951172,-8.699007034301758,185.5644836425781,-17.69159698486328
7291,45.45661544799805,-58.97822189331055,123.0034408569336,-75.09906005859375
7292,74.0818099975586,-29.80326271057129,158.99249267578125,-45.7184066772461
7293,127.2220458984375,20.509611129760746,214.27569580078125,8.158592224121094
7294,103.77287292480469,-10.202446937561037,176.03521728515625,-22.979814529418945
7295,41.82891082763672,-61.53631210327149,124.40216064453124,-81.30355834960938
7296,78.04610443115234,-36.92029190063477,151.9315643310547,-48.56821060180664
7297,125.47177124023438,18.95755195617676,207.06890869140625,13.244855880737305
7298,95.75453186035156,-5.415375232696533,174.16526794433594,-16.098400115966793
7299,37.382171630859375,-73.4890365600586,111.7089385986328,-68.51309967041016
7300,63.70358657836914,-34.25748443603516,143.17645263671875,-42.28144073486328
7301,125.15762329101562,20.48343276977539,203.8825225830078,17.31760597229004
7302,100.724853515625,-7.715413570404053,175.14886474609375,-9.759268760681152
7303,41.59329605102539,-62.69194412231445,116.58203125,-65.19206237792969
7304,60.8650016784668,-38.6406478881836,139.6871337890625,-45.81190490722656
7305,126.47032928466795,11.133682250976562,204.13308715820312,16.25173568725586
7306,101.76081085205078,-7.341423511505128,180.22764587402344,-15.08862590789795
7307,36.89224243164063,-65.57540893554689,117.31879425048828,-73.6629409790039
7308,75.04296112060547,-36.45280456542969,155.60414123535156,-44.86196899414063
7309,134.32037353515622,25.102209091186523,215.2480773925781,6.251242637634277
7310,107.60253143310548,-7.790211677551269,187.5503692626953,-25.234975814819336
7311,46.14475631713867,-68.91887664794922,122.83514404296876,-80.0843505859375
7312,75.9928970336914,-29.18991851806641,156.1875762939453,-45.13124084472656
7313,130.81608581542972,18.897714614868164,210.58067321777344,11.659137725830078
7314,104.5993881225586,-0.4413082003593445,185.1643218994141,-16.29287338256836
7315,40.56108474731445,-61.95144271850586,124.45452117919922,-71.71819305419922
7316,69.76970672607422,-34.807247161865234,159.41510009765625,-33.00648880004883
7317,127.9251480102539,20.561969757080078,223.44219970703125,20.668556213378906
7318,104.26280212402344,-6.152135372161865,188.814453125,-4.9497575759887695
7319,42.64794921875,-69.70799255371094,124.24508666992188,-60.64808654785156
7320,70.10629272460939,-36.733299255371094,150.64877319335938,-31.54044532775879
7321,121.1185302734375,23.01160430908203,209.1969146728516,22.246795654296875
7322,89.79686737060547,-4.701054096221924,178.80648803710938,-10.084640502929688
7323,38.23112869262695,-64.26644134521484,122.76034545898438,-67.01713562011719
7324,63.08650207519531,-30.87287330627441,147.2379913330078,-41.70175552368164
7325,129.3350830078125,30.65970039367676,214.8366851806641,19.116498947143555
7326,99.4794692993164,-10.703593254089355,181.6151580810547,-23.1406307220459
7327,46.41402816772461,-70.14556121826172,120.56502532958984,-73.71903991699219
7328,74.84101104736328,-36.29946899414063,154.96463012695312,-42.74144744873047
7329,130.2738037109375,22.73859214782715,216.6355743408203,18.36103820800781
7330,101.49901580810548,-7.962246894836426,183.71324157714844,-11.539461135864258
7331,44.79839324951172,-60.13385009765625,120.28826904296876,-69.88189697265625
7332,72.07722473144531,-34.724971771240234,158.7606201171875,-36.72020721435547
7333,129.52581787109378,25.23684501647949,215.9100341796875,20.627418518066406
7334,91.9510498046875,-11.98263931274414,183.8291778564453,-15.21578311920166
7335,47.07973098754883,-70.43353271484375,121.27186584472656,-66.59078979492189
7336,80.69395446777344,-34.478137969970696,148.06825256347656,-32.022891998291016
7337,133.41157531738278,20.225378036499023,210.13563537597656,22.493627548217773
7338,101.59251403808594,-10.580177307128906,181.3832855224609,-11.5731201171875
7339,43.53056716918945,-62.52364730834961,124.45825958251952,-65.62215423583984
7340,67.15925598144531,-36.4154052734375,157.017822265625,-34.891395568847656
7341,132.88050842285156,33.35616683959961,218.95431518554688,21.158483505249023
7342,102.5536651611328,0.2917121946811676,182.66232299804688,-19.72610282897949
7343,45.93532180786133,-61.44281768798828,123.84117889404295,-75.84703826904297
7344,77.31307983398438,-31.37775993347168,153.8164825439453,-46.64590072631836
7345,136.57553100585938,30.78685569763184,215.7006072998047,11.285147666931152
7346,110.35509490966795,2.6553289890289307,190.24310302734372,-14.32194709777832
7347,43.65772247314453,-72.33714294433594,120.31071472167969,-76.96527099609375
7348,77.24950408935547,-31.927526473999023,162.86703491210938,-38.63877487182617
7349,130.8310546875,27.955751419067386,219.62001037597656,20.417984008789066
7350,108.1672592163086,-1.1518892049789429,188.6723480224609,-6.808487892150879
7351,46.54492568969727,-69.33774566650389,127.51750183105469,-66.83013916015625
7352,75.72362518310547,-33.636661529541016,163.02410888671875,-29.53960037231445
7353,132.57759094238278,29.156259536743164,220.6709289550781,26.753374099731445
7354,103.40636444091795,-6.241892814636231,186.51068115234372,-8.51014232635498
7355,41.75785446166992,-65.36222839355469,124.34232330322266,-65.83158874511719
7356,75.48426818847656,-26.51215171813965,167.4970245361328,-39.88790130615234
7357,135.150634765625,29.39187431335449,225.13262939453125,14.51268196105957
7358,106.08787536621094,-8.986979484558105,184.6070709228516,-17.059553146362305
7359,43.392189025878906,-58.63415145874024,132.16619873046878,-68.48691558837889
7360,79.79263305664062,-26.26531791687012,168.9368896484375,-31.98923492431641
7361,129.47720336914062,33.472103118896484,224.20887756347656,20.59001922607422
7362,107.52399444580078,4.4691805839538565,193.16021728515625,-9.396498680114746
7363,44.00179290771485,-57.93852996826172,130.41966247558594,-68.45700073242189
7364,74.27628326416016,-28.77104949951172,158.68582153320312,-34.547325134277344
7365,131.34341430664062,27.518184661865234,220.8654022216797,23.01721382141113
7366,98.72775268554688,-6.00253963470459,190.8003387451172,-13.839499473571776
7367,38.98658752441406,-62.703163146972656,132.1400146484375,-67.20413208007811
7368,72.21186065673828,-26.770204544067386,164.63600158691406,-34.068618774414055
7369,129.0882568359375,24.67959976196289,215.693115234375,16.378890991210938
7370,97.78155517578124,-5.400415420532227,185.6766815185547,-15.342939376831055
7371,43.29495239257813,-49.53871536254883,126.7957000732422,-71.12728881835938
7372,73.29643249511719,-22.74981117248535,166.4348907470703,-41.993465423583984
7373,131.23121643066406,30.56620216369629,220.53628540039062,11.681577682495115
7374,101.58129119873048,-3.695021152496338,189.77561950683597,-20.732135772705078
7375,44.64505386352539,-65.42207336425781,124.38346099853516,-76.24346923828125
7376,75.61516571044922,-31.007511138916016,161.71141052246094,-43.388450622558594
7377,134.85891723632812,29.10016250610352,222.70916748046875,13.645025253295898
7378,115.81161499023438,-3.3846094608306885,190.433837890625,-10.664324760437012
7379,55.13921356201172,-64.17668151855469,130.03071594238278,-66.96477508544922
7380,87.22007751464844,-33.827396392822266,167.68402099609375,-35.73661422729492
7381,139.35054016113278,23.71844482421875,222.4249420166016,21.154743194580078
7382,106.49552154541016,-6.365309715270996,185.8487243652344,-18.3984375
7383,48.23162078857422,-60.16003036499024,129.98957824707028,-71.8790054321289
7384,72.01737976074219,-35.97035598754883,163.12509155273438,-39.506431579589844
7385,128.77784729003906,33.59926223754883,223.5020294189453,16.360193252563473
7386,98.89978790283205,-0.19821469485759732,196.197021484375,-14.752035140991213
7387,42.37493515014648,-53.03178024291992,134.08102416992188,-75.27483367919922
7388,73.53204345703125,-29.12634086608887,169.20242309570312,-39.181060791015625
7389,129.60810852050778,28.94682502746582,222.8138885498047,11.172950744628906
7390,99.97313690185548,-2.457114219665528,188.69851684570312,-17.680377960205078
7391,42.27021789550781,-62.94999694824219,130.408447265625,-69.21245574951172
7392,85.73159790039062,-24.8478946685791,163.57012939453125,-34.928794860839844
7393,139.34306335449222,26.72158432006836,217.80616760253903,23.91479110717773
7394,111.26763153076172,-12.940053939819336,190.79286193847656,-12.119145393371582
7395,56.19760513305664,-65.64646148681639,137.181396484375,-56.53793716430664
7396,85.05093383789062,-41.68118667602539,162.08912658691406,-27.06378555297852
7397,145.38299560546875,22.69371223449707,222.62315368652344,27.093706130981445
7398,110.0970458984375,-5.804324626922607,184.3789367675781,-4.403732299804688
7399,44.77221298217773,-72.01551055908203,119.34581756591795,-73.763916015625
7400,76.2883529663086,-34.919445037841804,152.89271545410156,-40.28059387207031
7401,129.72404479980472,18.47510528564453,203.33274841308597,5.80619478225708
7402,101.1100616455078,-9.323570251464844,181.74978637695312,-25.87823867797852
7403,41.776554107666016,-60.9940299987793,121.79170989990234,-84.6432876586914
7404,71.04126739501953,-24.42154693603516,156.59521484375,-52.62226104736328
7405,132.72343444824222,32.35387420654297,220.4540100097656,8.89161205291748
7406,102.8117218017578,-0.1047171950340271,192.04946899414062,-22.32533264160156
7407,48.13812255859375,-53.87326049804688,137.42823791503906,-81.44567108154297
7408,79.47474670410156,-18.864055633544922,166.44985961914062,-46.46638870239258
7409,136.11552429199222,32.653064727783196,229.6990509033203,5.338706970214844
7410,113.40311431884766,6.200754165649414,208.77430725097656,-13.364532470703125
7411,50.20254516601562,-57.07087326049805,137.20384216308594,-76.5351791381836
7412,89.2620620727539,-17.573789596557614,174.05307006835938,-32.81201171875
7413,144.45550537109375,33.98073196411133,230.1964569091797,23.45852279663086
7414,102.81546020507812,-4.730973243713379,187.7635498046875,-12.242562294006348
7415,46.73939895629883,-71.53680419921875,124.5106201171875,-66.30281829833984
7416,77.82918548583984,-37.79916763305664,155.4657745361328,-38.67617416381836
7417,132.91043090820312,20.647987365722656,215.46124267578125,19.49422836303711
7418,101.50275421142578,-8.201601028442383,180.2126922607422,-22.05232048034668
7419,42.77136611938477,-63.694236755371094,121.6234130859375,-81.09786224365234
7420,67.52576446533203,-27.02077674865723,145.6111297607422,-57.22982025146485
7421,119.2747573852539,22.05418968200684,204.74642944335938,-1.7409234046936035
7422,95.4216766357422,-5.209680557250977,173.58558654785156,-31.33475112915039
7423,40.03376007080078,-59.05675888061523,121.7991943359375,-85.21175384521484
7424,67.39860534667969,-25.277984619140625,156.58399963378906,-44.73107528686523
7425,120.86795806884766,27.091835021972656,211.6203765869141,8.573720932006836
7426,95.81436920166016,-5.478953361511231,183.6085205078125,-24.573013305664066
7427,46.43646621704102,-53.83211898803711,125.62510681152344,-70.22971343994139
7428,83.77936553955078,-28.340961456298828,162.6538543701172,-40.3703498840332
7429,144.35826110839844,29.63122749328613,225.4841766357422,13.962916374206545
7430,113.0478286743164,-5.430334568023682,187.8495635986328,-15.234482765197756
7431,60.17686080932617,-58.71081924438477,131.02365112304688,-65.4949951171875
7432,95.3431396484375,-29.04593276977539,173.45281982421875,-34.00130081176758
7433,150.14389038085938,32.49412155151367,230.0674285888672,21.09864616394043
7434,119.5889129638672,-10.350172996520996,194.8525238037109,-11.386125564575195
7435,60.11328125,-62.50681686401367,136.588623046875,-63.00422286987305
7436,86.46461486816406,-31.88077735900879,169.63438415527344,-33.10372543334961
7437,137.25619506835938,24.210243225097656,226.5182647705078,18.21518325805664
7438,96.81291961669922,-11.034574508666992,185.8094482421875,-17.179229736328125
7439,32.711036682128906,-62.60779571533203,130.7843017578125,-74.0855484008789
7440,54.3687973022461,-37.04557800292969,161.71327209472656,-43.69137954711914
7441,119.02792358398438,24.67773056030273,228.08901977539062,18.693889617919922
7442,86.55811309814453,-7.571427345275879,191.37815856933597,-16.580846786499027
7443,28.91877555847168,-60.322715759277344,125.26795196533205,-78.09471893310547
7444,63.00422286987305,-28.31291198730469,165.43447875976562,-38.92675018310547
7445,124.47695922851562,27.43029594421387,220.6540985107422,19.73358154296875
7446,93.4731903076172,-4.313974380493163,187.7616729736328,-17.474681854248047
7447,37.995513916015625,-69.87815856933594,118.96995544433594,-79.19425201416016
7448,79.37376403808594,-33.260799407958984,161.53375244140625,-47.5434799194336
7449,135.74153137207028,29.31520652770996,227.1839599609375,9.79666805267334
7450,109.70809173583984,-5.1629319190979,191.9204406738281,-23.121931076049805
7451,57.22233963012695,-67.16299438476561,135.21607971191406,-73.39740753173828
7452,82.9603271484375,-27.81176567077637,167.64476013183594,-41.91866683959961
7453,143.1577606201172,26.5738582611084,223.02145385742188,16.139537811279293
7454,98.64546966552734,-10.361392974853516,180.1846466064453,-26.58881950378418
7455,46.99371337890625,-56.07793045043945,127.93075561523438,-72.65690612792969
7456,75.9293212890625,-25.713682174682614,163.35134887695312,-42.84616470336914
7457,131.57902526855472,31.12531661987305,221.3833770751953,16.244255065917972
7458,104.26654052734376,-10.634405136108398,189.2651214599609,-17.672897338867188
7459,42.61428833007813,-68.61407470703125,127.4557876586914,-74.73255157470703
7460,74.9719009399414,-27.14980316162109,160.8905029296875,-36.701507568359375
7461,137.17391967773438,31.91069602966309,226.31256103515625,20.459123611450195
7462,94.46052551269531,-12.874605178833008,180.2220458984375,-19.07161903381348
7463,39.82806396484375,-63.99155807495117,127.21269989013672,-70.31198883056639
7464,70.4129638671875,-31.963054656982425,165.28488159179688,-39.48773193359375
7465,133.57614135742188,30.609210968017575,225.6655578613281,20.8218936920166
7466,98.18172454833984,-5.914651870727539,183.44956970214844,-20.93782997131348
7467,50.87572860717773,-60.21051788330078,130.72445678710938,-77.86658477783203
7468,81.71868133544922,-25.91189765930176,161.07374572753906,-46.81793594360352
7469,143.79354858398438,34.59220504760742,226.4023284912109,12.070527076721193
7470,104.00100708007812,-8.016475677490233,186.7257232666016,-17.545740127563473
7471,48.10446166992188,-59.49619674682617,133.1142578125,-71.9575424194336
7472,83.96636199951172,-33.601131439208984,171.6501922607422,-35.931087493896484
7473,139.58241271972656,17.377445220947266,224.28553771972656,19.93553733825684
7474,103.189453125,-9.890165328979492,180.44268798828125,-16.34897232055664
7475,44.28976440429688,-60.27409744262695,124.20207977294922,-70.2484130859375
7476,71.80420684814453,-29.423662185668945,161.0400848388672,-34.704402923583984
7477,132.45790100097656,34.921314239501946,219.71163940429688,28.07729911804199
7478,94.2623062133789,-13.790881156921387,175.12081909179688,-19.505447387695312
7479,42.539493560791016,-64.89287567138672,125.7877960205078,-69.97539520263672
7480,79.29896545410156,-36.30133819580078,160.838134765625,-43.20893478393555
7481,132.75709533691406,35.47481918334961,225.00360107421875,16.521007537841793
7482,99.27377319335938,-0.9181454181671144,191.5240173339844,-13.7534818649292
7483,44.02797317504883,-59.16334915161133,135.59007263183594,-68.845947265625
7484,77.66089630126953,-31.68256187438965,169.81390380859375,-40.23197555541992
7485,145.25584411621094,40.66580200195313,238.23536682128903,22.1719970703125
7486,109.3939437866211,-4.673005104064941,199.74057006835938,-19.52788734436035
7487,57.15876007080078,-55.30751037597656,144.50973510742188,-68.94318389892578
7488,84.44132995605469,-22.258014678955078,173.2994842529297,-31.185155868530273
7489,143.71127319335938,30.44465637207031,230.3965301513672,26.282146453857425
7490,112.43447875976562,-9.172104835510254,191.7110137939453,-5.147972106933594
7491,49.60790252685547,-72.4773941040039,131.22935485839844,-63.40439224243164
7492,84.25433349609375,-35.34018325805664,161.81051635742188,-26.88801002502441
7493,141.9385528564453,25.34343147277832,222.8195037841797,23.37250518798828
7494,96.07241821289062,-7.810781002044678,179.86300659179688,-13.903078079223633
7495,44.192527770996094,-62.90698623657226,122.28724670410156,-70.00157928466797
7496,67.67536163330078,-35.35514450073242,152.9955596923828,-41.73541259765625
7497,127.93262481689452,27.808025360107425,220.3736114501953,21.51751518249512
7498,100.98291015625,-4.0260024070739755,192.75070190429688,-14.44162368774414
7499,46.15597534179688,-55.9470329284668,129.32948303222656,-75.27483367919922
7500,78.76042175292969,-27.98754119873047,162.75669860839844,-40.63588333129883
7501,140.05364990234378,33.77316665649414,228.18251037597656,13.731042861938475
7502,103.74669647216795,-7.792081356048584,189.4932556152344,-25.68002319335937
7503,52.65217971801758,-60.67426681518555,142.71458435058594,-67.91844940185547
7504,88.14757537841797,-27.18720245361328,172.20742797851562,-40.10481643676758
7505,149.12664794921875,29.083332061767575,232.2777099609375,14.77447509765625
7506,106.85455322265624,-9.860246658325195,191.9316711425781,-17.65793800354004
7507,54.59692764282226,-64.77693939208984,127.25383758544922,-65.00881195068361
7508,80.01329040527344,-31.181415557861328,161.66839599609375,-26.5327205657959
