,T7,F8,Cz,P4
1600,134.01744079589844,-47.27233505249024,-83.88408660888672,79.46165466308594
1601,165.2979736328125,0.7965986728668213,-46.099876403808594,120.99698638916016
1602,124.8733901977539,-42.919090270996094,-91.4461669921875,63.00983428955078
1603,109.98484802246094,-63.3763427734375,-110.54957580566406,44.98725509643555
1604,126.0140609741211,-36.22841262817383,-94.12019348144531,66.34208679199219
1605,182.14996337890625,3.8820161819458012,-31.091657638549805,133.12547302246094
1606,120.3331527709961,-64.68904876708984,-85.61940002441406,70.6429672241211
1607,117.75636291503906,-60.14507293701172,-104.97338104248048,59.67384338378906
1608,119.98534393310548,-43.50999450683594,-86.1224136352539,76.83998107910156
1609,167.2838592529297,4.899269104003906,-41.14263916015625,125.85885620117188
1610,132.99270629882812,-43.20332336425781,-89.18913269042969,64.04953002929689
1611,122.42375183105469,-77.71511840820312,-110.58135986328124,46.97314453125
1612,134.71307373046878,-44.81521987915039,-93.6508331298828,74.05001831054688
1613,163.0428009033203,5.090003967285156,-48.1699104309082,124.4189910888672
1614,125.2772979736328,-58.89594268798828,-98.61368560791016,65.38092803955078
1615,102.86407470703124,-70.60931396484375,-111.70706939697266,57.5533218383789
1616,113.08148193359376,-34.09292984008789,-86.51510620117188,92.97765350341795
1617,160.27528381347656,21.55678367614746,-41.78216171264648,133.06190490722656
1618,123.31011199951172,-62.66950225830078,-102.53309631347656,68.67204284667969
1619,110.90859985351562,-77.6478042602539,-107.18927001953124,60.70979690551758
1620,100.3658218383789,-57.03347396850586,-103.53539276123048,78.0255355834961
1621,146.90139770507812,4.4691805839538565,-52.79242706298828,121.99553680419922
1622,113.18994140625,-45.30514907836914,-101.46722412109376,61.92526245117188
1623,102.8117218017578,-73.70220947265625,-113.36384582519531,50.67190551757813
1624,120.31071472167969,-58.80244827270508,-95.29639434814452,74.779296875
1625,168.74989318847656,14.409834861755373,-52.74007034301758,114.7663116455078
1626,130.43461608886722,-78.4705810546875,-103.86824035644531,52.29875946044922
1627,132.36067199707028,-72.33714294433594,-108.61417388916016,49.41903686523438
1628,155.48072814941406,-55.97134399414063,-90.10540771484376,76.11444091796875
1629,174.7449493408203,0.8676567673683167,-49.894004821777344,122.67245483398438
1630,138.00418090820312,-69.10961151123047,-95.74143981933594,67.79690551757811
1631,128.7890625,-73.39179992675781,-120.01338958740234,52.945762634277344
1632,122.15074157714844,-35.495391845703125,-98.29579162597656,78.90067291259766
1633,150.10275268554688,7.71915340423584,-50.94865798950195,115.83592224121094
1634,127.9027099609375,-56.79412078857422,-103.5054702758789,58.357398986816406
1635,111.241455078125,-85.79704284667969,-116.31836700439452,43.1995849609375
1636,112.67757415771484,-48.18487167358398,-93.4077377319336,75.77411651611328
1637,166.61814880371094,15.707579612731935,-37.85526657104492,128.86199951171878
1638,129.39118957519528,-47.25363540649414,-87.30796813964844,69.62945556640625
1639,102.6135025024414,-69.71921539306639,-110.7683563232422,47.8071403503418
1640,109.03117370605469,-52.12672424316406,-94.78776550292969,72.09405517578125
1641,165.02120971679688,4.914228439331055,-38.61446762084961,126.05706787109376
1642,128.90126037597656,-58.32748031616211,-91.64624786376952,62.10103988647461
1643,107.39309692382812,-67.06388854980469,-114.72891235351562,40.43206024169922
1644,117.84611511230469,-47.7248649597168,-91.55274963378906,68.29804992675781
1645,159.46372985839844,-6.043678283691406,-47.29851531982422,117.2944793701172
1646,125.84202575683594,-49.38537979125977,-91.30591583251952,66.77217102050781
1647,108.24205780029295,-71.91079711914062,-112.97116088867188,51.09451293945313
1648,129.18174743652344,-9.5629243850708,-90.03435516357422,84.9780044555664
1649,163.10264587402344,3.6838014125823975,-47.8071403503418,122.75847625732422
1650,123.8075180053711,-61.19224166870117,-90.76737213134766,65.47442626953125
1651,99.8347625732422,-78.34716796875,-111.03762817382812,45.61555862426758
1652,108.84417724609376,-52.7662467956543,-92.83179473876952,77.62162017822266
1653,158.34548950195312,12.165894508361815,-43.412757873535156,134.78599548339844
1654,120.00778198242188,-53.24495697021485,-92.9065933227539,69.38636016845703
1655,110.81510925292969,-70.20166015625,-114.5232162475586,56.80908203125
1656,123.35124969482422,-34.35845947265625,-94.10336303710938,78.21627044677734
1657,161.65904235839844,8.721446990966799,-46.038169860839844,120.72396850585938
1658,130.84600830078122,-58.66781234741211,-89.34620666503906,58.36113739013672
1659,107.01910400390624,-70.26898193359375,-112.70562744140624,43.70820999145508
1660,120.58372497558594,-33.31502914428711,-93.21326446533205,71.645263671875
1661,167.1267852783203,32.563308715820305,-44.7254638671875,126.09820556640624
1662,120.68843841552734,-74.72319793701172,-97.96668243408205,70.42231750488281
1663,98.86986541748048,-80.4003677368164,-118.13221740722656,50.70182418823242
1664,109.74923706054688,-52.54185485839844,-106.2168960571289,69.75661468505861
1665,159.0560760498047,-2.5655713081359863,-60.14507293701172,116.82699584960938
1666,122.39757537841795,-59.25497436523438,-104.2272720336914,66.86193084716797
1667,108.36920928955078,-74.91767883300781,-119.94981384277344,49.3031005859375
1668,113.09270477294922,-50.67190551757813,-104.55264282226562,72.59893798828125
1669,158.36045837402344,8.433474540710451,-49.21334457397461,127.97189331054688
1670,118.80353546142578,-55.84418487548828,-100.72672271728516,69.18067169189453
1671,104.19922637939452,-63.466102600097656,-119.22801208496094,50.83272171020508
1672,110.84502410888672,-50.155799865722656,-102.86595153808594,69.18067169189453
1673,157.07766723632812,11.193520545959473,-52.96820449829102,125.69055938720705
1674,117.15797424316406,-54.86433410644531,-99.07369232177734,64.42725372314453
1675,98.23782348632812,-62.1795768737793,-118.12474060058594,47.83332061767578
1676,109.40142059326172,-42.31696701049805,-100.71550750732422,77.82731628417969
1677,147.64938354492188,13.654375076293945,-50.94865798950195,126.11316680908205
1678,119.1737823486328,-43.92886352539063,-94.24547576904295,74.36791229248047
1679,106.54039764404295,-66.23362731933594,-118.03498077392578,59.5392074584961
1680,121.26438903808594,-48.88797378540039,-97.10649871826172,79.697265625
1681,152.66831970214844,-1.099530577659607,-52.38851928710938,129.98396301269528
1682,111.13299560546876,-58.888465881347656,-94.4100341796875,75.63199615478516
1683,89.51637268066406,-77.99935150146484,-112.32789611816406,55.80304718017578
1684,104.89484405517578,-43.940086364746094,-93.08985137939452,83.88969421386719
1685,154.47096252441406,8.22029972076416,-46.60663223266602,138.66801452636722
1686,123.5681610107422,-59.269935607910156,-83.3249740600586,85.46793365478516
1687,104.45353698730469,-84.2337646484375,-112.77667999267578,64.07944488525389
1688,114.36052703857422,-51.67793655395508,-98.34440612792969,82.89114379882812
1689,156.2922821044922,-4.323324203491212,-53.0243034362793,128.99288940429688
1690,125.38575744628906,-57.5832405090332,-88.50099182128906,74.2744140625
1691,105.95323944091795,-64.89474487304689,-112.16707611083984,51.43484497070313
1692,121.94879150390624,-51.11695098876953,-96.20892333984376,76.48469543457031
1693,165.843994140625,-10.64749526977539,-40.9818229675293,124.3441925048828
1694,122.5396957397461,-58.83610534667969,-89.98199462890625,66.23736572265625
1695,104.61808776855469,-68.98993682861328,-112.80660247802734,50.32035446166992
1696,116.1781234741211,-51.93973159790039,-93.3067626953125,74.58856201171875
1697,157.0253143310547,3.571604490280152,-48.19609069824219,119.96102905273438
1698,127.94758605957031,-40.17400360107422,-84.03555297851562,77.25511169433594
1699,101.24095916748048,-71.01322174072266,-103.78970336914062,53.8508186340332
1700,106.18136596679688,-60.08149337768555,-96.2575454711914,67.07510375976561
1701,157.4965362548828,7.117029666900635,-39.80375671386719,123.18856811523438
1702,117.14675903320312,-57.41120529174805,-91.37323760986328,63.91489028930664
1703,87.68382263183594,-72.67747497558594,-114.82988739013672,46.61785125732422
1704,118.16400909423828,-46.90956497192383,-94.87004089355469,70.0782470703125
1705,167.04824829101562,17.315736770629886,-43.88024520874024,125.37266540527344
1706,132.28213500976562,-47.69120407104492,-87.32666015625,71.37973022460938
1707,99.70760345458984,-58.7987060546875,-107.3575668334961,52.29875946044922
1708,108.32807159423828,-47.95673751831055,-93.69571685791016,69.44245910644531
1709,156.44187927246094,2.1803617477416988,-41.03418350219727,122.56774139404295
1710,117.81620025634766,-45.60433959960938,-83.75505828857422,68.77301788330078
1711,98.78384399414062,-55.08498764038086,-109.9268798828125,51.67419815063477
1712,112.0417938232422,-55.645973205566406,-96.13787078857422,68.30179595947266
1713,156.9056396484375,6.645802021026611,-43.34170150756836,124.0001220703125
1714,123.71775817871094,-34.69131088256836,-86.9638900756836,76.98957824707031
1715,93.51432800292969,-65.35475158691406,-118.37531280517578,43.521217346191406
1716,109.7529754638672,-53.80594253540039,-96.99430847167969,68.16716003417969
1717,160.2603302001953,-3.1041169166564937,-47.395751953125,124.63590240478516
1718,115.23941040039062,-42.982669830322266,-89.5519027709961,75.12336730957031
1719,99.9993133544922,-80.20589447021484,-116.17999267578124,51.40492630004883
1720,111.07315826416016,-67.77820587158203,-102.53683471679688,75.29914855957031
1721,160.64553833007812,1.6679953336715698,-51.9434700012207,131.06478881835938
1722,124.67517852783205,-61.65972900390625,-103.5877456665039,69.39384460449219
1723,90.51866912841795,-81.36526489257812,-133.47329711914062,36.24337005615234
1724,122.47237396240234,-44.3028564453125,-107.53334045410156,72.5316162109375
1725,160.86618041992188,-1.8325510025024412,-53.7984619140625,126.44976043701172
1726,104.0982437133789,-52.91210556030274,-105.28565979003906,66.95916748046875
1727,102.19463348388672,-81.38770294189453,-121.50560760498048,47.62762451171875
1728,120.7968978881836,-50.40262985229492,-99.96004486083984,81.91128540039062
1729,161.70765686035156,6.144655704498291,-51.95843124389648,126.74520874023438
1730,135.150634765625,-49.95010375976562,-94.58580780029295,72.64381408691406
1731,106.14397430419922,-79.2933578491211,-118.08734130859376,47.29851531982422
1732,109.6781768798828,-54.07895278930664,-102.6191177368164,67.34063720703125
1733,181.7385711669922,24.20089340209961,-43.5922737121582,130.73194885253906
1734,113.5714111328125,-37.55607604980469,-103.04920196533205,61.596153259277344
1735,93.61904907226562,-70.31759643554689,-125.45494079589844,45.45100402832031
1736,109.38646697998048,-58.94082260131836,-106.12714385986328,66.09899139404297
1737,167.21279907226562,6.137176036834718,-45.43604278564453,126.40861511230469
1738,133.03010559082028,-55.58239364624024,-87.21446990966797,76.2827377319336
1739,98.2901840209961,-77.95821380615234,-117.45903778076172,48.139991760253906
1740,121.03250885009766,-51.97713088989258,-99.31304168701172,74.98873138427734
1741,145.9925994873047,15.70009994506836,-53.31227493286133,128.71240234375
1742,120.18729400634766,-52.3735580444336,-90.53923797607422,79.19985961914062
1743,101.42047882080078,-62.19827651977539,-116.16129302978516,58.39105987548828
1744,103.2492904663086,-40.72377014160156,-94.7728042602539,75.98355102539062
1745,158.3754119873047,3.399569034576416,-48.89545059204102,125.38014221191406
1746,121.4364242553711,-57.16437149047852,-95.9134750366211,67.65104675292969
1747,95.27581787109376,-56.60712432861328,-121.57292938232422,47.7959213256836
1748,105.35485076904295,-43.603492736816406,-102.15536499023438,68.27187347412111
1749,153.73045349121094,-2.8984224796295166,-48.23722839355469,123.03897094726562
1750,133.30313110351562,-40.69385147094727,-81.61583709716797,66.55899810791016
1751,94.01547241210938,-82.65178680419922,-117.58245086669922,38.498531341552734
1752,120.24713134765624,-38.67804718017578,-95.49834442138672,63.7278938293457
1753,166.59197998046875,23.699745178222656,-47.38827133178711,119.05597686767578
1754,124.809814453125,-51.490943908691406,-89.9371109008789,63.79521179199219
1755,104.79386901855469,-64.29636383056639,-112.54480743408205,45.27523040771485
1756,107.79700469970705,-29.735944747924805,-99.52247619628906,61.21094131469727
1757,158.04629516601562,15.142854690551758,-42.10005569458008,121.25877380371094
1758,127.43521881103516,-46.43833923339844,-80.93517303466797,68.04000091552734
1759,90.4476089477539,-55.03262710571289,-117.24212646484376,39.94587326049805
1760,107.5539093017578,-30.15481376647949,-94.26043701171876,70.53451538085938
1761,162.2349853515625,-6.615882873535156,-42.27582931518555,128.99662780761722
1762,110.51217651367188,-49.53497314453125,-86.75071716308594,76.59689331054688
1763,103.3764419555664,-72.48300170898438,-110.70478057861328,59.50554656982422
1764,100.42940521240234,-44.343994140625,-96.41088104248048,77.92081451416016
1765,153.1657257080078,7.558337688446045,-46.91330337524414,132.6505126953125
1766,139.27574157714844,-34.00317001342773,-67.09754180908203,85.9990005493164
1767,98.46595764160156,-69.68181610107422,-104.62744140625,50.73548126220703
1768,106.33844757080078,-51.24784851074219,-93.9275894165039,72.64381408691406
1769,168.40956115722656,10.550257682800293,-40.36473846435547,122.76221466064452
1770,131.74732971191406,-51.35256576538086,-78.1115493774414,72.23616790771484
1771,94.33710479736328,-65.20889282226561,-113.0571746826172,31.93874549865723
1772,109.24808502197266,-55.94516372680664,-89.8922348022461,63.967247009277344
1773,153.56964111328125,3.9568140506744394,-40.37596130371094,118.62962341308594
1774,113.57888793945312,-38.43121337890625,-84.19636535644531,61.79436874389648
1775,98.8137664794922,-43.24446487426758,-108.04570770263672,35.86938095092773
1776,93.98555755615234,-24.82171630859375,-102.2974853515625,62.44884872436523
1777,145.0239715576172,-4.199907779693604,-47.74356460571289,122.9005889892578
1778,120.0152587890625,-49.66961288452149,-86.14859771728516,71.80607604980469
1779,103.90377044677734,-66.39818572998047,-113.8836898803711,48.98521041870117
1780,102.41902923583984,-43.77552795410156,-103.99166107177734,73.46285247802734
1781,162.30978393554688,13.489819526672365,-50.54848861694336,124.0188217163086
1782,119.73102569580078,-32.06216049194336,-90.38964080810548,76.63429260253906
1783,100.35086822509766,-77.14291381835938,-115.91819763183594,44.897499084472656
1784,99.57296752929688,-42.63111877441406,-96.20518493652344,73.1935806274414
1785,140.15835571289062,1.1070103645324707,-52.90462493896485,118.7380828857422
1786,125.9579620361328,-42.4366455078125,-89.60426330566406,72.66251373291016
1787,97.38886260986328,-78.98668670654297,-118.82784271240234,44.93115997314453
1788,112.0492706298828,-36.56500244140625,-90.13906860351562,78.4107437133789
1789,155.4657745361328,20.756444931030273,-47.3658332824707,113.55084228515624
1790,130.45706176757812,-39.80001449584961,-74.05375671386719,74.27067565917969
1791,106.73113250732422,-67.15738677978516,-102.67147064208984,46.40093994140625
1792,112.0417938232422,-47.82583999633789,-93.39652252197266,62.92755508422852
1793,150.00177001953125,5.430334568023682,-46.47199630737305,120.12932586669922
1794,120.62112426757812,-33.49080276489258,-81.44754028320312,74.61848449707031
1795,91.17314910888672,-87.9026107788086,-115.2711944580078,46.92078399658203
1796,101.7907257080078,-48.20730972290039,-88.7066879272461,79.37937927246094
1797,159.81527709960938,17.60744857788086,-38.876258850097656,130.52998352050778
1798,115.20574951171876,-54.45294189453125,-84.37588500976562,83.23147583007812
1799,85.6081771850586,-65.81475830078125,-119.51972198486328,49.45643615722656
1800,103.84019470214844,-54.965309143066406,-100.81648254394531,70.29141998291016
1801,159.40762329101562,5.000246047973633,-49.28814315795898,122.85945129394531
1802,142.12554931640625,-53.00186157226562,-79.9740219116211,75.19816589355469
1803,89.24336242675781,-84.52548217773438,-120.41355895996094,39.80375671386719
1804,109.86143493652344,-53.57780838012695,-99.6907730102539,74.55864715576172
1805,159.92373657226562,15.49814510345459,-46.44581604003906,130.39909362792972
1806,126.63114166259766,-23.14250183105469,-84.31604766845703,79.85060119628906
1807,105.38477325439452,-76.05086517333984,-116.00421905517578,49.87530517578125
1808,99.41214752197266,-56.39395141601562,-99.69824981689452,72.58771514892578
1809,155.55552673339844,24.696430206298828,-41.49980163574219,129.75209045410156
1810,119.23735809326172,-44.29350662231445,-77.66837310791016,80.97631072998047
1811,97.5272445678711,-61.62420272827149,-113.26847839355469,44.97229766845703
1812,121.02503204345705,-34.667003631591804,-86.37486267089844,76.33883666992188
1813,152.85531616210938,2.649718999862671,-38.67243576049805,126.79383087158205
1814,125.23616027832031,-34.96619415283203,-76.2696533203125,84.79100799560547
1815,92.53821563720705,-64.33563232421875,-115.7181167602539,48.68975830078125
1816,104.16182708740234,-37.42704772949219,-104.0159683227539,81.5634765625
1817,145.7083740234375,7.032881736755371,-64.01773834228516,126.36000061035156
1818,125.90933990478516,-31.503047943115234,-97.91619110107422,79.43921661376953
1819,102.30309295654295,-63.56147003173828,-124.32736206054688,49.12358474731445
1820,102.5499267578125,-54.42489242553711,-118.1303482055664,72.24364471435547
1821,157.42547607421875,17.096952438354492,-59.140907287597656,131.95115661621094
1822,127.6222152709961,-35.48978042602539,-102.2320327758789,71.69013977050781
1823,108.01766204833984,-73.77887725830078,-126.32073211669922,46.07556915283203
1824,118.56417846679688,-55.08685684204102,-109.91004943847656,74.6334457397461
1825,160.65675354003906,17.20541000366211,-59.81409072875977,127.49693298339844
1826,130.24761962890622,-55.09807586669922,-92.7177276611328,80.86785888671875
1827,88.54774475097656,-76.55762481689453,-132.28213500976562,41.13515853881836
1828,115.72185516357422,-38.30592346191406,-99.46076965332031,82.09080505371094
1829,162.1489715576172,19.65130424499512,-53.63203430175781,131.52853393554688
1830,129.35752868652344,-31.54418563842773,-94.52783966064452,84.62271881103516
1831,100.36956787109376,-73.79383850097656,-124.46199798583984,44.63944625854492
1832,108.75816345214844,-47.165748596191406,-118.65393829345705,68.83660125732422
1833,163.75338745117188,1.0640015602111816,-61.47834396362305,122.1526107788086
1834,124.60785675048828,-24.99188232421875,-87.34723663330078,80.73322296142578
1835,102.75562286376952,-75.80590057373047,-128.00369262695312,49.22830200195313
1836,110.10452270507812,-57.20363998413086,-115.18704986572266,66.21492767333984
1837,151.40797424316406,24.457075119018555,-58.71081924438477,135.03657531738278
1838,124.9369659423828,-53.57219696044922,-91.52096557617188,86.19721221923828
1839,99.4345932006836,-79.78889465332031,-129.01719665527344,51.79761505126953
1840,112.3821258544922,-53.87512969970703,-117.62920379638672,67.75950622558594
1841,149.81478881835938,15.133504867553713,-61.71769714355469,117.44781494140624
1842,135.09454345703122,-41.35020446777344,-92.27642059326172,78.62391662597656
1843,104.66670989990234,-69.4443359375,-130.20274353027344,44.18691635131836
1844,109.58841705322266,-44.05414962768555,-111.41722869873048,71.75746154785156
1845,151.78944396972656,0.3272412419319153,-58.74073791503906,123.75328826904295
1846,128.75914001464844,-34.498706817626946,-97.1906509399414,77.39723205566406
1847,104.72654724121094,-67.98950958251953,-129.61558532714844,47.50794982910156
1848,111.05445861816406,-45.76328659057617,-113.20116424560548,64.75637054443361
1849,151.8081512451172,5.854813575744629,-65.16588592529297,116.16503143310548
1850,127.35294342041016,-34.14715576171875,-98.353759765625,80.32556915283203
1851,98.51083374023438,-70.08385467529297,-133.59857177734378,43.259422302246094
1852,109.95867156982422,-48.64300918579102,-112.01187133789062,65.68012237548828
1853,152.53369140625,8.091273307800293,-66.94982147216797,107.2939910888672
1854,132.42050170898438,-31.96679496765137,-96.2107925415039,76.40989685058594
1855,104.86492156982422,-64.12993621826172,-125.86446380615234,44.998477935791016
1856,100.384521484375,-49.17033386230469,-113.4292984008789,66.13639068603516
1857,143.97305297851562,12.695090293884276,-67.37616729736328,121.3709716796875
1858,131.74359130859378,-26.1923885345459,-87.72122192382812,87.5660171508789
1859,100.78843688964844,-71.60599517822266,-129.18174743652344,46.86094665527344
1860,114.0725555419922,-53.69187545776367,-111.71268463134766,77.87220001220703
1861,157.08514404296875,-0.9966833591461182,-64.37677001953125,121.63650512695312
1862,140.15087890625,-35.51596069335937,-96.992431640625,73.82562255859375
1863,106.46934509277344,-68.55049896240234,-125.07534790039062,43.76430892944336
1864,105.2426528930664,-51.86680221557617,-116.66056823730469,63.08089065551758
1865,153.3340301513672,2.8928127288818364,-66.80022430419922,116.87935638427734
1866,123.35498809814452,-41.79151153564453,-95.10752868652344,79.84312438964844
1867,95.49273681640624,-68.41211700439453,-128.88630676269528,45.129371643066406
1868,112.93189239501952,-17.11191177368164,-104.85370635986328,81.11469268798828
1869,143.86085510253906,1.0041631460189822,-62.88454818725586,118.96995544433594
1870,119.6936264038086,-22.19817543029785,-97.9947280883789,67.98016357421875
1871,99.68890380859376,-55.23645401000977,-126.65357971191406,36.632320404052734
1872,109.59215545654295,-51.41801452636719,-106.828369140625,62.25811386108398
1873,151.95774841308594,-0.6301731467247009,-59.91132736206055,116.071533203125
1874,132.04277038574222,-30.42969512939453,-91.07965087890624,75.54598236083984
1875,116.2790985107422,-68.32984161376953,-118.8932876586914,48.21105194091797
1876,113.61628723144531,-57.91421890258789,-103.12586975097656,67.90162658691406
1877,152.9974365234375,-4.0821008682250985,-64.80685424804689,113.2553939819336
1878,124.18524932861328,-38.657474517822266,-88.3757095336914,79.52896881103516
1879,97.5272445678711,-70.76825714111328,-119.19622039794922,42.799415588378906
1880,112.4494400024414,-44.042930603027344,-99.4345932006836,77.41218566894531
1881,161.50570678710938,12.104186058044435,-56.86705017089844,121.19519805908205
1882,123.93467712402344,-34.135936737060554,-89.51637268066406,79.20734405517578
1883,85.79517364501953,-67.98203277587889,-126.67976379394531,45.21165084838867
1884,112.29236602783205,-43.33609008789063,-108.67962646484376,74.19961547851562
1885,152.34669494628906,1.3519738912582395,-61.5980224609375,117.8741683959961
1886,126.78821563720705,-57.461692810058594,-93.8359603881836,75.15328979492188
1887,105.54558563232422,-84.0224609375,-124.24508666992188,38.44617080688477
1888,112.69627380371094,-53.609596252441406,-109.62955474853516,59.307334899902344
1889,159.2655029296875,4.0746212005615225,-52.09867477416992,116.20243072509766
1890,137.84710693359378,-34.236915588378906,-70.83557891845703,82.73780822753906
1891,98.14432525634766,-79.89361572265625,-117.16919708251952,35.31961441040039
1892,113.73223114013672,-45.29205703735352,-100.2424087524414,59.4905891418457
1893,164.63973999023438,15.743108749389648,-46.94135284423828,123.5176773071289
1894,143.86460876464844,-40.59848403930664,-79.77767944335938,78.69871520996094
1895,110.7777099609375,-81.23249816894531,-121.43267822265624,40.91450500488281
1896,110.73282623291016,-57.09518432617188,-102.94635772705078,65.48938751220703
1897,135.77145385742188,7.631265640258789,-51.10012435913086,120.62299346923828
1898,157.67979431152344,-24.67773056030273,-71.47509765625,80.10118103027344
1899,100.01801300048828,-74.0631103515625,-124.1515884399414,40.26750183105469
1900,111.6004867553711,-62.82096862792969,-103.04733276367188,60.7247543334961
1901,150.21121215820312,6.284902095794678,-52.71202087402344,113.83507537841795
1902,128.35897827148438,-28.91503715515137,-80.9520034790039,76.24907684326172
1903,101.05770874023438,-78.65570831298828,-126.42919158935548,33.15421295166016
1904,115.76673126220705,-66.55339050292969,-109.84647369384766,60.02539443969727
1905,143.93939208984375,-3.4575374126434326,-61.06321716308594,119.75533294677734
1906,152.36538696289062,-36.144264221191406,-80.9108657836914,86.75445556640625
1907,113.93791961669922,-76.69973754882812,-119.2710189819336,45.8511734008789
1908,101.66357421875,-47.86885070800781,-107.27342224121094,64.19164276123047
1909,131.02178955078122,12.414597511291506,-64.59368133544922,113.55084228515624
1910,118.9119873046875,-23.346324920654297,-89.198486328125,72.39324188232422
1911,101.25965881347656,-98.99327850341795,-135.55828857421878,30.81303596496582
1912,129.80632019042972,-56.38086318969727,-109.65947723388672,57.714134216308594
1913,144.97161865234375,5.705217361450195,-58.08999633789063,115.13655853271484
1914,116.68675231933594,-20.50400161743164,-87.4556884765625,75.28792572021484
1915,99.2363739013672,-86.43843841552734,-128.4898681640625,39.51204299926758
1916,132.40180969238278,-60.45361328125,-101.19982147216795,70.29515838623047
1917,155.85098266601562,-2.541261911392212,-60.0721435546875,121.78610229492188
1918,123.65418243408205,-54.16310119628906,-98.42107391357422,70.49711608886719
1919,96.93634033203124,-96.1023406982422,-135.52836608886722,28.74861145019531
1920,94.07157135009766,-39.338138580322266,-108.13359832763672,63.694236755371094
1921,156.4718017578125,4.145678997039795,-64.5675048828125,114.1641845703125
1922,126.21975708007812,-45.44165420532226,-91.62567901611328,74.38661193847656
1923,98.0770034790039,-84.74800109863281,-124.92575073242188,35.18871688842773
1924,101.55885314941406,-60.0609245300293,-112.71871185302734,60.21986770629883
1925,162.5379180908203,4.964717388153076,-64.24587249755861,110.01663970947266
1926,136.00706481933594,-30.07814598083496,-92.91220092773438,69.861328125
1927,103.35774230957031,-99.40840911865234,-123.73645782470705,37.28306198120117
1928,117.50952911376952,-70.54012298583984,-106.43194580078124,57.98714828491211
1929,155.0843048095703,-4.665524959564209,-68.28122711181639,109.69500732421876
1930,127.08367156982422,-54.85124206542969,-92.96082305908205,74.66336059570312
1931,114.36801147460938,-88.8768539428711,-120.96519470214844,31.21320533752441
1932,109.71931457519531,-67.88479614257811,-115.69193267822266,50.61206436157226
1933,140.47999572753906,9.718130111694336,-55.61044311523438,108.18782806396484
1934,127.20708465576172,-46.099876403808594,-85.1855697631836,75.47492218017578
1935,97.43748474121094,-76.47160339355469,-129.03590393066406,31.460039138793945
1936,110.5159149169922,-45.07514572143555,-106.3646240234375,59.4793701171875
1937,136.85977172851562,-21.48011589050293,-63.72228622436523,108.19904327392578
1938,138.67735290527344,-43.18649291992188,-87.7735824584961,81.46623992919922
1939,107.27342224121094,-92.47089385986328,-125.9729232788086,37.67949295043945
1940,118.70255279541016,-52.62974166870117,-108.8329620361328,66.71607208251953
1941,158.61849975585938,-24.449596405029297,-63.76342391967773,109.93810272216795
1942,130.6552734375,-59.57473754882813,-89.12368774414062,73.06268310546875
1943,113.18246459960938,-98.013427734375,-131.66879272460938,27.978191375732425
1944,102.6135025024414,-61.36240768432617,-107.60626983642578,63.89619064331055
1945,145.02023315429688,9.598453521728516,-64.69091796875,117.1374053955078
1946,131.05545043945312,-54.20798110961914,-89.89784240722656,81.38770294189453
1947,96.2107925415039,-99.04937744140624,-125.12022399902344,39.88229370117188
1948,125.16510009765624,-55.07563781738281,-104.25906372070312,66.97786712646484
1949,148.77134704589844,-28.53356742858887,-68.94692230224611,108.71514892578124
1950,120.95397186279295,-37.561683654785156,-93.02439880371094,83.12675476074219
1951,100.13768768310548,-95.57501220703124,-127.27066802978516,44.12707901000977
1952,115.22444915771484,-64.44408416748047,-106.2599105834961,60.2310905456543
1953,150.63381958007812,1.2547364234924316,-59.54107666015625,111.99130249023438
1954,127.94384765625,-45.299537658691406,-88.60758209228516,68.48878479003906
1955,94.09027099609376,-75.88443756103516,-125.89437866210938,33.26266860961914
1956,113.87808227539062,-37.20265579223633,-108.89653778076172,62.65828323364258
1957,154.02964782714844,20.61619758605957,-56.3098030090332,109.72492218017578
1958,129.94468688964844,-63.20243835449219,-85.51842498779297,78.24244689941406
1959,96.99617767333984,-84.95743560791016,-119.30094146728516,31.609634399414066
1960,114.10247802734376,-29.59195899963379,-100.78843688964844,61.15858459472656
1961,148.35995483398438,2.1186532974243164,-56.67631530761719,103.83084106445312
1962,136.01455688476562,-43.10795593261719,-77.93016815185547,71.29371643066406
1963,108.09993743896484,-82.5564193725586,-119.5739517211914,30.95889091491699
1964,93.23009490966795,-36.35369873046875,-101.81690979003906,64.07944488525389
1965,139.728271484375,12.459476470947266,-57.270957946777344,110.7720947265625
1966,127.65587615966795,-19.01926040649414,-78.54351043701172,79.84312438964844
1967,96.19957733154295,-73.28894805908203,-120.3593292236328,37.34289932250977
1968,108.52628326416016,-68.82724761962889,-103.952392578125,66.8095703125
1969,146.36285400390625,17.485902786254886,-55.9395523071289,117.80684661865234
1970,132.79075622558594,-48.47097396850586,-80.20402526855469,79.65986633300781
1971,101.7047119140625,-93.42082977294922,-115.29924774169922,42.1262321472168
1972,97.11959075927734,-72.9785385131836,-113.31710052490234,58.49577331542969
1973,144.31712341308594,-6.988003253936768,-51.97151947021485,116.65869903564452
1974,134.48867797851562,-34.34163284301758,-78.52107238769531,84.01685333251953
1975,95.29826354980469,-65.55484008789061,-118.05181121826172,39.366188049316406
1976,99.84971618652344,-42.39363479614258,-103.9748306274414,61.177284240722656
1977,149.59786987304688,-10.234235763549805,-59.43635940551758,111.0338897705078
1978,131.16389465332028,-43.201454162597656,-82.14129638671875,76.60810852050781
1979,78.66692352294922,-75.4880142211914,-128.00743103027344,27.787456512451172
1980,95.4067153930664,-57.55892944335938,-110.5196533203125,54.40058517456055
1981,147.30157470703125,-7.548987865447997,-61.6503791809082,107.60440063476562
1982,140.48747253417972,-31.17393684387207,-73.29268646240234,82.65178680419922
1983,95.05890655517578,-78.67440795898438,-119.78338623046876,36.06011581420898
1984,87.91195678710938,-54.8437614440918,-117.37863159179688,53.4356918334961
1985,150.914306640625,6.8533668518066415,-55.99191284179688,114.02581024169922
1986,126.10755920410156,-37.370948791503906,-82.8369140625,74.51376342773438
1987,102.85659790039062,-66.216796875,-125.49047088623048,31.99110412597656
1988,107.20236206054688,-66.37013244628906,-105.21647644042969,60.58263778686523
1989,141.86001586914062,-4.149418830871582,-63.81204223632813,110.43924713134766
1990,126.47032928466795,-39.15862274169922,-75.54410552978516,81.68315124511719
1991,101.17738342285156,-68.37846374511719,-116.78398895263672,39.73269653320313
1992,95.45907592773438,-48.56821060180664,-107.63993072509766,52.43339920043945
1993,167.1641845703125,7.91549825668335,-47.9249496459961,111.7108154296875
1994,107.8119659423828,-33.133644104003906,-86.6104736328125,68.48130798339844
1995,84.99109649658203,-49.77619934082031,-115.5984344482422,35.289695739746094
1996,87.86334228515625,-33.81430435180664,-107.6287078857422,59.78977966308594
1997,131.0367431640625,1.3856329917907717,-55.95077514648438,114.5830535888672
1998,124.06182861328124,-4.5944671630859375,-73.4422836303711,86.68714141845703
1999,88.58888244628906,-64.02521514892578,-119.02418518066406,36.16857147216797
2000,101.828125,-55.5880012512207,-102.9126968383789,64.91718292236328
2001,134.36524963378906,7.941677570343018,-64.32814788818361,108.02326965332031
2002,124.34980010986328,-23.608118057250977,-76.59127807617188,79.48035430908203
2003,87.20885467529297,-72.56340789794922,-123.28767395019531,37.09232711791992
2004,103.6943359375,-32.24728775024414,-107.19488525390624,59.542945861816406
2005,140.28178405761722,13.899337768554688,-62.91820526123047,111.27698516845705
2006,124.65647888183594,-5.316267967224121,-79.7664566040039,79.01660919189453
2007,87.7773208618164,-72.24925994873047,-122.9623031616211,28.43819999694824
2008,86.84234619140625,-44.25984573364258,-110.5383529663086,56.868919372558594
2009,138.47166442871094,9.067387580871582,-57.75714492797852,115.77234649658205
2010,123.61865234375,-23.88300132751465,-79.49531555175781,85.98030090332031
2011,87.55479431152344,-70.2427978515625,-121.80854034423828,39.64294052124024
2012,98.61742401123048,-30.21091270446777,-106.6133270263672,62.1309585571289
2013,134.39704895019528,41.03792190551758,-61.15858459472656,109.81842041015624
2014,121.06430053710938,-26.886140823364254,-76.32013702392578,78.8931884765625
2015,91.63502502441406,-61.16232299804688,-121.03438568115234,35.08026123046875
2016,91.02916717529295,-40.33856201171875,-104.38434600830078,55.39165878295898
2017,141.44676208496094,-4.072751045227052,-55.15978622436523,117.2122039794922
2018,133.10304260253906,-18.7443790435791,-70.25028228759766,89.80622100830078
2019,101.02965545654295,-56.8390007019043,-117.16358947753906,39.13431167602539
2020,100.73420715332031,-51.1094741821289,-102.76123046875,55.11116409301758
2021,133.64532470703122,6.170835018157959,-54.71473693847656,105.30062103271484
2022,121.1877212524414,-29.234798431396484,-78.11528778076172,79.15498352050781
2023,100.89875793457031,-59.40457153320313,-117.56749725341795,33.625438690185554
2024,94.94857788085938,-57.85251235961914,-107.96343231201172,52.02948760986328
2025,150.0335693359375,2.9881801605224614,-53.45064926147461,112.33537292480469
2026,135.03657531738278,-23.602508544921875,-75.20565032958984,81.64949798583984
2027,95.5170440673828,-69.38262176513672,-118.0387191772461,37.70567321777344
2028,103.19879913330078,-66.52533721923828,-106.38145446777344,58.776268005371094
2029,146.57789611816406,20.389934539794922,-50.83646011352539,121.3522720336914
2030,138.39874267578122,-49.32928085327149,-77.3074722290039,81.98983001708984
2031,97.8058624267578,-84.50678253173828,-125.1856689453125,24.960092544555664
2032,130.30558776855472,-67.74080657958984,-102.81359100341795,55.28694152832031
2033,134.35964965820312,-15.969372749328613,-63.18186950683594,104.93785095214844
2034,132.96466064453122,-31.97988510131836,-76.30517578125,82.30023956298828
2035,103.44563293457031,-89.5556411743164,-125.06599426269531,23.41551399230957
2036,117.58993530273438,-69.14701080322266,-105.80924987792969,52.25762176513672
2037,147.3894500732422,-18.407787322998047,-54.883033752441406,113.20677185058594
2038,147.09027099609375,-39.65789794921875,-68.40277099609375,88.03724670410156
2039,102.72756958007812,-77.13543701171875,-118.36408996582031,33.932113647460945
2040,116.61007690429688,-78.3696060180664,-103.77100372314452,54.61001968383789
2041,159.93682861328125,-16.055391311645508,-55.22710418701172,112.42513275146484
2042,150.35145568847656,-70.17922210693361,-67.63234710693361,86.5001449584961
2043,124.50501251220705,-105.050048828125,-117.08130645751952,38.12828063964844
2044,118.0387191772461,-67.39299774169922,-105.98128509521484,49.16472625732422
2045,141.74594116210938,-29.0029239654541,-59.63270568847656,101.57568359375
2046,148.0850830078125,-38.33023452758789,-65.34727478027344,85.29963684082031
2047,119.35142517089844,-103.183837890625,-113.49474334716795,32.286556243896484
2048,146.91822814941406,-61.38671875,-99.05873107910156,61.31940078735352
2049,151.49960327148438,-12.274352073669435,-61.60363388061523,109.37711334228516
2050,143.77671813964844,-53.26365661621094,-68.15967559814453,83.72139739990234
2051,125.85511016845705,-93.41896057128906,-108.15790557861328,37.39525985717773
2052,110.23355102539062,-59.1502571105957,-100.36395263671876,58.62293243408203
2053,154.2259979248047,-8.957060813903809,-51.872413635253906,106.11965942382812
2054,149.1509552001953,-41.07532119750977,-61.106224060058594,87.49495697021484
2055,116.47918701171876,-79.5962905883789,-105.56989288330078,34.702529907226555
2056,118.39027404785156,-77.83853912353516,-103.70742797851562,51.30394744873047
2057,136.97756958007812,-15.61408233642578,-59.71872329711914,106.01494598388672
2058,146.6863555908203,-44.27293395996094,-62.99861526489258,84.28612518310547
2059,100.99974060058594,-85.0191421508789,-110.31208801269531,48.27836990356445
2060,116.92049407958984,-50.0959587097168,-92.49894714355469,75.59085845947266
2061,150.91244506835938,-23.7034854888916,-50.14831924438477,129.0826416015625
2062,150.73292541503906,-45.95215225219727,-64.86482238769531,103.4830322265625
2063,103.00432586669922,-81.39892578125,-124.04874420166016,38.52845001220703
2064,116.53902435302734,-56.37525177001953,-100.4350128173828,68.81790161132811
2065,150.84512329101562,-10.198707580566406,-52.100547790527344,125.49234008789062
2066,141.43553161621094,-23.591289520263672,-70.00344848632811,94.16693878173828
2067,95.71151733398438,-82.82382202148438,-120.5033187866211,35.31587600708008
2068,113.28157043457031,-75.42630004882812,-105.81672668457031,59.43449020385742
2069,157.59190368652344,-20.59188842773437,-60.2423095703125,115.2711944580078
2070,143.68321228027344,-24.08869552612305,-79.46913146972656,90.55793762207031
2071,98.09009552001952,-72.01177215576172,-135.29835510253906,33.40478515625
2072,110.90673065185548,-46.52435684204102,-111.50885772705078,61.27078247070313
2073,157.6180877685547,-27.56306266784668,-61.641029357910156,112.9748992919922
2074,144.62567138671875,-46.77492904663086,-82.93601989746094,86.10746002197266
2075,95.76761627197266,-83.78498077392578,-121.85716247558594,34.25748443603516
2076,114.545654296875,-62.15713882446289,-104.21231079101562,66.40566253662111
2077,130.51502990722656,0.17203539609909058,-64.43473815917969,112.45130920410156
2078,148.7694854736328,-33.60300064086914,-69.77157592773439,100.60330963134766
2079,101.43730926513672,-86.32063293457031,-115.83966064453124,53.8208999633789
2080,122.42936706542969,-69.73417663574219,-98.14993286132812,65.69508361816406
2081,147.8232879638672,-26.916059494018555,-65.85215759277344,109.11157989501952
2082,143.39524841308594,-39.56066131591797,-79.6336898803711,80.03759765625
2083,89.31255340576172,-100.64070892333984,-124.0188217163086,33.401046752929695
2084,111.62479400634766,-70.66166687011719,-100.88754272460938,63.122032165527344
2085,157.457275390625,8.369895935058594,-49.38911819458008,121.10543823242188
2086,140.84837341308594,-26.231658935546875,-66.15509033203125,96.47820281982422
2087,98.2845687866211,-84.66385650634766,-121.8721160888672,39.22032928466797
2088,134.40452575683594,-35.6823844909668,-98.58002471923828,64.45717620849611
2089,155.8939971923828,-3.8782763481140137,-54.31830596923828,117.77318572998048
2090,130.31681823730472,-41.15760040283203,-70.11564636230469,94.18937683105469
2091,92.19227600097656,-78.05545043945312,-119.17565155029295,45.86239242553711
2092,118.33043670654295,-87.65951538085938,-106.00746154785156,58.64911270141602
2093,147.15757751464844,-30.10245513916016,-59.733680725097656,111.14234924316406
2094,149.147216796875,-43.40901947021485,-75.4412612915039,82.37503814697266
2095,103.5877456665039,-90.04183197021484,-114.29134368896484,45.63051986694336
2096,101.14559173583984,-71.46575164794922,-110.7496566772461,55.6758918762207
2097,166.36570739746094,-17.409235000610348,-57.51592254638672,115.66388702392578
2098,169.37632751464844,-36.123695373535156,-72.72235107421875,91.92300415039062
2099,82.07584381103516,-66.94420623779297,-133.79866027832028,34.21260452270508
2100,119.47858428955078,-71.21517181396484,-103.9056396484375,64.51701354980469
2101,159.30104064941406,-46.2700424194336,-70.16799926757811,104.29459381103516
2102,119.97972869873048,-40.52555465698242,-79.30831909179688,85.2360610961914
2103,77.09429931640625,-96.92324829101562,-126.99951934814452,32.978439331054695
2104,102.69391632080078,-66.80583190917969,-101.70284271240234,66.91055297851561
2105,162.8838653564453,-24.97505187988281,-63.95602798461914,104.85931396484376
2106,133.35734558105472,-43.31178283691406,-80.3592300415039,80.71077728271484
2107,82.43113708496094,-71.70136260986328,-128.24490356445312,30.596120834350586
2108,122.57896423339844,-34.336021423339844,-98.91661071777344,65.09295654296875
2109,146.8920440673828,16.01051139831543,-58.7276496887207,116.26600646972656
2110,139.52070617675778,-37.791690826416016,-67.08258819580078,98.43790435791016
2111,90.77484893798828,-89.5743408203125,-132.36253356933594,29.18618011474609
2112,102.85099029541016,-81.13339233398438,-109.627685546875,60.98280715942383
2113,152.80108642578125,14.297637939453125,-57.2129898071289,115.1851806640625
2114,134.23997497558594,-53.02056121826172,-77.18779754638672,93.19830322265624
2115,95.48338317871094,-94.29035949707031,-121.07178497314452,42.62738037109375
2116,91.44803619384766,-76.01346588134766,-113.17684936523438,60.70231628417969
2117,129.18736267089844,-23.07518196105957,-65.5828857421875,109.5865478515625
2118,157.30392456054688,-15.6253023147583,-71.44330596923828,98.36310577392578
2119,88.1082992553711,-96.58291625976562,-128.4132080078125,36.011497497558594
2120,110.64494323730469,-71.43209075927734,-109.09288024902344,58.86976623535156
2121,131.26301574707028,-13.085909843444824,-59.01188278198242,114.79997253417969
2122,145.29136657714844,-47.15266036987305,-61.61859130859375,96.98682403564452
2123,86.52632904052734,-104.1674346923828,-125.12957000732422,27.596721649169922
2124,77.21771240234375,-78.20504760742188,-118.63336944580078,45.529541015625
2125,134.67753601074222,-12.416467666625975,-69.42750549316406,110.29338836669922
2126,141.83197021484375,-26.87866020202637,-67.63234710693361,103.47180938720705
2127,100.0311050415039,-74.8391342163086,-128.73857116699222,35.42807388305664
2128,97.97042083740234,-65.12661743164061,-120.09192657470705,47.42941284179688
2129,164.96697998046875,-8.60176944732666,-60.90427017211914,102.0992660522461
2130,119.49728393554688,-22.50297737121582,-79.2970962524414,83.0706558227539
2131,89.62296295166016,-104.61621856689452,-118.56604766845705,38.7341423034668
2132,93.39652252197266,-78.38082122802734,-112.84774017333984,50.89255905151367
2133,123.18482208251952,-16.410680770874027,-66.35704803466797,98.87173461914062
2134,138.78021240234378,-35.33457565307617,-73.78448486328125,86.24957275390625
2135,74.85035705566406,-75.07101440429688,-133.90338134765622,31.546056747436523
2136,98.89043426513672,-64.54319000244139,-115.83218383789062,52.85226440429688
2137,133.51817321777344,-10.711073875427246,-70.55695343017578,105.27444458007812
2138,127.04440307617188,-29.87058067321777,-85.59883117675781,81.90007019042969
2139,81.4587631225586,-117.76197052001952,-133.65280151367188,30.738237380981445
2140,105.82421112060548,-69.96231079101561,-109.31727600097656,59.1091194152832
2141,145.60179138183594,-22.2075252532959,-64.96205902099611,112.43260955810548
2142,147.5839385986328,-38.08340072631836,-75.66939544677734,90.38590240478516
2143,87.91008758544922,-82.2665786743164,-120.33128356933594,40.14408493041992
2144,100.0311050415039,-71.04688262939453,-117.46651458740234,49.25448226928711
2145,123.88418579101562,0.01869950070977211,-66.48793792724611,112.75798034667969
2146,122.68741607666016,-25.5696964263916,-77.52064514160156,87.51740264892578
2147,85.83818054199219,-73.4104995727539,-124.51248931884766,27.87721443176269
2148,102.12171173095705,-60.16003036499024,-115.93315887451172,51.29646682739258
2149,119.13451385498048,14.035844802856445,-73.07764434814453,99.31678009033205
2150,140.96804809570312,-42.82559585571289,-80.2732162475586,90.58411407470705
2151,77.81983947753906,-89.5519027709961,-127.12294006347656,35.256038665771484
2152,115.11038208007812,-59.79726028442383,-112.85147857666016,54.10513305664063
2153,123.80938720703124,-13.242985725402832,-72.7672348022461,105.54745483398438
2154,112.9786376953125,-32.73160552978516,-85.19117736816406,78.89692687988281
2155,79.83938598632812,-99.70199584960938,-128.29727172851562,34.051788330078125
2156,84.58531951904297,-73.68724822998047,-122.18253326416016,49.85286712646485
2157,124.96875762939452,-19.825210571289066,-88.01106262207031,88.69546508789062
2158,130.51129150390622,-30.10993385314941,-86.563720703125,85.75590515136719
2159,103.0005874633789,-78.9754638671875,-134.10159301757812,26.55328941345215
2160,100.70428466796876,-66.08029174804689,-117.81058502197266,54.2509880065918
2161,135.73219299316406,-14.86610221862793,-80.60980224609375,94.52223205566406
2162,128.07661437988278,-16.182546615600586,-88.42245483398438,80.04508209228516
2163,95.24029541015624,-107.07333374023438,-139.77876281738278,29.17121887207031
2164,108.55059814453124,-77.13543701171875,-119.7216796875,51.60688018798828
2165,135.69479370117188,-10.486679077148438,-71.89209747314453,97.39073181152344
2166,136.55870056152344,-11.48149299621582,-79.6748275756836,86.58990478515625
2167,104.70223999023438,-104.9266357421875,-128.24490356445312,30.461484909057614
2168,93.88270568847656,-81.1184310913086,-114.08938598632812,53.85456085205078
2169,127.97563934326172,-9.5629243850708,-72.06787109375,99.54866027832031
2170,130.04005432128906,-34.24252319335937,-72.91683197021484,92.5662612915039
2171,83.3885498046875,-100.37891387939452,-131.64448547363278,32.533390045166016
2172,97.42439270019531,-63.83635330200195,-117.40293884277344,56.06110000610352
2173,137.8265380859375,-0.13089649379253387,-77.0494155883789,95.50582885742188
2174,129.89421081542972,-31.777929306030273,-82.2665786743164,82.2665786743164
2175,90.9394073486328,-102.10301208496094,-137.58343505859378,21.05563735961914
2176,101.31388854980469,-70.46719360351562,-119.21305084228516,45.58563995361328
2177,132.99832153320312,-14.047063827514648,-79.74214935302734,90.46443939208984
2178,132.58319091796878,-18.721939086914066,-84.88076782226562,82.84252166748047
2179,91.76966857910156,-84.84336853027344,-135.75462341308594,25.37522125244141
2180,97.1214599609375,-65.82598114013672,-120.00591278076172,49.471397399902344
2181,140.24624633789062,-7.797691345214844,-75.60581970214844,97.80960083007812
2182,132.90107727050778,-6.425148010253906,-83.63912200927734,78.47431945800781
2183,90.3335418701172,-72.0454330444336,-130.48884582519528,36.531341552734375
2184,92.91407775878906,-73.04024505615234,-121.04560089111328,53.07666015625
2185,141.71229553222656,-3.7997384071350098,-73.43293762207031,106.71056365966795
2186,136.98506164550778,-43.59601211547852,-83.25765228271484,88.17188262939453
2187,92.87667846679688,-91.60884857177734,-129.57257080078122,38.3115348815918
2188,108.43466186523438,-68.14846038818361,-110.2073745727539,58.11430358886719
2189,158.5867156982422,-14.121862411499025,-64.44221496582031,111.28820037841795
2190,150.5833282470703,-28.987964630126953,-71.34980773925781,101.9347152709961
2191,93.08611297607422,-92.92903137207031,-123.45783996582031,41.33711242675781
2192,107.27155303955078,-70.29141998291016,-113.62564086914062,68.26439666748047
2193,137.91629028320312,-17.779483795166016,-70.43353271484375,114.12678527832031
2194,132.58319091796878,-46.2214241027832,-84.07295227050781,90.64395141601562
2195,89.8510971069336,-93.183349609375,-132.15310668945312,31.115966796875
2196,117.28326416015624,-67.65853118896484,-108.37107849121094,66.23362731933594
2197,134.72615051269528,-8.201601028442383,-73.2758560180664,106.39641571044922
2198,130.51876831054688,-26.39995384216309,-85.22857666015625,90.15776824951172
2199,95.53948211669922,-95.12435913085938,-134.15768432617188,33.049495697021484
2200,111.0077133178711,-46.65899276733398,-112.76546478271484,57.07835388183594
2201,136.764404296875,-20.74522590637207,-73.96774291992188,102.7986297607422
2202,146.0804901123047,-7.236706256866455,-69.58084106445311,94.70549011230469
2203,88.76278686523438,-95.32257080078124,-129.87550354003906,29.272197723388672
2204,110.55518341064452,-54.17618942260742,-110.53274536132812,56.58468627929688
2205,143.55606079101562,-3.425748348236084,-67.35933685302734,109.5229721069336
2206,141.27845764160156,-14.002185821533205,-66.14761352539061,97.85074615478516
2207,99.82540893554688,-61.96266174316406,-120.8885269165039,40.72377014160156
2208,122.28724670410156,-38.56958770751953,-103.92060089111328,58.59301376342773
2209,133.68646240234378,-6.660761833190918,-70.80378723144531,104.19734954833984
2210,137.4749755859375,-10.449280738830566,-70.22409820556639,105.12110900878906
2211,97.66561889648438,-77.4365005493164,-126.99765014648438,39.60927963256836
2212,100.6201400756836,-38.78089141845703,-105.75875854492188,63.56333923339844
2213,129.98957824707028,-3.28176212310791,-67.56690216064453,105.71575164794922
2214,135.80511474609378,-21.876544952392575,-68.28122711181639,91.23111724853516
2215,98.57067108154295,-82.96781158447266,-119.0915069580078,37.67949295043945
2216,97.05601501464844,-57.18494033813477,-113.4105987548828,54.27716827392578
2217,137.51799011230472,-6.460677146911621,-70.44662475585938,108.34864044189452
2218,140.08355712890622,-3.3677799701690674,-69.33961486816406,102.3573226928711
2219,82.8369140625,-77.0512924194336,-129.32760620117188,35.671165466308594
2220,99.5841827392578,-31.16645622253418,-104.50589752197266,68.54114532470703
2221,139.04013061523438,-0.4543978571891785,-64.96393585205078,122.02171325683594
2222,131.22373962402344,-9.265602111816406,-64.61985778808594,106.35527801513672
2223,98.43229675292969,-61.98697280883789,-117.65164184570312,44.60952758789063
2224,91.19558715820312,-25.291072845458984,-106.6039810180664,68.75431823730469
2225,131.01431274414062,8.001516342163086,-64.43286895751953,118.4987335205078
2226,140.52861022949222,-14.856752395629885,-68.62155151367189,103.21749877929688
2227,100.88941192626952,-73.19544982910156,-118.0705108642578,44.84513854980469
2228,108.36920928955078,-62.192665100097656,-110.57575225830078,61.33810043334961
2229,133.08621215820312,1.5015698671340942,-68.42707824707031,107.22666931152344
2230,138.55020141601562,2.6945979595184326,-60.83882141113281,103.5877456665039
2231,92.0108871459961,-67.02835845947266,-122.6406707763672,40.398399353027344
2232,108.60108184814452,-23.93722915649414,-106.5441436767578,59.33351135253906
2233,135.03469848632812,-0.8732666373252869,-69.26481628417969,108.35612487792969
2234,129.70533752441406,-6.969303607940674,-64.51140594482422,103.3820571899414
2235,98.52579498291016,-83.78684997558594,-123.07450103759766,49.553672790527344
2236,98.90726470947266,-55.59922409057617,-122.23676300048828,59.93937683105469
2237,129.69412231445312,2.3355674743652344,-80.96696472167969,104.6872787475586
2238,125.62510681152344,-9.74056911468506,-78.92498016357422,91.43307495117188
2239,94.64751434326172,-72.00616455078125,-133.54248046875,41.34833526611328
2240,98.87360382080078,-47.74543380737305,-120.83429718017578,63.466102600097656
2241,143.43824768066406,1.0527818202972412,-75.82086181640625,109.5042724609375
2242,149.33981323242188,-4.014782428741455,-76.81941223144531,102.0356903076172
2243,103.3951416015625,-83.39789581298828,-132.58506774902344,38.61820602416992
2244,104.7602081298828,-43.50812530517578,-121.55236053466795,53.85456085205078
2245,147.17440795898438,-3.913805246353149,-79.23912811279297,101.5382843017578
2246,153.73045349121094,-18.806087493896484,-72.64568328857422,93.23944854736328
2247,92.33625793457031,-81.42323303222656,-130.32991027832028,36.92029190063477
2248,92.47463989257812,-59.4101791381836,-115.74429321289062,53.40951156616211
2249,135.97341918945312,1.3968526124954224,-74.22018432617188,102.7986297607422
2250,140.85023498535156,-16.109619140625,-68.17650604248047,95.56940460205078
2251,95.97518157958984,-63.39317321777344,-125.58396911621094,35.113922119140625
2252,103.44002532958984,-47.46493911743164,-110.30274200439452,57.9647102355957
2253,126.63488006591795,-5.3312273025512695,-73.26651000976562,104.55638122558594
2254,138.56517028808594,-1.2098575830459597,-66.46736907958984,103.97296142578124
2255,89.43035888671875,-64.64604187011719,-123.7252426147461,47.91185760498047
2256,102.96505737304688,-59.3914794921875,-111.99317169189452,70.11564636230469
2257,139.51884460449222,-9.751789093017578,-72.96731567382812,111.67715454101562
2258,146.87896728515625,-20.19733047485352,-71.57981872558594,99.0512466430664
2259,92.7102508544922,-81.31103515625,-129.72030639648438,33.962032318115234
2260,96.68202209472656,-58.23959350585938,-118.95687103271484,55.35799789428711
2261,130.44210815429688,-14.093812942504885,-81.23997497558594,99.02880859375
2262,145.2034912109375,6.520515441894531,-68.79358673095703,105.26322174072266
2263,96.147216796875,-84.62832641601562,-127.9251480102539,45.5183219909668
2264,100.14517211914062,-56.52297973632813,-116.08462524414062,68.5523681640625
2265,144.96038818359375,-5.159192085266113,-63.92050170898438,117.02894592285156
2266,145.60739135742188,-1.8456406593322756,-64.04017639160156,107.7988739013672
2267,89.23588562011719,-85.36134338378906,-123.61304473876952,37.533634185791016
2268,103.86263275146484,-57.56641006469727,-111.15169525146484,61.21468353271485
2269,137.9443359375,-11.33376693725586,-66.74038696289061,104.38434600830078
2270,151.4752960205078,-15.451396942138672,-60.33393478393555,99.55613708496094
2271,101.4503936767578,-73.18048858642578,-117.67034149169922,33.34868621826172
2272,115.5423355102539,-45.42669296264648,-102.31431579589844,63.697975158691406
2273,145.40170288085938,3.4837167263031006,-64.86295318603516,106.92373657226562
2274,154.79632568359375,-14.149911880493164,-57.58510971069336,104.67980194091795
2275,106.51795959472656,-65.79045104980469,-111.11429595947266,43.9625244140625
2276,113.32831573486328,-54.27155685424805,-103.33904266357422,68.62716674804689
2277,149.5268096923828,-11.14303207397461,-62.36470031738281,111.65471649169922
2278,144.71730041503906,-6.741169452667236,-65.61093139648439,98.15367126464844
2279,90.98615264892578,-59.42514038085938,-124.9145278930664,34.4669189453125
2280,106.25616455078124,-58.35926818847656,-108.3093719482422,60.14507293701172
2281,155.30870056152344,-3.334120750427246,-63.21365737915039,112.9375
2282,156.68124389648438,0.948064625263214,-62.682594299316406,114.63167572021484
2283,98.6753921508789,-87.17893981933594,-115.66949462890624,47.54908752441406
2284,108.50010681152344,-62.33478164672852,-103.0548095703125,72.44186401367188
2285,145.56625366210938,4.609426498413086,-61.74387741088867,110.86933135986328
2286,160.0284423828125,6.804748058319093,-49.58546447753906,108.2214813232422
2287,107.68855285644531,-60.05718231201172,-110.48225402832031,43.92512512207031
2288,110.68795013427734,-40.22449493408203,-96.36038970947266,60.73223495483398
2289,147.13327026367188,0.8283878564834595,-54.63806915283203,111.37796020507812
2290,152.20083618164062,-0.17390534281730652,-52.51754379272461,105.22582244873048
2291,106.59649658203124,-67.24153137207031,-112.3260269165039,37.5485954284668
2292,110.56827545166016,-31.394590377807614,-97.84513092041016,56.23313522338867
2293,149.81478881835938,-10.776521682739258,-56.42573928833008,106.1907196044922
2294,153.64817810058594,-20.32822608947754,-52.98503112792969,104.66110229492188
2295,112.73741149902344,-61.56062316894531,-108.3729476928711,42.75453567504883
2296,105.6652603149414,-45.52019119262695,-100.82209014892578,63.67179489135742
2297,144.45550537109375,-3.0648479461669917,-56.67257308959961,115.51802825927734
2298,149.55673217773438,1.5240092277526855,-55.9283332824707,107.96717071533205
2299,101.4429168701172,-66.54590606689453,-115.76673126220705,37.1147689819336
2300,122.25920104980469,-39.87294387817383,-92.17918395996094,60.3245849609375
2301,152.7019805908203,-9.519915580749512,-56.508018493652344,103.61766815185548
2302,162.5715789794922,-3.8539669513702393,-45.46409225463867,106.58341217041016
2303,100.56777954101562,-54.72408676147461,-113.35076141357422,40.1179084777832
2304,111.55186462402344,-25.53416633605957,-97.36642456054688,62.11599731445313
2305,144.45924377441406,14.845532417297365,-59.50367736816406,101.96836853027344
2306,164.39291381835938,5.708957195281982,-48.65422821044922,106.56845092773438
2307,116.0584487915039,-62.82096862792969,-107.55765533447266,42.80315399169922
2308,112.05675506591795,-45.56507110595703,-102.03755950927734,54.2098503112793
2309,149.13412475585938,10.402531623840332,-53.32536315917969,108.96198272705078
2310,159.82275390625,22.295413970947266,-46.32427215576172,114.79248809814452
2311,100.7024154663086,-70.02401733398439,-117.8872528076172,37.51119613647461
2312,114.1511001586914,-49.36481094360352,-101.96276092529295,61.12866592407226
2313,144.29469299316406,-9.183324813842773,-62.110389709472656,110.6112823486328
2314,163.46542358398438,17.160530090332028,-49.40594863891602,117.30570220947266
2315,108.1709976196289,-60.11702346801758,-108.06253814697266,53.24495697021485
2316,99.44954681396484,-43.40340805053711,-109.77167510986328,68.32049560546875
2317,133.17222595214844,-1.060261607170105,-71.21704864501953,108.64035034179688
2318,154.20916748046875,-7.511589050292969,-56.30606460571289,116.1126708984375
2319,100.55655670166016,-81.09037780761719,-116.82886505126952,48.88797378540039
2320,111.55560302734376,-44.77221298217773,-112.34098815917969,59.43449020385742
2321,149.92698669433594,-7.485409736633301,-61.429725646972656,109.2424774169922
2322,153.6219940185547,-21.270681381225586,-59.15212631225586,104.1823959350586
2323,108.77311706542969,-79.97962951660156,-114.72704315185548,45.60060119628906
2324,113.9977569580078,-60.894920349121094,-106.09909057617188,60.81077194213867
2325,144.75843811035156,-8.06883430480957,-63.00422286987305,111.90902709960938
2326,150.17007446289062,-17.119392395019528,-53.759193420410156,111.48268127441406
2327,102.70700073242188,-85.32769012451172,-113.5714111328125,47.39201354980469
2328,112.65887451171876,-50.15392684936523,-97.2093505859375,60.84443283081055
2329,139.75819396972656,-19.15763664245605,-65.77548980712889,99.70947265625
2330,159.41136169433594,-22.44126892089844,-53.77789306640625,103.34091186523438
2331,100.45558166503906,-62.67885208129883,-106.7872314453125,43.86902618408203
2332,105.5231475830078,-29.606918334960934,-96.65584564208984,70.05206298828125
2333,141.0372314453125,-12.422078132629395,-65.89516448974611,110.81697845458984
2334,152.35791015625,-16.55466651916504,-52.36046981811523,114.77752685546876
2335,96.98121643066406,-84.69938659667969,-114.2520751953125,50.95239639282226
2336,113.51905059814452,-56.78850936889648,-102.50130462646484,64.64043426513672
2337,141.1756134033203,0.18886494636535645,-67.62673950195311,104.20109558105469
2338,163.27842712402344,-4.085840702056885,-55.36360931396485,105.07623291015624
2339,112.59903717041016,-66.44866943359375,-112.03057098388672,45.8997917175293
2340,103.36148834228516,-45.13498306274414,-109.97362518310548,54.351966857910156
2341,133.00019836425778,6.486856460571289,-75.1065444946289,96.14908599853516
2342,151.15367126464844,-12.373458862304688,-58.37048721313477,111.96512603759766
2343,100.00679779052734,-69.50417327880861,-120.08631896972656,36.55004119873047
2344,108.2532730102539,-44.36830139160156,-101.5064926147461,67.71463012695311
2345,135.33015441894528,-7.369472980499268,-77.9787826538086,98.77449798583984
2346,156.6101837158203,-3.973643779754639,-59.30172348022461,104.86305236816406
2347,110.40745544433594,-76.39306640625,-117.6628646850586,36.84549331665039
2348,122.09090423583984,-42.65168762207031,-102.78179931640624,53.19633865356445
2349,141.78147888183594,-4.471050262451172,-62.46194076538086,100.78656768798828
2350,151.87173461914062,-0.11780685186386107,-51.07020568847656,101.86365509033205
2351,98.66416931152344,-73.17675018310547,-117.19537353515624,28.471858978271484
2352,107.3257827758789,-24.29999923706055,-100.55655670166016,54.19488906860352
2353,145.74951171875,-11.782554626464846,-64.62734222412111,101.66918182373048
2354,171.8091278076172,-19.299753189086914,-56.63517379760742,108.68523406982422
2355,102.89773559570312,-94.33336639404295,-125.42315673828124,40.35351943969727
2356,97.48609924316406,-64.20847320556639,-116.37259674072266,54.811973571777344
2357,131.68748474121094,-13.188756942749025,-75.76102447509766,102.8061065673828
2358,153.10963439941406,-2.9339516162872314,-58.69585800170898,111.49763488769531
2359,94.1388931274414,-91.6331558227539,-124.6714324951172,39.867332458496094
2360,103.85889434814452,-48.26527786254883,-109.99232482910156,59.03432083129883
2361,140.3677978515625,-23.55201911926269,-78.05358123779297,95.1318359375
2362,157.29458618164062,-13.91803741455078,-65.31174468994139,100.94364166259766
2363,106.73861694335938,-62.04307174682617,-117.23277282714844,35.93669891357422
2364,106.7872314453125,-52.42778778076172,-109.82403564453124,50.71678161621094
2365,131.97172546386722,-6.954343795776367,-74.9719009399414,99.15596771240234
2366,148.11312866210938,0.17016544938087466,-56.09663009643555,101.317626953125
2367,106.15518951416016,-63.01918411254883,-117.01212310791016,39.930912017822266
2368,109.52857971191406,-71.8154296875,-100.44062042236328,52.25014114379883
2369,134.24183654785156,-2.3729665279388428,-66.815185546875,97.70488739013672
2370,150.36080932617188,-8.296968460083008,-52.47640609741211,103.51295471191406
2371,100.18630981445312,-88.5589599609375,-115.138427734375,25.71181297302246
2372,107.97652435302734,-68.8048095703125,-107.004150390625,45.79133605957031
2373,130.18031311035156,-22.84143829345703,-74.60539245605469,91.18250274658205
2374,155.15536499023438,-9.568533897399902,-54.28277969360352,104.91915130615234
2375,100.91184997558594,-79.94971466064453,-115.98738861083984,45.65295791625977
2376,107.4865951538086,-61.86355590820313,-103.3951416015625,65.96061706542969
2377,141.1756134033203,-13.704863548278807,-63.28097534179688,108.8198699951172
2378,148.48338317871094,-11.431004524230955,-58.4864273071289,108.3823013305664
2379,88.82075500488281,-84.99109649658203,-127.43521881103516,33.995689392089844
2380,103.72051239013672,-53.88634872436523,-110.91234588623048,59.10537719726562
2381,134.2119140625,-17.553220748901367,-67.17420959472656,105.47265625
2382,152.94882202148438,-6.872066020965576,-50.73735427856445,114.02954864501952
2383,93.18521881103516,-85.03597259521484,-118.09294891357422,34.616512298583984
2384,108.77311706542969,-68.81603240966797,-108.14481353759766,52.97942352294922
2385,133.72573852539062,-13.061600685119627,-72.01364135742188,91.83324432373048
2386,150.9554443359375,2.1261332035064697,-50.15392684936523,103.91311645507812
2387,92.32878112792969,-71.6172103881836,-111.87723541259766,35.46547317504883
2388,104.95468139648438,-65.36035919189453,-101.89918518066406,50.01742172241211
2389,133.52377319335938,-6.6626319885253915,-57.611289978027344,97.40943145751952
2390,156.5615692138672,-2.2046709060668945,-48.45227432250977,102.89586639404295
2391,98.4584732055664,-76.4940414428711,-113.18994140625,39.54944229125977
2392,112.76359558105469,-55.96199417114258,-95.80314636230469,61.54379272460938
2393,134.75794982910156,1.41181218624115,-64.48148345947266,95.76761627197266
2394,153.2554931640625,3.640792608261109,-49.8135986328125,105.44647979736328
2395,101.77576446533205,-81.23249816894531,-110.33265686035156,42.28704833984375
2396,109.64825439453124,-54.75774383544922,-104.3338623046875,56.54354858398438
2397,141.48976135253906,-15.77676773071289,-65.05742645263672,100.70802307128906
2398,151.12374877929688,10.230496406555176,-54.69416809082031,110.76087951660156
2399,100.95672607421876,-69.17880249023439,-116.11080169677734,35.775882720947266
2400,110.02972412109376,-46.95257568359375,-105.61664581298828,60.48166275024414
2401,131.51919555664062,9.310481071472168,-73.40862274169922,96.73625183105469
2402,152.7393798828125,-1.5127894878387451,-49.03569793701172,112.50740814208984
2403,96.5286865234375,-69.46677398681639,-111.67902374267578,46.61785125732422
2404,108.48140716552734,-38.227386474609375,-102.6509017944336,61.708351135253906
2405,137.80970764160156,-13.977875709533693,-63.61756896972656,101.81503295898438
2406,146.16464233398438,-4.0185227394103995,-48.10446166992188,98.29953002929688
2407,107.14252471923828,-75.7348403930664,-107.73342895507812,36.55004119873047
2408,105.6802215576172,-38.051612854003906,-102.41155242919922,51.00475692749024
2409,135.15437316894528,8.71209716796875,-66.57209014892578,95.58061981201172
2410,157.20855712890625,-5.076914310455322,-46.0811767578125,100.90250396728516
2411,101.3232421875,-77.57113647460938,-106.79471588134766,30.16603279113769
2412,111.05445861816406,-53.37398147583008,-100.00679779052734,56.68940353393555
2413,136.12300109863278,-10.36887264251709,-68.845947265625,95.07947540283205
2414,160.6642303466797,3.225663661956787,-46.8441162109375,113.22547149658205
2415,102.11235809326172,-55.08311462402344,-110.9833984375,43.323001861572266
2416,108.90775299072266,-66.49355316162111,-115.9387664794922,54.92042922973633
2417,141.35513305664062,7.7247633934021,-73.50586700439453,103.16887664794922
2418,150.43186950683594,9.950003623962402,-64.75075531005861,106.5572280883789
2419,92.64667510986328,-74.1640853881836,-122.01236724853516,42.649818420410156
2420,104.8424835205078,-41.73541259765625,-113.26847839355469,59.36343383789063
2421,135.19924926757812,8.457783699035645,-74.72132873535156,104.08141326904295
2422,146.53863525390625,3.681931495666504,-57.15127944946289,108.72637176513672
2423,98.89978790283205,-74.59417724609375,-116.03600311279295,42.31322860717773
2424,110.07086181640624,-43.25755310058594,-106.85829162597656,59.80099868774414
2425,132.57383728027344,-2.0737745761871342,-74.07807159423828,96.46324157714844
2426,155.67520141601562,2.731997013092041,-54.45481491088867,108.66653442382812
2427,86.30754089355469,-79.8449935913086,-120.14241790771484,33.18787384033203
2428,103.19692993164062,-42.77510452270508,-105.8784408569336,53.49552917480469
2429,133.32929992675778,-13.188756942749025,-75.36085510253906,89.54442596435547
2430,151.40797424316406,-2.193451404571533,-50.80093002319336,110.21858978271484
2431,101.7047119140625,-58.81553649902344,-113.57888793945312,36.30694961547852
2432,103.4736785888672,-49.8360366821289,-105.8410415649414,50.78410339355469
2433,140.33787536621094,10.525948524475098,-68.99180603027344,104.05523681640624
2434,157.6199493408203,20.444162368774414,-53.05609130859375,105.8765640258789
2435,100.55655670166016,-81.65510559082031,-123.8112564086914,41.34833526611328
2436,109.63330078125,-51.96403884887695,-104.44979858398438,61.95518112182617
2437,127.77181243896484,-12.137845039367676,-77.67211151123047,96.86341094970705
2438,147.8662872314453,1.0004231929779053,-62.420799255371094,111.05632781982422
2439,101.6448745727539,-63.98781967163086,-107.931640625,52.72137069702149
2440,101.57381439208984,-48.58317184448242,-107.0639877319336,62.04494094848633
2441,136.90090942382812,9.074867248535156,-63.07902145385742,102.43585968017578
2442,147.96353149414062,-0.8283878564834595,-56.77729034423828,109.25743865966795
2443,100.56777954101562,-64.66474151611328,-118.27246856689452,48.22600936889648
2444,118.51930236816406,-45.36685562133789,-101.73836517333984,59.17643737792969
2445,138.52777099609378,-1.703524470329285,-71.0300521850586,99.46637725830078
2446,145.44284057617188,10.301554679870604,-56.70623397827149,107.03219604492188
2447,97.98725128173828,-55.8946762084961,-112.68505859375,42.646080017089844
2448,113.61628723144531,-47.11713027954102,-103.51107788085938,50.83646011352539
2449,140.068603515625,-10.024802207946776,-69.52287292480469,96.66145324707031
2450,154.72900390625,8.936491012573242,-50.49425888061523,102.55179595947266
2451,107.8867645263672,-57.76836395263672,-117.35619354248048,38.18811798095703
2452,109.6781768798828,-45.80068588256836,-106.99292755126952,55.724510192871094
2453,127.36416625976562,-4.751543045043945,-77.5561752319336,90.78981018066406
2454,156.81961059570312,1.2547364234924316,-52.99251174926758,106.00746154785156
2455,95.04768371582031,-69.27230072021484,-117.12057495117188,39.96083068847656
2456,103.08099365234376,-59.23066711425781,-112.65139770507812,46.56923294067383
2457,131.04048156738278,-16.15823745727539,-74.17530822753906,91.57518768310548
2458,152.97125244140625,5.020815849304199,-54.87368392944336,108.28506469726562
2459,108.93767547607422,-74.3847427368164,-115.42639923095705,38.928619384765625
2460,107.24723815917969,-54.84002304077149,-108.94141387939452,57.07835388183594
2461,126.7396011352539,-13.775921821594238,-82.28714752197266,90.47940063476562
2462,159.31039428710938,0.8508272171020508,-60.363853454589844,108.64783477783205
2463,100.6650161743164,-80.2676010131836,-120.32941436767578,41.31841659545898
2464,111.79122161865234,-44.81335067749024,-96.20331573486328,61.31192016601562
2465,126.73211669921876,8.124932289123535,-66.60948944091797,96.65397644042969
2466,150.06161499023438,7.548987865447997,-45.01904678344727,109.85955810546876
2467,102.25447082519531,-64.66100311279297,-105.67648315429688,42.59746170043945
2468,104.69288635253906,-43.37722778320313,-90.23443603515624,61.29322052001953
2469,142.6940155029297,-8.869173049926758,-60.31523513793945,104.2497100830078
2470,170.48521423339844,14.314467430114744,-35.80767059326172,118.6819839477539
2471,98.32383728027344,-61.55314254760742,-102.07869720458984,44.10464096069336
2472,107.55765533447266,-52.80925750732422,-100.44436645507812,48.28210830688477
2473,130.3560791015625,-9.172104835510254,-67.99324798583984,94.09588623046876
2474,150.34959411621094,6.299861431121826,-49.69392013549805,110.65242004394531
2475,104.4123992919922,-67.89227294921875,-108.76937866210938,48.944068908691406
2476,108.7170181274414,-49.55180358886719,-104.8424835205078,64.13554382324219
2477,135.37503051757812,-11.244009017944336,-72.82520294189453,105.6671371459961
2478,147.0210723876953,-13.158838272094727,-52.8952751159668,118.82410430908205
2479,99.66646575927734,-82.5975570678711,-110.91234588623048,51.9210319519043
2480,96.827880859375,-58.06381607055664,-112.086669921875,61.78314590454102
2481,128.42630004882812,-10.271635055541992,-72.92991638183594,107.53334045410156
2482,148.4983367919922,8.536321640014647,-51.51525115966797,120.03582763671876
2483,92.17170715332031,-88.70108032226562,-121.39154052734376,40.83970642089844
2484,103.00245666503906,-71.8154296875,-110.0970458984375,57.28778839111328
2485,125.12396240234376,-15.683270454406738,-78.5809097290039,92.13243865966795
2486,155.14039611816406,-1.4641708135604858,-54.61936950683594,102.25260162353516
2487,105.6203842163086,-74.19026184082031,-120.80812072753906,34.36594009399414
2488,115.36282348632812,-53.93122863769531,-102.0263442993164,52.33990097045898
2489,145.18104553222656,-12.006948471069336,-71.1160659790039,95.48338317871094
2490,152.38409423828125,10.514728546142578,-54.23415756225586,106.40763092041016
2491,112.3858642578125,-57.22607803344727,-111.48455047607422,41.10523986816406
2492,105.43712615966795,-64.55254364013672,-105.82608032226562,57.91983032226562
2493,132.77580261230472,-3.4762370586395264,-68.03813171386719,99.92638397216795
2494,160.4061737060547,4.5645480155944815,-48.32137680053711,120.47339630126952
2495,98.7763671875,-81.68128204345703,-113.29840087890624,48.08389282226562
2496,100.29476928710938,-62.11786651611328,-108.45149230957031,64.25521850585939
2497,119.82452392578124,-22.80030059814453,-84.61710357666016,100.4275360107422
2498,150.98910522460938,-0.469357430934906,-57.58510971069336,117.90408325195312
2499,100.3209457397461,-68.98806762695311,-117.52074432373048,51.06459426879883
2500,99.04190063476562,-63.66618728637695,-117.73391723632812,62.34039306640625
2501,132.34945678710938,-19.969196319580078,-78.62578582763672,104.47784423828124
2502,153.68931579589844,20.201068878173828,-52.21461486816406,118.89515686035156
2503,104.24410247802734,-73.2403335571289,-115.9238052368164,43.25568389892578
2504,103.72051239013672,-55.73759841918945,-111.2863311767578,59.11285781860352
2505,140.64454650878906,-13.484209060668945,-74.19026184082031,94.96727752685548
2506,171.37904357910156,14.647317886352539,-46.26069259643555,108.14669036865234
2507,94.9205322265625,-78.5584716796875,-116.81390380859376,29.93415832519531
2508,101.8879623413086,-41.634437561035156,-100.20500946044922,49.19838333129883
2509,131.83334350585938,-15.731888771057127,-73.7863540649414,88.0671615600586
2510,155.0693359375,4.830080986022949,-46.79549789428711,109.53044891357422
2511,103.16326904296876,-68.59163665771484,-108.76190185546876,36.0451545715332
2512,107.4903335571289,-52.94015502929688,-105.20899200439452,54.26594924926758
2513,139.047607421875,0.13276645541191098,-61.71769714355469,104.4853286743164
2514,153.70802307128906,11.70401668548584,-52.77933883666992,118.43515014648438
2515,103.3166046142578,-60.8350830078125,-113.5115737915039,52.29875946044922
2516,93.5554656982422,-45.58377075195313,-119.48419189453124,61.41289901733398
2517,126.99391174316406,-14.127471923828125,-78.25927734375,105.25948333740234
2518,153.22183227539062,-1.2322970628738403,-53.40390014648438,124.01508331298828
2519,85.63809967041016,-87.64642333984375,-117.89847564697266,45.507102966308594
2520,91.569580078125,-63.96537780761719,-112.88327026367188,59.34099197387695
2521,129.69038391113278,-12.059307098388672,-72.66812896728516,109.40703582763672
2522,151.0078125,-0.6077337265014648,-54.62310791015625,118.90264129638672
2523,103.19692993164062,-72.82520294189453,-122.84636688232422,46.67769241333008
2524,111.79122161865234,-53.03364944458008,-108.87409973144531,62.81536102294922
2525,139.6871337890625,-25.074159622192386,-75.83208465576172,94.20433807373048
2526,159.85641479492188,-1.2285571098327637,-53.31414413452149,109.61272430419922
2527,114.14361572265624,-58.44154739379883,-106.35340118408205,49.2507438659668
2528,104.55451202392578,-61.08939743041992,-108.32807159423828,42.63859939575195
2529,140.49494934082028,-0.028049249202013016,-72.38389587402344,95.74517822265624
2530,158.74192810058594,15.806687355041506,-48.59439086914063,115.96308135986328
2531,107.11634826660156,-53.01869201660156,-109.37150573730469,43.36040115356445
2532,110.80388641357422,-54.32017517089844,-107.58009338378906,54.86433410644531
2533,136.67277526855472,-6.535475254058838,-69.17880249023439,100.7753448486328
2534,162.46685791015625,21.547433853149414,-45.50897216796875,126.27772521972656
2535,106.05421447753906,-67.84739685058594,-113.70604705810548,53.30105590820313
2536,105.58672332763672,-32.56143951416016,-108.44026947021484,72.23616790771484
2537,125.81584167480469,-18.17030334472656,-81.88323974609375,92.73455810546876
2538,143.98802185058594,0.6974913477897644,-54.39497375488281,108.15042877197266
2539,99.65150451660156,-67.93714904785156,-122.15447998046876,36.47898483276367
2540,108.77686309814452,-61.02207946777344,-115.58348083496094,43.49877548217773
2541,133.40036010742188,-22.57216644287109,-81.21753692626953,90.84217071533205
2542,148.63671875,1.3519738912582395,-59.28302383422852,109.29483795166016
2543,104.67044830322266,-68.21764373779297,-116.323974609375,43.74187088012695
2544,104.30393981933594,-57.78706359863281,-115.63957977294922,56.99607467651367
2545,136.60919189453122,-5.690257549285889,-81.19136047363281,85.68110656738281
2546,161.42343139648438,-3.192004680633545,-51.57135009765625,109.78475952148438
2547,109.24060821533205,-73.82001495361328,-112.95806884765624,38.19186019897461
2548,122.0048828125,-53.10470962524414,-106.39080047607422,47.41071319580078
2549,131.83708190917972,-27.086225509643555,-82.59008026123047,80.19093322753906
2550,158.6746063232422,-4.923578262329102,-49.073097229003906,100.63697052001952
2551,105.89714050292969,-67.54072570800781,-107.98773956298828,37.01005172729492
2552,112.59529876708984,-48.99081802368164,-91.9286117553711,55.3131217956543
2553,138.18370056152344,-22.437530517578125,-63.8980598449707,98.17985534667969
2554,163.62623596191406,9.729350090026855,-34.73432159423828,128.6600341796875
2555,100.14517211914062,-64.01025390625,-103.02489471435548,51.51338195800781
2556,106.92186737060548,-50.57279586791992,-96.68950653076172,67.748291015625
2557,127.55490112304688,-4.422431468963623,-64.96018981933594,102.48822021484376
2558,152.9936981201172,13.68242359161377,-44.71611404418945,109.2686538696289
2559,100.9455108642578,-54.63806915283203,-105.42964935302734,48.46536254882813
2560,113.40685272216795,-65.15840911865234,-100.85575103759766,59.37091064453125
2561,130.90959167480472,-20.38432502746582,-74.04814910888672,94.4287338256836
2562,160.94097900390625,1.4791303873062134,-42.82746505737305,121.89456176757812
2563,117.94709777832031,-67.90349578857422,-105.67648315429688,51.48720169067383
2564,101.13998413085938,-67.14429473876953,-103.5709228515625,62.50494766235352
2565,126.7171630859375,-18.14786529541016,-69.85198211669922,107.58943939208984
2566,151.53887939453125,-0.5927741527557373,-45.3182373046875,123.2334442138672
2567,103.75043487548828,-80.02825164794922,-117.12805938720705,42.90413284301758
2568,109.56971740722656,-41.66435623168945,-105.17160034179688,56.66696548461914
2569,124.0693130493164,-30.29505920410156,-76.83063507080078,91.7995834350586
2570,161.30001831054688,5.970750331878662,-42.41607666015625,117.39171600341795
2571,104.21044158935548,-67.87357330322266,-113.92296600341795,43.80170822143555
2572,104.12068176269531,-40.841575622558594,-111.83983612060548,52.88592529296875
2573,122.39009857177734,-24.573013305664066,-78.73050689697266,99.11109161376952
2574,148.1355743408203,0.6787918210029602,-49.03569793701172,125.79527282714844
2575,96.8054428100586,-65.38279724121094,-111.86975860595705,53.86577987670898
2576,106.69747924804688,-44.723594665527344,-105.53062438964844,61.85420608520508
2577,129.3350830078125,-22.26549530029297,-76.90917205810547,99.72443389892578
2578,157.30580139160156,-1.5165294408798218,-49.81733703613281,121.87960052490234
2579,105.33241271972656,-85.25662994384766,-111.9669952392578,48.45788192749024
2580,93.85466003417969,-63.254798889160156,-115.0374526977539,56.0760612487793
2581,123.64295959472656,-14.684717178344727,-72.88504028320312,100.27420043945312
2582,156.61766052246094,5.596760272979736,-46.22329330444336,128.90313720703122
2583,94.24735260009766,-72.90373992919922,-117.37489318847656,52.94202423095703
2584,103.11465454101562,-55.935813903808594,-119.3121566772461,58.204063415527344
2585,125.6961669921875,-11.064494132995604,-80.40223693847656,94.99720001220705
2586,157.30580139160156,14.628618240356445,-53.29544448852539,115.226318359375
2587,109.28174591064452,-77.5374755859375,-111.63414001464844,44.51976776123047
2588,108.694580078125,-59.06610870361328,-106.74609375,48.51398086547852
2589,125.54283142089844,-9.950003623962402,-67.09567260742189,92.95895385742188
2590,159.81527709960938,-0.267402857542038,-43.02568054199219,127.0331802368164
2591,103.50360107421876,-75.9106216430664,-107.07894897460938,47.227455139160156
2592,109.32662200927734,-43.567962646484375,-95.61988830566406,68.02130126953125
2593,123.88231658935548,-9.875205993652344,-78.5397720336914,96.9382095336914
2594,155.95570373535156,10.50350856781006,-41.89249038696289,129.78948974609378
2595,100.92681121826172,-73.71530151367188,-99.67768096923828,58.8286247253418
2596,108.40287017822266,-55.6067008972168,-95.09256744384766,73.94530487060547
2597,140.53982543945312,-8.655998229980469,-65.76052856445311,106.74796295166016
2598,153.02362060546875,-6.25872278213501,-49.22643280029297,120.98202514648438
2599,98.50335693359376,-65.47255706787111,-112.61026000976562,48.9515495300293
2600,106.05795288085938,-49.73880004882813,-106.16266632080078,55.305641174316406
2601,131.26113891601562,-21.345478057861328,-76.74835968017578,94.1482391357422
2602,158.8802947998047,-0.08788765221834183,-40.53490447998047,128.12149047851562
2603,102.30309295654295,-77.68333435058594,-115.64331817626952,50.32783508300781
2604,111.47706604003906,-58.89407348632813,-109.58467864990234,59.41952896118164
2605,130.96942138671878,-20.806934356689453,-79.99459075927734,94.58580780029295
2606,159.4786834716797,16.285394668579098,-51.11508178710938,118.14344024658205
2607,111.23771667480469,-69.691162109375,-111.89967346191406,47.82958221435547
2608,108.56368255615234,-71.72193145751953,-111.16291809082031,44.97977828979492
2609,129.20045471191406,-22.81151962280273,-80.57801818847656,85.58386993408203
2610,161.7338409423828,16.34897232055664,-46.24199295043945,116.63626098632812
2611,102.74813842773438,-63.905540466308594,-114.79061889648438,44.16073989868164
2612,109.63330078125,-37.48688888549805,-113.62003326416016,56.83525848388672
2613,134.09971618652344,-27.93705177307129,-81.80657196044922,97.68244934082031
2614,148.95460510253906,-18.778038024902344,-58.39105987548828,117.17854309082031
2615,94.5166244506836,-93.08985137939452,-117.88538360595705,41.51662826538086
2616,104.1393814086914,-55.93768310546875,-106.8975601196289,60.63873672485352
2617,133.87907409667972,6.137176036834718,-78.8707504272461,97.33089447021484
2618,159.4973907470703,16.982885360717773,-45.91475296020508,124.90892028808594
2619,98.43603515625,-83.25391387939453,-116.62877655029295,35.58888626098633
2620,100.63883972167969,-55.387916564941406,-108.46831512451172,48.50276184082031
2621,132.46163940429688,-27.312488555908203,-81.08477020263672,84.6376724243164
2622,151.3743133544922,9.64894199371338,-51.36004638671875,113.55458068847656
2623,102.31805419921876,-72.62886047363281,-115.46941375732422,38.43121337890625
2624,101.8468246459961,-60.67239761352539,-113.64807891845705,46.81980895996094
2625,126.58252716064452,-8.747626304626465,-85.63996887207031,86.49266815185547
2626,147.3539276123047,17.166141510009766,-56.37151336669922,106.16454315185548
2627,114.26329040527344,-89.82117462158203,-110.61875915527344,42.85551452636719
2628,119.10646057128906,-50.79158020019531,-105.19216918945312,58.67903137207031
2629,122.40879821777344,-31.32914161682129,-77.75626373291016,97.05040740966795
2630,158.26695251464844,-4.3382840156555185,-45.28270721435547,119.64688110351562
2631,102.92765808105469,-68.35041046142578,-120.27892303466795,47.07786178588867
2632,109.96240997314452,-55.61605072021485,-118.6632843017578,59.77482223510742
2633,128.22433471679688,-17.82062339782715,-83.99441528320312,90.79729461669922
2634,148.61427307128906,3.414528608322144,-59.41952896118164,116.87935638427734
2635,99.86841583251952,-66.51786041259766,-123.47279357910156,36.89037322998047
2636,109.32288360595705,-61.52883529663086,-118.39027404785156,50.06230163574219
2637,139.66094970703122,-22.05044937133789,-75.67313385009766,93.57977294921876
2638,160.65301513671875,17.764524459838867,-53.1477165222168,120.11062622070312
2639,105.39972686767578,-47.61266708374024,-111.26576232910156,48.97772979736328
2640,104.22540283203124,-55.915245056152344,-108.6627960205078,50.19319915771485
2641,125.15388488769531,-28.87576675415039,-82.08332061767578,86.2981948852539
2642,153.58834838867188,15.599123001098633,-46.9619255065918,114.8037109375
2643,101.39429473876952,-50.234336853027344,-117.2383804321289,39.1156120300293
2644,99.1540985107422,-49.45643615722656,-112.84026336669922,46.85720825195313
2645,134.67567443847656,-29.39187431335449,-79.46913146972656,88.4112319946289
2646,163.95533752441406,0.044878799468278885,-51.913551330566406,114.38858032226562
2647,101.51397705078124,-67.49771118164061,-107.36878967285156,48.62617874145508
2648,106.88072967529295,-49.80424880981445,-105.21834564208984,53.00186157226562
2649,123.29515075683594,-16.466779708862305,-79.9366226196289,91.57518768310548
2650,155.97813415527344,20.6517276763916,-50.238075256347656,130.11111450195312
2651,94.28849029541016,-78.78472900390625,-121.07926177978516,42.99388885498047
2652,109.24060821533205,-59.4793701171875,-108.27010345458984,59.18017578125
2653,127.17716979980469,-12.715660095214846,-81.79161071777344,92.27081298828124
2654,154.10818481445312,7.3002848625183105,-44.078460693359375,125.5222625732422
2655,93.29741668701172,-67.78569030761719,-106.07478332519531,50.65320587158203
2656,104.03092956542969,-53.74610137939453,-107.63057708740234,52.66152954101562
2657,121.32796478271484,-23.73340606689453,-82.16934204101562,89.7688217163086
2658,153.48362731933594,22.15516662597656,-47.414451599121094,123.196044921875
2659,97.2916259765625,-62.84901809692383,-108.49449920654295,48.790733337402344
2660,96.39031219482422,-59.1390380859375,-109.33223724365234,55.47767639160156
2661,129.27151489257812,-16.44808006286621,-72.150146484375,94.05474090576172
2662,159.47494506835938,11.201000213623047,-45.93719100952149,116.26600646972656
2663,102.44146728515624,-52.46705627441406,-107.35009002685548,46.67769241333008
2664,103.41758728027344,-59.17269897460938,-110.91421508789062,48.921630859375
2665,125.88690185546876,-18.983732223510746,-77.78617858886719,84.615234375
2666,164.08250427246094,21.81857681274414,-51.03467559814453,114.63915252685548
2667,93.45075225830078,-51.39744567871094,-123.53263854980469,47.23493576049805
2668,104.22914123535156,-40.271244049072266,-114.87102508544922,49.46765518188477
2669,124.4881820678711,-18.153474807739254,-92.8243179321289,81.30542755126953
2670,165.99732971191406,8.485833168029785,-48.97772979736328,117.9788818359375
2671,111.23397064208984,-84.3908462524414,-114.25020599365234,44.45619201660156
2672,102.3891143798828,-57.84877395629883,-107.17431640625,57.23917007446289
2673,129.56697082519528,-4.674874782562256,-80.25825500488281,87.91382598876953
2674,158.36045837402344,0.5983840227127075,-51.08329391479492,112.855224609375
2675,117.84237670898438,-82.73406982421875,-111.4490203857422,43.53243637084961
2676,109.96988677978516,-60.75467300415039,-104.30207061767578,54.65115737915039
2677,128.00743103027344,-40.49189758300781,-81.81404876708984,82.64057159423828
2678,154.08200073242188,0.9835937023162842,-52.92706298828125,114.89720916748048
2679,106.56658172607422,-53.89569854736328,-112.51863098144531,36.92403411865234
2680,103.33904266357422,-53.46186828613281,-113.52840423583984,44.05228042602539
2681,126.76203918457031,-0.590904176235199,-80.42655181884766,82.09454345703125
2682,155.34983825683594,29.825702667236328,-48.47658157348633,110.51404571533205
2683,102.2731704711914,-62.26185607910156,-118.52490997314452,40.69011306762695
2684,109.95867156982422,-62.76300048828125,-109.9493179321289,47.27233505249024
2685,129.35005187988278,-12.5062255859375,-79.1288070678711,84.74613189697266
2686,164.26576232910156,7.947287559509277,-46.6103744506836,121.2849578857422
2687,109.38646697998048,-28.84210777282715,-114.36988067626952,53.779762268066406
2688,97.3701629638672,-58.69025039672852,-117.1112289428711,48.34568786621094
2689,121.60845947265624,-20.748964309692386,-86.22713470458984,82.40869903564453
2690,155.3797607421875,19.226825714111328,-57.15689086914063,114.2651596069336
2691,95.12248229980469,-58.07690811157226,-120.77632904052734,39.80375671386719
2692,97.72545623779295,-45.97085189819336,-119.4037857055664,42.67599868774414
2693,124.80233001708984,4.158768653869629,-89.41726684570312,80.99501037597656
2694,156.83457946777344,14.690326690673828,-57.98714828491211,116.53902435302734
2695,106.71243286132812,-50.92247772216797,-117.6348114013672,41.22865676879883
2696,98.48839569091795,-51.94721221923828,-117.1561050415039,44.80026245117188
2697,120.7968978881836,-19.72797203063965,-91.50413513183594,83.46334838867188
2698,160.69789123535156,5.7295265197753915,-50.047340393066406,115.36095428466795
2699,104.18426513671876,-45.32758712768555,-111.0488510131836,41.15385818481445
2700,101.41299438476562,-49.78180694580078,-112.66822814941406,43.78674697875977
2701,125.07534790039062,-36.06011581420898,-88.17935943603516,85.7409439086914
2702,157.1562042236328,2.3075182437896733,-52.20900344848633,116.35950469970705
2703,101.89918518066406,-62.43762969970703,-116.73723602294922,41.3632926940918
2704,100.79591369628906,-49.11984634399414,-116.89057159423828,44.53099060058594
2705,110.5420913696289,-18.748119354248047,-88.92733764648438,77.24763488769531
2706,152.17465209960938,6.275552272796631,-50.17823791503906,114.19784545898438
2707,103.26050567626952,-66.42062377929689,-110.60005950927734,44.321556091308594
2708,108.12611389160156,-64.69278717041016,-113.4423828125,51.33386611938477
2709,123.36994934082031,-23.96901893615723,-90.6963119506836,80.84915924072266
2710,153.43875122070312,19.185686111450195,-50.26425552368164,116.31836700439452
2711,110.28404235839844,-60.51906204223633,-115.80226135253906,44.16073989868164
2712,101.82438659667969,-46.63655090332031,-117.40293884277344,49.57237243652344
2713,127.61100006103516,-12.80541706085205,-88.7104263305664,94.38011169433594
2714,158.91395568847656,2.475813865661621,-63.10333251953125,115.49185180664062
2715,102.8902587890625,-80.4789047241211,-119.0597152709961,48.54764175415039
2716,101.8468246459961,-45.1779899597168,-117.4739990234375,56.068580627441406
2717,125.79340362548828,-21.814836502075195,-85.20613861083984,94.69800567626952
2718,160.4622802734375,16.287263870239258,-57.43738174438477,127.06684112548828
2719,113.0852279663086,-75.84890747070312,-119.97972869873048,47.88941955566406
2720,100.32842254638672,-66.84696960449219,-114.49329376220705,52.38103866577149
2721,124.14411163330078,-19.080968856811523,-82.58073425292969,93.5461196899414
2722,156.4680633544922,15.419607162475586,-53.858299255371094,116.90553283691406
2723,108.09246063232422,-59.8795394897461,-109.57907104492188,57.2728271484375
2724,114.74574279785156,-61.89160537719727,-107.7016372680664,50.59710693359375
2725,127.92888641357422,-18.220792770385746,-75.5197982788086,86.31689453125
2726,160.45480346679688,13.564617156982422,-40.11042785644531,125.17071533203124
2727,118.67637634277344,-51.59566116333008,-103.9692153930664,45.9297103881836
2728,114.09873962402344,-48.21105194091797,-102.36853790283205,49.38537979125977
2729,124.76866912841795,-14.21909999847412,-75.63199615478516,80.93891143798828
2730,162.1564483642578,14.076983451843262,-44.48611068725586,116.55023956298828
2731,114.46150970458984,-46.75622940063477,-99.00263214111328,52.863487243652344
2732,101.45413970947266,-51.05337524414063,-108.01579284667969,52.83730697631836
2733,122.79400634765624,-8.975759506225586,-83.26887512207031,83.007080078125
2734,155.55926513671875,0.3403308987617493,-44.998477935791016,118.59222412109376
2735,108.72824096679688,-62.18331527709961,-102.4807357788086,46.20646286010742
2736,108.45523071289062,-52.91584396362305,-105.55493927001952,55.08498764038086
2737,130.55429077148438,-7.1357293128967285,-85.80452728271484,87.1434097290039
2738,159.97608947753906,8.227780342102049,-41.38573455810547,123.54385375976562
2739,102.01138305664062,-68.88147735595703,-110.32331085205078,51.992088317871094
2740,98.15928649902344,-52.20900344848633,-112.03618621826172,47.27981567382813
2741,126.840576171875,-6.571004390716553,-78.98294830322266,90.04557037353516
2742,166.55458068847656,9.63398265838623,-39.785057067871094,125.2455062866211
2743,118.91947174072266,-57.48974227905274,-101.9795913696289,50.0959587097168
2744,99.82353973388672,-61.31565856933594,-112.94123840332031,47.13396072387695
2745,127.42774200439452,-34.08170700073242,-83.90839385986328,86.19347381591797
2746,157.4553985595703,15.905794143676758,-51.91728973388672,115.30485534667969
2747,111.90715789794922,-74.83165740966797,-109.70622253417969,45.70905685424805
2748,117.8872528076172,-59.81222152709961,-106.62828826904295,47.66128540039063
2749,128.89752197265622,-26.3625545501709,-77.6440658569336,82.77894592285156
2750,170.06634521484375,18.460145950317386,-44.171958923339844,113.7228775024414
2751,99.24759674072266,-64.8199462890625,-110.23728942871094,44.7142448425293
2752,100.97917175292969,-46.13540649414063,-109.8259048461914,45.60433959960938
2753,128.89752197265622,-37.873966217041016,-85.98777770996094,87.12844848632812
2754,161.01577758789062,6.010019302368164,-44.91993713378906,121.93943786621094
2755,108.6721420288086,-67.572509765625,-105.52501678466795,53.38333129882813
2756,113.6536865234375,-62.16461563110352,-101.05583953857422,60.61629867553711
2757,122.51351165771484,-27.18159294128418,-83.7288818359375,84.71247100830078
2758,167.37734985351562,11.61238956451416,-42.646080017089844,127.59042358398438
2759,96.82039642333984,-54.15375137329102,-109.62394714355469,48.79447555541992
2760,101.910400390625,-55.26824188232422,-104.15247344970705,57.13071060180664
2761,118.0069351196289,-46.73379135131836,-81.33534240722656,81.46997833251953
2762,163.11012268066406,5.901562213897705,-36.0638542175293,119.8450927734375
2763,117.2439956665039,-57.48226165771485,-96.10794830322266,52.21648406982422
2764,102.78553771972656,-47.526649475097656,-102.4395980834961,54.965309143066406
2765,120.314453125,-53.858299255371094,-87.1396713256836,80.3180923461914
2766,160.18553161621094,6.152135372161865,-42.8293342590332,117.00276947021484
2767,108.81800079345705,-51.84623336791992,-102.75749206542969,45.78385543823242
2768,118.66889190673828,-49.11610794067383,-100.94364166259766,47.21623611450195
2769,125.13518524169922,-23.213558197021484,-79.62621307373047,81.38396453857422
2770,164.17599487304688,12.655821800231935,-35.94417953491211,123.2371826171875
2771,105.74380493164062,-71.2862319946289,-105.05378723144531,47.73234176635742
2772,107.34073638916016,-56.14337921142578,-111.09746551513672,50.67564392089844
2773,109.78289031982422,-38.71918487548828,-94.99720001220705,75.4412612915039
2774,158.00889587402344,20.812543869018555,-45.76141738891602,121.23259735107422
2775,99.96939849853516,-67.62487030029297,-104.48906707763672,48.581298828125
2776,98.09944915771484,-68.50748443603516,-111.36299896240234,47.11899948120117
2777,123.2465362548828,-30.53628349304199,-79.52149200439453,88.3700942993164
2778,162.7361297607422,9.585363388061523,-42.96771240234375,124.02629852294922
2779,112.4718780517578,-61.831764221191406,-100.31159973144531,48.19235229492188
2780,105.78119659423828,-61.05386734008789,-110.93665313720705,43.62593460083008
2781,130.60665893554688,-30.1473331451416,-81.8813705444336,80.49386596679688
2782,171.00131225585938,24.00267791748047,-40.84718704223633,121.83097839355469
2783,98.57440948486328,-68.76180267333984,-115.33851623535156,39.55318069458008
2784,110.34761810302734,-71.01322174072266,-111.493896484375,50.79158020019531
2785,117.14675903320312,-24.335529327392575,-91.68364715576172,81.77291107177734
2786,145.48023986816406,25.390180587768555,-47.93429946899414,123.45035552978516
2787,100.72111511230469,-79.86182403564453,-108.62539672851562,51.05711364746094
2788,94.41564178466795,-58.89220428466797,-112.66822814941406,52.04818725585938
2789,111.95203399658205,-29.354475021362305,-94.62694549560548,82.30023956298828
2790,150.80210876464844,9.9443941116333,-50.02490234375,121.55422973632812
2791,100.39948272705078,-66.54029846191406,-111.70333099365234,50.06230163574219
2792,97.23926544189452,-58.776268005371094,-110.95535278320312,54.06025314331055
2793,117.83489990234376,-25.805309295654297,-81.91503143310547,95.49834442138672
2794,147.66433715820312,24.817975997924805,-49.2208251953125,124.2768783569336
2795,111.11803436279295,-46.58419418334961,-101.65422058105469,53.30853271484375
2796,101.0053482055664,-78.0666732788086,-107.94473266601562,57.73283386230469
2797,103.20440673828124,-40.27872085571289,-86.25704956054688,85.62126922607422
2798,148.26646423339844,-25.580915451049805,-47.0367202758789,116.69609832763672
2799,103.16700744628906,-59.51676940917969,-106.28421783447266,48.73837661743164
2800,108.23831176757812,-63.97472763061523,-103.35213470458984,56.8390007019043
2801,120.60242462158205,-36.17605209350586,-80.56492614746094,78.96051025390625
2802,160.34634399414062,7.442400932312013,-39.78131484985352,119.04849243164062
2803,107.41927337646484,-71.7499771118164,-107.77643585205078,44.61326599121094
2804,99.55052947998048,-62.21697616577149,-109.87825775146484,44.976036071777344
2805,119.12142181396484,-35.80580139160156,-83.94953155517578,83.01455688476562
2806,164.84918212890625,15.404647827148438,-44.41131210327149,113.86125183105469
2807,95.90038299560548,-56.37151336669922,-107.3762664794922,50.26799392700195
2808,92.04080963134766,-72.69243621826172,-108.53189849853516,46.66647338867188
2809,120.13493347167969,-30.880353927612305,-83.65408325195312,83.13423919677734
2810,154.306396484375,13.695513725280762,-41.65874481201172,118.88020324707031
2811,103.45124053955078,-63.11828994750977,-109.02182006835938,47.84828186035156
2812,96.73064422607422,-55.89280319213867,-112.01000213623048,49.46017837524414
2813,117.65912628173828,-42.68347930908203,-90.03435516357422,82.16560363769531
2814,157.0683135986328,7.911758422851562,-52.07810592651367,117.17293548583984
2815,104.85557556152344,-69.15261840820311,-112.04740142822266,41.94858932495117
2816,95.65167999267578,-93.940673828125,-121.0493392944336,42.13558197021485
2817,118.88020324707031,-39.958961486816406,-95.58061981201172,76.33696746826172
2818,161.12237548828125,19.41195106506348,-54.10139465332031,114.85419464111328
2819,112.2381362915039,-75.56280517578125,-113.8014144897461,47.737953186035156
2820,96.1939697265625,-72.5147933959961,-117.8143310546875,47.64071655273438
2821,115.76112365722656,-23.25282859802246,-97.63008880615234,70.52142333984375
2822,153.44061279296875,25.133996963500977,-58.11430358886719,110.96844482421876
2823,98.19107055664062,-70.36061096191406,-118.9400405883789,38.391944885253906
2824,101.97211456298828,-51.36565780639648,-114.4259796142578,50.04173278808594
2825,122.75847625732422,-35.56831741333008,-97.4804916381836,72.04730224609375
2826,165.60276794433594,6.344740390777588,-49.63595199584961,117.0233383178711
2827,80.71077728271484,-88.9404296875,-119.43370819091795,39.74952697753906
2828,88.1082992553711,-56.089149475097656,-115.1253433227539,43.63528442382813
2829,110.45420837402344,-44.83953094482422,-96.32485961914062,78.20691680908203
2830,147.6138458251953,4.168118476867677,-55.13360595703125,118.1266098022461
2831,101.62804412841795,-74.05562591552734,-109.70622253417969,45.22473907470703
2832,93.53115844726562,-76.55762481689453,-123.92906188964844,38.8930892944336
2833,121.39715576171876,-36.95956039428711,-96.93072509765624,80.04695129394531
2834,137.8265380859375,24.01576805114746,-59.64766311645508,116.4773178100586
2835,101.12315368652344,-61.46338653564453,-120.23404693603516,50.44564056396485
2836,94.62694549560548,-82.78081512451172,-131.89878845214844,42.53201293945313
2837,121.329833984375,-15.735629081726074,-97.9030990600586,82.41804504394531
2838,146.34976196289062,2.2271103858947754,-54.09765243530274,115.7592544555664
2839,97.5029296875,-70.031494140625,-113.92483520507812,50.77849197387695
2840,102.29000091552734,-55.91337585449219,-118.40523529052734,50.12026977539063
2841,103.89816284179688,-36.42101669311523,-96.78861236572266,79.1044921875
2842,139.15794372558594,3.8277876377105713,-53.22251510620117,116.78024291992188
2843,105.31558227539062,-66.24671936035156,-116.19121551513672,40.07115936279297
2844,99.967529296875,-81.43070983886719,-121.12787628173828,41.35768508911133
2845,133.27133178710938,-43.46698760986328,-94.27539825439452,73.03463745117188
2846,147.7073516845703,-2.0363755226135254,-60.20864868164063,110.91608428955078
2847,109.90070343017578,-83.2408218383789,-116.50162506103516,45.52019119262695
2848,97.09528350830078,-84.703125,-128.31596374511722,33.10372543334961
2849,98.81563568115234,-25.694982528686523,-110.96282958984376,59.95620727539063
2850,160.8792724609375,0.4992766380310058,-53.61146545410156,111.97821807861328
2851,97.82830047607422,-75.00556182861328,-119.7216796875,37.15403747558594
2852,90.53923797607422,-89.30693817138672,-122.06659698486328,41.72045516967773
2853,127.24261474609376,-38.48543930053711,-93.63213348388672,76.38932800292969
2854,133.2376708984375,10.95229721069336,-59.16521835327149,111.59300231933594
2855,105.9139633178711,-68.92074584960939,-117.04764556884766,47.34526443481445
2856,103.83832550048828,-59.6719741821289,-125.38762664794922,42.16924285888672
2857,107.23040771484376,-44.13642883300781,-101.36998748779295,68.681396484375
2858,144.37509155273438,6.494336128234862,-55.93020248413086,106.17762756347656
2859,101.16429138183594,-75.15889739990234,-119.0185775756836,32.011672973632805
2860,105.72322845458984,-84.83402252197266,-127.27627563476562,37.3185920715332
2861,111.39665985107422,-46.09613800048828,-103.85702514648438,70.97021484375
2862,146.2637481689453,-2.810534715652466,-65.79232025146484,108.28693389892578
2863,121.47569274902344,-54.25659942626953,-113.67425537109376,48.08202362060547
2864,104.38434600830078,-78.20317840576172,-123.02400970458984,47.356483459472656
2865,111.153564453125,-58.6061019897461,-96.16404724121094,68.54301452636719
2866,144.02354431152344,-8.143631935119629,-53.71244430541992,116.45487213134766
2867,99.84410858154295,-52.31933212280274,-114.55687713623048,43.59040451049805
2868,85.6586685180664,-99.53182983398438,-126.40113830566406,34.46130752563477
2869,98.28083038330078,-55.54312515258789,-103.5840072631836,62.80601119995117
2870,152.26254272460938,-3.74550986289978,-57.89365005493164,108.72076416015624
2871,96.575439453125,-88.50286102294922,-126.93968200683594,30.08562469482422
2872,108.07189178466795,-84.87142181396484,-121.92447662353516,42.50583267211914
2873,135.62747192382812,-43.68016052246094,-96.89706420898438,71.25070190429688
2874,149.88023376464844,-7.8893189430236825,-63.90367126464844,103.74669647216795
2875,94.65312957763672,-78.62952423095703,-127.50440979003906,31.34971046447754
2876,98.9876708984375,-60.00482559204102,-121.68138122558594,39.9776611328125
2877,112.17082214355469,-61.766319274902344,-111.99130249023438,68.37471771240234
2878,168.27679443359375,-3.607133388519287,-56.51362991333008,118.96434783935548
2879,88.7104263305664,-98.02838897705078,-132.62432861328122,34.076099395751946
2880,99.33922576904295,-67.80999755859375,-129.22102355957028,44.5440788269043
2881,110.42428588867188,-39.577491760253906,-108.58799743652344,75.3496322631836
2882,149.26315307617188,1.725963830947876,-64.92840576171875,118.4931182861328
2883,96.7175521850586,-62.58535766601562,-122.4929428100586,42.27021789550781
2884,105.33428192138672,-69.10400390625,-115.6713638305664,50.10157012939453
2885,111.8529281616211,-36.757606506347656,-100.46493530273438,75.39825439453125
2886,158.40345764160156,-11.225309371948242,-49.50131607055664,119.39443969726562
2887,104.26093292236328,-43.56048583984375,-115.32355499267578,46.03255844116211
2888,92.85797882080078,-73.6592025756836,-127.17530059814452,31.25995445251465
2889,96.5567398071289,-51.72842788696289,-103.31847381591795,66.8974609375
2890,145.4409637451172,35.80767059326172,-49.01886749267578,115.3777847290039
2891,104.9266357421875,-44.71985244750977,-113.99214935302734,37.69258117675781
2892,89.73516082763672,-81.68128204345703,-127.94197845458984,31.78354072570801
2893,114.53443908691406,-26.098892211914066,-100.49858856201172,63.28097534179688
2894,155.4564208984375,20.687255859375,-54.37814712524414,106.25242614746094
2895,116.18373107910156,-77.24576568603516,-113.79767608642578,45.3182373046875
2896,120.09192657470705,-66.27289581298828,-120.32006072998048,32.583877563476555
2897,123.11750793457031,-50.11278915405274,-101.1979522705078,64.7320556640625
2898,154.62989807128906,-16.072219848632812,-56.74176025390625,112.3858642578125
2899,90.76737213134766,-69.71360778808594,-111.56121826171876,40.48254776000977
2900,86.87787628173828,-67.14055633544922,-123.82808685302734,49.24139404296875
2901,109.4257354736328,-33.75072860717773,-102.21146392822266,78.2779769897461
2902,143.3354034423828,-5.940831184387207,-61.0763053894043,113.6536865234375
2903,95.65916442871094,-71.5760726928711,-108.62539672851562,55.9881706237793
2904,97.52911376953124,-70.92159271240234,-119.299072265625,60.19556045532226
2905,108.84978485107422,-22.351512908935547,-100.5322494506836,78.46122741699219
2906,150.81893920898438,10.12951946258545,-55.59735107421875,121.43267822265624
2907,103.85702514648438,-83.93270111083984,-107.62310028076172,48.32511901855469
2908,118.44263458251952,-68.28122711181639,-112.26432037353516,50.16888809204102
2909,116.07901763916016,-45.09758377075195,-101.80755615234376,72.17072296142578
2910,158.7101287841797,13.226156234741213,-51.300209045410156,121.48877716064452
2911,98.83807373046876,-58.82301712036133,-120.23404693603516,43.197715759277344
2912,93.5423812866211,-70.7345962524414,-127.69140625,36.54443359375
2913,110.31582641601562,-38.10771179199219,-107.2939910888672,65.04247283935547
2914,129.00784301757812,-12.40711784362793,-65.23881530761719,107.13504028320312
2915,109.2424774169922,-73.30390930175781,-112.11097717285156,38.06283187866211
2916,109.98297882080078,-74.57921600341797,-121.3709716796875,38.8220329284668
2917,126.42731475830078,-35.68425369262695,-104.47784423828124,70.19231414794922
2918,165.34097290039062,20.795713424682614,-51.50216293334961,113.5901107788086
2919,103.9841766357422,-67.23405456542969,-116.73723602294922,40.66206359863281
2920,111.8716278076172,-56.83712768554688,-117.20472717285156,37.62526321411133
2921,133.5892333984375,-32.09395217895508,-94.06222534179688,77.98626708984375
2922,114.68777465820312,-2.3991458415985107,-64.46091461181639,120.93153381347656
2923,85.98403930664062,-66.96852111816406,-115.01314544677734,50.81962966918945
2924,94.63069152832031,-74.33612060546875,-112.9001007080078,51.76582336425781
2925,100.3714370727539,-35.12327194213867,-97.23739624023438,82.46292114257812
2926,141.02415466308594,14.845532417297365,-49.01512908935547,128.45620727539062
2927,95.58810424804688,-38.283485412597656,-114.75882720947266,53.08227157592773
2928,120.30136108398438,-63.49040985107422,-107.2790298461914,57.54022979736328
2929,91.6761703491211,-55.30002975463867,-101.00347900390624,74.88214874267578
2930,147.3258819580078,24.56179237365723,-51.70037841796875,127.3005828857422
2931,89.26766967773438,-63.46797180175781,-115.09168243408205,44.24114608764648
2932,93.37782287597656,-60.322715759277344,-123.28580474853516,36.93338012695313
2933,116.69609832763672,-22.02988052368164,-102.6415557861328,63.81204223632813
2934,149.1883544921875,-1.2061177492141724,-61.08378601074219,105.5156707763672
2935,103.13148498535156,-75.21499633789062,-123.1511688232422,41.619476318359375
2936,97.68618774414062,-62.47689819335938,-124.38533020019531,40.000099182128906
2937,112.11097717285156,-23.716575622558594,-96.17152404785156,70.09133148193361
2938,154.15867614746094,-12.564193725585938,-50.17823791503906,119.5290756225586
2939,112.60839080810548,-77.7955322265625,-109.76232147216795,52.13607406616211
2940,88.73660278320312,-58.25081253051758,-123.56629180908205,46.31304931640625
2941,103.5690460205078,-40.572303771972656,-97.00926208496094,83.86164855957031
2942,138.68296813964844,15.97872257232666,-50.4587287902832,118.09668731689452
2943,125.55592346191406,-92.85610961914062,-110.71599578857422,49.24513244628906
2944,115.40957641601562,-75.05044555664062,-126.16926574707031,46.84785842895508
2945,96.81852722167969,-42.93218231201172,-112.40643310546876,62.11412811279297
2946,133.09930419921878,0.7947287559509277,-61.0576057434082,115.0187530517578
2947,123.78321075439452,-65.25564575195311,-113.46856689453124,51.75460433959961
2948,85.91297912597656,-75.88443756103516,-136.32682800292972,30.12302398681641
2949,83.91961669921875,-39.44659423828125,-110.71599578857422,66.50102996826172
2950,155.2544708251953,13.36079216003418,-59.69628143310547,109.20694732666016
2951,97.18878173828124,-84.29547882080078,-118.33043670654295,41.34272384643555
2952,86.14485931396484,-79.11197662353516,-133.94825744628906,30.82238578796387
2953,113.48726654052734,-45.830604553222656,-99.08490753173828,74.82978820800781
2954,164.1068115234375,9.216983795166016,-56.45378875732422,116.38381958007812
2955,126.78260803222656,-41.12580871582031,-109.72492218017578,46.32427215576172
2956,81.77664947509766,-113.19367980957031,-124.26565551757812,40.527427673339844
2957,108.97320556640624,-46.593544006347656,-98.5014877319336,65.80166625976561
2958,163.87867736816406,18.959423065185547,-40.77238845825195,125.74852752685548
2959,105.18842315673828,-65.48004150390625,-107.89611053466795,45.53889083862305
2960,111.99504089355469,-75.3122329711914,-115.64892578125,41.55963897705078
2961,110.73844146728516,-62.09169006347656,-112.5335922241211,62.60031509399414
2962,128.99662780761722,-22.250534057617188,-58.36861801147461,108.7357177734375
2963,88.04472351074219,-54.59318923950195,-112.50740814208984,42.539493560791016
2964,90.60281372070312,-96.53617095947266,-122.16757202148438,39.35309600830078
2965,111.92772674560548,-46.35044860839844,-97.08406066894531,67.58934020996094
2966,169.72787475585938,-13.53656768798828,-55.18222427368164,114.31938934326172
2967,111.27698516845705,-73.83871459960938,-117.11870574951172,41.06970977783203
2968,86.05509948730469,-89.10498809814453,-131.57716369628906,34.62586212158203
2969,102.7799301147461,-46.08865737915039,-108.36734008789062,63.57268905639648
2970,153.3321533203125,8.151111602783201,-58.93708419799805,108.72824096679688
2971,107.48098754882812,-53.74423217773438,-116.86065673828124,44.876930236816406
2972,85.6773681640625,-75.35711669921875,-130.28689575195312,31.4506893157959
2973,103.2249755859375,-51.53021240234375,-103.42693328857422,56.61647415161133
2974,143.93753051757812,-6.11660623550415,-52.482017517089844,115.67323303222656
2975,99.85906982421876,-66.07468414306639,-105.12110900878906,46.42898941040039
2976,98.74832153320312,-60.33393478393555,-118.7605209350586,40.23197555541992
2977,124.07118225097656,-51.4404525756836,-94.66434478759766,82.57138061523438
2978,135.238525390625,2.0288956165313716,-53.50674819946289,112.92066955566406
2979,88.59449005126953,-63.61382675170898,-114.35491943359376,48.54951095581055
2980,80.07125854492188,-60.21051788330078,-120.42103576660156,36.185401916503906
2981,111.9389419555664,-40.25441360473633,-95.27769470214844,73.37123107910156
2982,136.69334411621094,-25.24619483947754,-67.18730163574219,103.06603240966795
2983,116.44552612304688,-52.19965362548828,-112.77294158935548,49.38724899291992
2984,75.37394714355469,-77.45146179199219,-133.73507690429688,35.91613006591797
2985,95.2328109741211,-40.0075798034668,-112.87017822265624,62.54421615600586
2986,147.1014862060547,-11.199130058288574,-65.25003814697266,113.272216796875
2987,112.85147857666016,-65.92508697509766,-117.7357940673828,48.6504898071289
2988,77.27007293701172,-82.36568450927734,-135.70974731445312,34.82407760620117
2989,102.04691314697266,-16.453689575195312,-108.78620910644531,70.44662475585938
2990,139.300048828125,-12.863386154174805,-63.653099060058594,113.56019592285156
2991,91.0179443359375,-75.99663543701172,-116.6923599243164,42.55819320678711
2992,76.68290710449219,-66.69550323486328,-131.40512084960938,35.20554733276367
2993,108.19156646728516,-40.92385482788086,-104.51150512695312,68.46821594238281
2994,154.8692626953125,-15.496275901794435,-65.13035583496094,107.46041870117188
2995,95.24403381347656,-94.30718994140624,-122.57147979736328,32.66989517211914
2996,90.3372802734375,-75.42816925048828,-134.40078735351562,24.748788833618164
2997,87.1845474243164,-23.79137420654297,-110.89177703857422,58.49764633178711
2998,151.57066345214844,7.956637382507324,-60.623779296875,104.03092956542969
2999,97.71610260009766,-67.92219543457031,-115.25249481201172,37.21761322021485
3000,72.23616790771484,-90.4214324951172,-131.27423095703122,31.92939567565918
3001,90.13533020019531,-29.28154754638672,-108.61791229248048,56.51923751831055
3002,135.3619384765625,-9.59097385406494,-70.34751892089844,96.4501495361328
3003,96.88584899902344,-88.09147644042969,-121.73748016357422,34.337890625
3004,91.6200714111328,-76.90169525146484,-129.86428833007812,34.558544158935554
3005,111.62853240966795,-39.958961486816406,-102.56301879882812,67.05079650878906
3006,151.013427734375,7.249795913696289,-61.7981071472168,98.68286895751952
3007,102.08056640625,-86.30754089355469,-117.9788818359375,36.80622482299805
3008,76.1593246459961,-86.94706726074219,-129.58004760742188,27.33679962158203
3009,103.61392974853516,-40.41522979736328,-106.99105834960938,63.90180206298828
3010,139.83485412597656,-21.016366958618164,-63.2716293334961,109.0723114013672
3011,103.43815612792969,-74.02571105957031,-118.95499420166016,42.53201293945313
3012,93.81165313720705,-102.77806091308594,-129.27711486816406,29.891149520874023
3013,99.967529296875,-53.3066635131836,-105.86161041259766,58.374229431152344
3014,150.68804931640625,6.023108959197997,-54.99148941040039,100.44436645507812
3015,93.95002746582031,-71.89583587646484,-113.57888793945312,35.650596618652344
3016,101.5382843017578,-46.95818328857422,-122.68180847167969,32.699813842773445
3017,120.07696533203124,-16.332143783569336,-96.51372528076172,61.61298370361328
3018,136.03512573242188,-35.62628555297852,-60.0908432006836,103.42506408691406
3019,80.77062225341797,-93.2207489013672,-119.68241119384766,38.410640716552734
3020,101.00347900390624,-76.52583312988281,-124.62655639648438,36.99322128295898
3021,93.47132110595705,-72.12397003173828,-109.66695404052734,57.12884140014648
3022,136.94766235351562,2.9881801605224614,-60.584510803222656,109.88387298583984
3023,94.52597045898438,-83.59050750732422,-117.45716857910156,42.2963981628418
3024,101.0932388305664,-75.29166412353516,-118.87832641601562,39.97018051147461
3025,107.2341537475586,-38.56584930419922,-108.08497619628906,61.35492706298828
3026,174.21575927734375,-1.5595382452011108,-59.57847595214844,105.7026596069336
3027,68.02130126953125,-93.36286163330078,-127.61473846435548,31.944355010986328
3028,65.73248291015625,-87.69317626953125,-133.25076293945312,24.70016860961914
3029,106.04486083984376,-56.32663345336914,-109.51361846923828,50.07913208007813
3030,149.46884155273438,23.673566818237305,-56.33598327636719,100.69867706298828
3031,101.1156768798828,-81.140869140625,-118.09668731689452,30.758808135986328
3032,82.23291778564453,-85.04532623291016,-129.43232727050778,19.38203239440918
3033,99.36166381835938,-40.9406852722168,-112.427001953125,50.33344268798828
3034,159.07664489746094,-12.610942840576172,-63.28471755981445,100.36956787109376
3035,96.36600494384766,-78.30228424072266,-122.40879821777344,31.58532524108887
3036,88.33643341064453,-72.73357391357422,-128.10092163085938,34.13967514038086
3037,95.5170440673828,-52.47453689575195,-113.24604034423828,63.03040313720703
3038,136.61106872558594,2.932081460952759,-60.45735168457031,113.4292984008789
3039,95.12061309814452,-72.3446273803711,-122.86880493164062,37.73371887207031
3040,75.1794662475586,-84.4693832397461,-136.35488891601562,30.3062801361084
3041,94.70549011230469,-37.159645080566406,-112.44196319580078,62.04307174682617
3042,141.36822509765625,-7.318984031677246,-62.29738235473633,104.8350067138672
3043,98.5875015258789,-92.01275634765624,-115.7966537475586,43.84845733642578
3044,79.06522369384766,-87.67447662353516,-135.07583618164062,31.574106216430664
3045,105.7942886352539,-57.90861129760742,-112.26992797851562,54.71660614013672
3046,136.259521484375,-3.504286289215088,-69.14888000488281,102.8678207397461
3047,88.62066650390625,-61.92152404785156,-128.60206604003906,38.4517822265625
3048,94.84386444091795,-88.22049713134766,-132.04652404785156,24.8011474609375
3049,115.44696807861328,-51.28150939941406,-115.47128295898438,52.0425796508789
3050,136.29316711425778,8.654128074645996,-76.39680480957031,93.25627899169922
3051,92.2259292602539,-76.76519012451172,-135.02348327636722,34.450088500976555
3052,88.48603057861328,-71.09175872802734,-134.68315124511722,24.558053970336914
3053,113.88743591308594,-51.81257247924805,-116.8213882446289,54.88490295410156
3054,128.82460021972656,4.768372535705566,-68.1241455078125,98.00220489501952
3055,80.59858703613281,-41.61012649536133,-122.06098175048828,36.62297058105469
3056,75.89005279541016,-77.50568389892578,-130.26258850097656,27.87534523010254
3057,95.80127716064452,-35.26351547241211,-108.9750747680664,63.03414535522461
3058,135.41429138183594,-5.770665645599365,-57.05404281616211,108.27571105957031
3059,110.2896499633789,-71.3460693359375,-111.05819702148438,40.45262908935547
3060,88.20179748535156,-73.9752197265625,-124.17776489257812,39.75700759887695
3061,104.97151184082031,-48.00161743164063,-105.55307006835938,64.5675048828125
3062,138.98963928222656,0.17577530443668365,-57.57762908935547,112.84213256835938
3063,93.87896728515624,-58.4471549987793,-119.70858764648438,47.206886291503906
3064,93.89019012451172,-98.23221588134766,-132.32327270507812,36.53695297241211
3065,92.61114501953124,-64.49457550048828,-120.89039611816406,53.45251846313477
3066,149.36038208007812,5.404155254364014,-65.74557495117189,99.9245147705078
3067,95.4123306274414,-58.19658279418945,-125.18379974365234,36.59305191040039
3068,78.05918884277344,-81.7803955078125,-129.35005187988278,20.11505126953125
3069,99.44767761230469,-53.21877670288086,-108.21961212158205,54.80636215209961
3070,139.50201416015622,-4.5252790451049805,-66.40379333496094,94.42312622070312
3071,99.31678009033205,-72.18380737304688,-121.9861831665039,32.823230743408196
3072,103.1240005493164,-69.46490478515625,-124.75371551513672,31.671342849731445
3073,125.67185974121094,-49.80050659179688,-108.26823425292969,52.465187072753906
3074,146.1814727783203,-4.757152557373047,-60.10954284667969,98.30513763427734
3075,88.36261749267578,-67.30697631835939,-111.42471313476562,37.03435897827149
3076,77.78617858886719,-76.44729614257812,-128.22059631347656,30.796205520629886
3077,90.2512664794922,-61.18850326538086,-115.33290100097656,52.34925079345703
3078,145.13803100585938,6.297991752624513,-53.37398147583008,107.93912506103516
3079,121.6514663696289,-73.22350311279297,-107.90546417236328,47.85015106201172
3080,88.19432067871094,-66.53656005859375,-128.63946533203122,39.768226623535156
3081,97.7796859741211,-61.92900466918945,-109.26304626464844,66.30655670166016
3082,147.85321044921875,-20.76766395568848,-58.04885864257813,117.83489990234376
3083,97.7385482788086,-82.48348999023438,-116.69422912597656,46.24573135375977
3084,85.12760162353516,-102.60415649414062,-135.92105102539062,24.61789131164551
3085,95.96583557128906,-59.39335250854492,-114.55126190185548,56.930625915527344
3086,149.98495483398438,6.716860294342041,-60.704185485839844,111.43592834472656
3087,96.56047821044922,-98.71839904785156,-121.89269256591795,39.618629455566406
3088,91.53031158447266,-96.5567398071289,-127.92888641357422,32.34078598022461
3089,101.1156768798828,-60.87061309814453,-109.4388198852539,57.51031112670898
3090,147.4418182373047,-3.1789150238037114,-57.22607803344727,104.63304901123048
3091,121.08673858642578,-66.12891387939453,-96.0051040649414,43.57170486450195
3092,84.58531951904297,-74.76808166503906,-122.1395263671875,26.70475578308105
3093,112.96367645263672,-57.2728271484375,-101.21104431152344,56.97924423217773
3094,149.9438018798828,5.377975940704347,-58.11243438720703,105.42591094970705
3095,98.25839233398438,-83.35115051269531,-114.7532196044922,37.21387481689453
3096,87.91756439208984,-76.06956481933594,-125.3371353149414,27.015167236328125
3097,86.88909912109375,-40.97808456420898,-108.6571807861328,61.54192352294922
3098,149.04249572753906,10.172528266906738,-56.49305725097656,105.2613525390625
3099,95.15801239013672,-76.54827117919922,-115.59469604492188,39.15862274169922
3100,84.37962341308594,-89.0507583618164,-131.15267944335938,33.40665817260742
3101,89.0507583618164,-58.21528244018555,-109.22938537597656,67.36494445800781
3102,140.54917907714844,2.6553289890289307,-58.65098190307617,114.12491607666016
