,T7,F8,Cz,P4
2000,108.62165069580078,-61.596153259277344,-93.74059295654295,63.615699768066406
2001,130.05502319335938,-33.322509765625,-75.51232147216797,97.3608169555664
2002,170.9770050048828,15.539284706115724,-37.49249649047852,137.609619140625
2003,109.8670425415039,-43.6521110534668,-103.35587310791016,56.74550247192383
2004,106.06729888916016,-65.69134521484375,-109.08914184570312,52.36233901977539
2005,128.114013671875,-29.298376083374023,-83.82238006591797,82.61813354492188
2006,172.7123260498047,3.6800615787506095,-33.69649887084961,129.11256408691406
2007,117.41790008544922,-51.85371398925781,-98.25091552734376,52.81860733032226
2008,110.02411651611328,-81.32038116455078,-106.60958862304688,46.53931427001953
2009,123.34564208984376,-35.435550689697266,-79.88052368164062,86.81430053710938
2010,168.24127197265625,4.2990150451660165,-33.83113479614258,134.305419921875
2011,110.65055084228516,-76.14997100830078,-98.38928985595705,53.93870544433594
2012,109.62955474853516,-62.51429748535156,-103.73734283447266,57.15502166748047
2013,130.61039733886722,-35.76653289794922,-77.75251770019531,99.80110168457031
2014,162.68377685546875,9.953743934631348,-41.71858215332031,125.13892364501952
2015,106.35714721679688,-63.94293975830078,-97.65626525878906,55.1728744506836
2016,108.2944107055664,-60.19181823730469,-102.16284942626952,56.86330795288086
2017,123.25775146484376,-33.395435333251946,-75.73297119140625,92.83740997314452
2018,161.37107849121094,19.991634368896484,-39.15675354003906,127.73815155029295
2019,109.38646697998048,-71.82664489746094,-104.2497100830078,54.563270568847656
2020,109.98858642578124,-53.93496704101562,-102.12545013427734,59.858970642089844
2021,127.37911987304688,-33.32437896728516,-77.44210815429688,91.53591918945312
2022,168.45069885253906,5.372366428375244,-34.88204574584961,129.07330322265622
2023,120.6734848022461,-57.16997909545898,-94.26417541503906,57.802024841308594
2024,101.99642181396484,-87.10787963867188,-109.03304290771484,49.23391342163086
2025,132.01286315917972,-12.3360595703125,-80.1385726928711,94.14263153076172
2026,164.1909637451172,67.3612060546875,-39.66911697387695,124.24134826660156
2027,109.28922271728516,-100.52664184570312,-101.33258819580078,51.20109939575195
2028,101.0016098022461,-72.67560577392578,-103.44937133789062,55.82735824584961
2029,123.59808349609376,-37.703800201416016,-79.37189483642578,93.5405044555664
2030,167.05946350097656,24.195281982421875,-34.900745391845696,136.47456359863278
2031,108.5487289428711,-71.08615112304688,-96.2986831665039,57.54397201538086
2032,102.2694320678711,-70.6298828125,-109.09288024902344,53.40016174316406
2033,123.8523941040039,-32.28468704223633,-85.8194808959961,90.69444274902344
2034,166.34140014648438,17.96086883544922,-35.611328125,134.74671936035156
2035,104.4348373413086,-49.75001907348633,-99.50751495361328,52.80177688598633
2036,101.63365173339844,-54.49221420288086,-104.80695343017578,56.82217025756836
2037,124.68639373779295,-34.895137786865234,-77.71511840820312,92.28015899658205
2038,171.5660400390625,10.170658111572266,-31.15336608886719,137.43197631835938
2039,117.13553619384766,-75.9480209350586,-93.13098907470705,61.04077529907226
2040,110.56827545166016,-68.47196197509766,-102.8023681640625,56.95306777954102
2041,135.666748046875,-33.05136489868164,-75.49736022949219,100.6612777709961
2042,172.56085205078125,10.653104782104492,-28.73739051818848,135.43861389160156
2043,111.1816177368164,-72.30909729003906,-91.44803619384766,51.13378143310547
2044,108.22335815429688,-81.61396789550781,-106.14584350585938,42.31509780883789
2045,132.15122985839844,-10.514728546142578,-78.05545043945312,76.17615509033203
2046,163.48037719726562,3.678191661834717,-43.04998779296875,119.6936264038086
2047,116.24169921875,-37.35599136352539,-91.10770416259766,51.26467895507813
2048,105.82981872558594,-37.96559524536133,-103.18757629394531,52.60730361938477
2049,140.70065307617188,-71.93510437011719,-77.90211486816406,95.38427734375
2050,164.04510498046875,0.761069655418396,-40.89580535888672,133.57614135742188
2051,112.6476593017578,-67.07697296142578,-90.9955062866211,66.14948272705078
2052,93.6564483642578,-39.36057662963867,-98.41920471191406,60.8051643371582
2053,123.51580810546876,-64.28701019287111,-79.03904724121094,98.15928649902344
2054,166.41993713378906,-1.4604309797286987,-32.22671890258789,137.18887329101562
2055,114.58866119384766,-51.0215835571289,-85.6175308227539,69.63132476806639
2056,104.42735290527344,-74.9083251953125,-100.2330551147461,63.22861862182617
2057,126.80691528320312,-40.62466430664063,-70.78882598876953,102.84537506103516
2058,174.0231475830078,10.589527130126953,-25.805309295654297,140.05364990234378
2059,117.75261688232422,-77.2158432006836,-87.23316955566406,58.73325729370117
2060,109.6744384765625,-71.06745147705078,-96.26502227783205,54.93725967407226
2061,132.6448974609375,-29.53960037231445,-69.58831787109375,88.96661376953125
2062,171.46131896972656,-2.2308502197265625,-25.52855682373047,135.00103759765622
2063,110.62811279296876,-87.85211944580078,-94.25669860839844,60.1544189453125
2064,106.2636489868164,-69.13391876220703,-101.76641845703124,53.3478012084961
2065,123.57190704345705,-42.819984436035156,-83.11927795410156,85.5670394897461
2066,169.32957458496094,33.608612060546875,-34.313583374023445,132.75709533691406
2067,111.53316497802734,-60.94728088378906,-97.02422332763672,59.55603790283203
2068,106.21876525878906,-68.65521240234375,-109.54167175292969,47.9997444152832
2069,119.84322357177734,-29.70041465759277,-83.23895263671875,87.22755432128906
2070,164.24705505371094,-3.061108112335205,-39.50830459594727,143.04556274414062
2071,105.01825714111328,-66.40753173828125,-93.97620391845705,63.69236755371094
2072,101.93284606933594,-55.13921356201172,-102.65277099609376,64.28327178955078
2073,112.35594177246094,31.19637489318848,-85.93916320800781,98.43603515625
2074,160.26780700683594,-14.550081253051758,-34.80350875854492,148.90972900390625
2075,108.78807830810548,-79.99459075927734,-96.6390151977539,65.78671264648439
2076,102.22455596923828,-84.71434020996094,-102.6976547241211,57.97406005859375
2077,123.78134155273438,-41.39508438110352,-70.69158935546875,98.14806365966795
2078,168.20761108398438,-2.1261332035064697,-30.416606903076172,132.47286987304688
2079,121.51122283935548,-52.99251174926758,-87.12471008300781,61.33996963500977
2080,100.50420379638672,-76.22476959228516,-106.7928466796875,51.05524444580078
2081,121.84780883789062,-27.11614418029785,-78.94554901123047,81.90567779541016
2082,168.36842346191406,18.791128158569336,-26.80012321472168,129.78013610839844
2083,112.73367309570312,-61.01459884643555,-90.2363052368164,56.67257308959961
2084,110.13070678710938,-74.25758361816406,-93.09732818603516,53.415122985839844
2085,119.49541473388672,-33.892845153808594,-78.51545715332031,87.05925750732422
2086,165.61212158203125,18.936983108520508,-32.30899429321289,133.58735656738278
2087,109.98484802246094,-51.65736770629883,-96.01071166992188,57.10640335083008
2088,95.8480224609375,-82.75837707519531,-102.54431915283205,52.584861755371094
2089,123.87109375,-31.89199638366699,-76.35005950927734,90.65704345703124
2090,169.7970733642578,9.789188385009766,-28.879507064819336,140.96243286132812
2091,114.19971466064452,-52.97007369995117,-91.7771453857422,65.83158874511719
2092,95.66851043701172,-78.78660583496094,-106.32909393310548,61.13801574707031
2093,124.82476806640624,-48.41487503051758,-78.25740814208984,105.78119659423828
2094,166.0459442138672,15.010088920593262,-24.8366756439209,150.86195373535156
2095,108.50758361816406,-43.8634147644043,-90.62899780273438,68.14658355712889
2096,108.04757690429688,-69.45928955078125,-91.57518768310548,61.85981369018555
2097,127.99994659423828,8.532581329345701,-67.09754180908203,91.48356628417969
2098,163.92916870117188,-34.6370849609375,-31.538576126098636,133.99874877929688
2099,114.6111068725586,-82.40308380126953,-80.52378845214844,59.62335586547852
2100,105.95697784423828,-64.60115814208984,-91.44803619384766,53.46747970581055
2101,128.53474426269528,-23.75023460388184,-67.33316040039061,92.74016571044922
2102,167.98321533203125,12.40711784362793,-18.063716888427734,137.46937561035156
2103,116.6231689453125,-34.558544158935554,-75.42256164550781,62.25998306274414
2104,102.11235809326172,-56.6987533569336,-92.0576400756836,52.05379867553711
2105,127.2856216430664,-40.51246643066406,-70.08946228027344,90.9076156616211
2106,167.90467834472656,0.3459407389163971,-23.51275062561035,133.47142028808594
2107,108.2906723022461,-37.7711181640625,-88.6468505859375,57.16624069213867
2108,103.9336929321289,-77.24202728271484,-98.27335357666016,51.54143142700195
2109,129.49964904785156,-47.76039123535156,-72.19129180908203,91.1656723022461
2110,165.30545043945312,-1.7596229314804075,-37.458839416503906,123.47467041015624
2111,118.34352111816406,-82.24974822998047,-93.39652252197266,56.50053787231445
2112,115.138427734375,-71.04875183105469,-101.05957794189452,49.20399475097656
2113,128.16824340820312,-38.58641815185547,-82.52837371826172,86.01209259033203
2114,165.21194458007812,17.8411922454834,-36.8080940246582,136.10804748535156
2115,111.10308074951172,-57.18120193481445,-98.55010223388672,61.81867599487305
2116,104.116943359375,-67.54820251464844,-108.79743194580078,52.71202087402344
2117,122.16570281982422,-17.37370491027832,-77.47203063964844,91.80145263671876
2118,168.40956115722656,8.70087718963623,-35.50661087036133,132.45042419433594
2119,117.7227020263672,-54.750267028808594,-92.23715209960938,60.85004043579102
2120,105.32867431640624,-91.70795440673828,-108.93580627441406,46.23825454711914
2121,123.11937713623048,-36.54443359375,-76.36502075195312,84.77418518066406
2122,164.400390625,86.5468978881836,-31.179546356201172,127.77928924560548
2123,114.2745132446289,-116.2229995727539,-94.4287338256836,51.20484161376953
2124,103.76165771484376,-93.57416534423828,-109.1602020263672,41.96728897094727
2125,115.97990417480469,-39.42041397094727,-81.81779479980469,74.89336395263672
2126,169.97283935546875,32.57639694213867,-27.14045333862305,134.129638671875
2127,109.80907440185548,-80.12922668457031,-92.93651580810548,51.10760116577149
2128,109.3341064453125,-84.17953491210938,-98.17237091064452,51.30581665039063
2129,120.43038940429688,-49.4433479309082,-84.98922729492188,75.25613403320312
2130,167.0856475830078,6.546694755554199,-32.641845703125,133.83793640136722
2131,117.95831298828124,-56.27240371704102,-93.31798553466795,63.30715560913086
2132,103.6943359375,-87.72496032714844,-104.49280548095705,52.76063919067383
2133,117.94709777832031,-28.14461708068848,-74.90645599365234,95.41046142578124
2134,166.73782348632812,16.464910507202152,-32.89989852905273,142.67904663085938
2135,110.97218322753906,-68.32984161376953,-90.00443267822266,68.53927612304689
2136,94.86443328857422,-72.18942260742188,-111.26576232910156,52.0425796508789
2137,126.8854522705078,-28.73178100585937,-75.25052642822266,92.09317016601562
2138,165.8028564453125,15.73936939239502,-30.674659729003906,138.202392578125
2139,116.36511993408205,-68.95066833496094,-94.92613983154295,59.24562454223633
2140,98.93717956542969,-70.34564971923828,-102.3760223388672,46.84037780761719
2141,115.55355834960938,-26.55889892578125,-75.66565704345703,85.51467895507812
2142,160.89610290527344,13.18127727508545,-27.24143218994141,136.171630859375
2143,112.3821258544922,-49.5031852722168,-82.01600646972656,59.7430305480957
2144,97.79651641845705,-46.21581268310547,-92.91033172607422,47.352745056152344
2145,116.99342346191406,6.195144176483153,-72.14640808105469,83.2819595336914
2146,158.82794189453125,60.89866256713867,-26.23913764953613,124.83972930908205
2147,116.64935302734376,-88.71229553222656,-83.55684661865234,54.93352127075195
2148,106.69747924804688,-61.6503791809082,-101.9758529663086,52.45022583007813
2149,129.72030639648438,-24.51317405700684,-66.39818572998047,92.59805297851562
2150,169.35202026367188,23.709095001220703,-28.965524673461914,140.05738830566406
2151,111.0207977294922,-69.01050567626953,-88.06342315673828,60.4124755859375
2152,109.03117370605469,-36.35369873046875,-98.89791107177734,56.82590866088867
2153,122.86880493164062,-61.9383544921875,-84.73491668701172,85.59696197509766
2154,168.14402770996094,0.9069257378578186,-34.53049468994141,136.61293029785156
2155,114.3567886352539,-73.16179656982422,-94.33523559570312,67.79877471923828
2156,103.82523345947266,-64.44408416748047,-104.42174530029295,54.85872268676758
2157,126.19357299804688,-49.69018173217773,-82.7078857421875,90.5261459350586
2158,164.56869506835938,-1.538968801498413,-36.52386474609375,137.28985595703122
2159,113.09644317626952,-68.45326232910156,-92.78691864013672,64.47026824951172
2160,111.10308074951172,-72.11087799072266,-107.3388671875,52.39038848876953
2161,130.08306884765622,-25.900676727294922,-82.5620346069336,82.65740203857422
2162,168.02435302734375,0.2599230408668518,-33.804954528808594,132.73092651367188
2163,117.3000946044922,-65.76801300048828,-87.5660171508789,53.84521102905274
2164,100.9604721069336,-69.35831451416016,-103.11652374267578,40.88645553588867
2165,120.07135772705078,-41.31654357910156,-78.3696060180664,76.57632446289062
2166,165.11471557617188,17.553220748901367,-36.14987182617188,123.59434509277344
2167,111.6453628540039,11.105632781982422,-84.1290512084961,52.51754379272461
2168,102.31805419921876,-78.04984283447266,-101.69161987304688,44.99286651611328
2169,129.90354919433594,-55.48328399658203,-74.1734390258789,87.4781265258789
2170,174.76365661621094,10.48854923248291,-28.296083450317386,137.25245666503906
2171,123.80377960205078,-75.23369598388672,-88.34765625,66.53095245361328
2172,98.42481994628906,-84.08604431152344,-109.19760131835938,54.85872268676758
2173,122.6481475830078,-28.301692962646484,-83.54188537597656,88.33456420898438
2174,169.0191650390625,19.976675033569336,-36.94272994995117,138.47914123535156
2175,120.70713806152344,-73.37496948242188,-93.1646499633789,64.93027496337889
2176,107.01910400390624,-64.55254364013672,-99.37287902832031,52.02761840820313
2177,132.00538635253906,-24.210243225097656,-74.356689453125,89.47149658203125
2178,170.2421112060547,10.656845092773438,-32.567047119140625,131.69869995117188
2179,123.08197784423828,-65.7530517578125,-85.64744567871094,56.59403610229492
2180,114.39044952392578,-79.60189819335938,-98.52018737792969,46.3915901184082
2181,132.74961853027344,-44.65253448486328,-67.56877136230469,83.33058166503906
2182,173.53323364257812,18.043148040771484,-23.198598861694336,120.83055877685548
2183,122.33399963378906,-61.50826644897461,-79.85808563232422,52.80925750732422
2184,97.9535903930664,-61.71395874023438,-107.23040771484376,41.37638473510742
2185,127.9214096069336,-19.04918098449707,-71.43956756591797,75.71614074707031
2186,159.0224151611328,47.28168487548828,-33.50576400756836,120.29949188232422
2187,117.2028579711914,-42.06452560424805,-86.7170639038086,51.26467895507813
2188,107.33699798583984,-63.4642333984375,-100.52103424072266,49.89961624145508
2189,117.49830627441406,18.99308204650879,-76.80632781982422,81.90193939208984
2190,166.84254455566406,-0.39829933643341053,-36.033935546875,132.3980712890625
2191,125.75226593017578,-85.55207824707031,-91.8818588256836,69.32465362548828
2192,96.91015625,-66.32899475097656,-111.7968292236328,58.10495376586914
2193,112.99920654296876,-59.3914794921875,-83.8934326171875,93.76863861083984
2194,164.29940795898438,13.55152702331543,-31.160846710205078,136.39976501464844
2195,115.14965057373048,-39.65229034423828,-90.1727294921875,69.07408142089844
2196,102.8678207397461,-60.00856399536133,-104.545166015625,56.77729034423828
2197,116.27162170410156,-42.730228424072266,-81.51111602783203,85.83257293701172
2198,168.65640258789062,22.336551666259766,-28.90568733215332,142.944580078125
2199,116.1968231201172,-76.34819030761719,-93.5872573852539,72.37267303466797
2200,104.20670318603516,-87.29861450195312,-108.09806823730469,54.93352127075195
2201,122.49107360839844,-36.2153205871582,-78.75855255126953,89.03392791748047
2202,169.6960906982422,33.346817016601555,-31.041170120239254,133.01141357421878
2203,119.77216339111328,-70.46158599853516,-92.51016235351562,55.71516036987305
2204,96.97747802734376,-70.4728012084961,-107.6417999267578,43.89707565307617
2205,117.63668060302734,-29.07585144042969,-85.79330444335938,79.18302917480469
2206,162.55288696289062,43.11917495727539,-29.21609878540039,134.23809814453122
2207,113.05530548095705,-46.0101203918457,-89.29385375976562,60.45735168457031
2208,109.28548431396484,-81.86454010009766,-100.4350128173828,55.65906143188477
2209,128.39637756347656,-43.81853866577149,-82.28153991699219,99.31117248535156
2210,166.53961181640625,26.08019256591797,-30.704578399658203,144.1450958251953
2211,113.6536865234375,-86.98446655273438,-94.4100341796875,63.80456161499024
2212,103.42880249023438,-76.96527099609375,-110.0315933227539,56.41452026367188
2213,118.50060272216795,-52.356727600097656,-83.42221069335938,83.5811538696289
2214,171.53985595703125,-2.0662946701049805,-38.40877151489258,133.83793640136722
2215,116.75406646728516,-59.29424285888672,-95.8125,59.350341796875
2216,108.84791564941406,-31.42824935913086,-107.11447143554688,43.14909744262695
2217,131.46682739257812,-84.65076446533203,-80.39289093017578,90.4214324951172
2218,175.6836700439453,16.304094314575195,-20.98457908630371,151.27708435058594
2219,119.28971862792969,-56.130287170410156,-79.76458740234375,75.31597900390625
2220,103.3764419555664,-60.049705505371094,-97.97042083740234,59.64579391479492
2221,126.29454803466795,-50.84207153320313,-80.55370330810547,90.53363037109376
2222,163.0016632080078,-2.5936205387115483,-32.911121368408196,136.9757080078125
2223,117.86107635498048,-59.17082595825195,-88.80018615722656,63.52033233642578
2224,108.107421875,-52.07997512817383,-102.2787857055664,48.92724227905274
2225,118.2275848388672,-34.12097549438477,-77.81983947753906,83.71578979492188
2226,167.50076293945312,16.812719345092773,-23.82690238952637,137.78352355957028
2227,111.15543365478516,-59.51489639282226,-79.96279907226562,71.897705078125
2228,100.89315032958984,-81.84957885742188,-99.8328857421875,62.17770767211914
2229,127.49505615234376,-28.41762924194336,-75.65069580078125,98.10692596435548
2230,165.06610107421875,28.20071601867676,-22.34590148925781,148.4235382080078
2231,122.85384368896484,-49.55928421020508,-78.39204406738281,74.71385192871094
2232,93.84343719482422,-59.7318115234375,-105.03883361816406,53.9798469543457
2233,117.14301300048828,-18.555513381958008,-85.49785614013672,87.08170318603516
2234,168.15899658203125,18.693889617919922,-29.86310195922852,138.542724609375
2235,119.79834747314452,-60.01978302001953,-89.02458190917969,67.53324127197266
2236,106.41324615478516,-80.30500030517578,-106.23185729980469,48.29519653320313
2237,126.96399688720705,-36.985740661621094,-81.14834594726562,89.5612564086914
2238,175.08901977539062,31.06547927856445,-36.546302795410156,135.82008361816406
2239,127.73067474365234,-49.8360366821289,-93.183349609375,62.230064392089844
2240,103.00619506835938,-91.52096557617188,-107.58196258544922,50.99540710449219
2241,123.53824615478516,-17.942169189453125,-87.5660171508789,88.35326385498047
2242,165.9412384033203,-3.0685880184173584,-37.62339401245117,135.12445068359378
2243,116.24543762207031,-62.99300384521485,-89.14425659179688,70.59248352050781
2244,105.41468811035156,-67.69032287597656,-102.87716674804688,56.57907485961914
2245,119.98159790039062,-32.120132446289055,-79.51775360107422,90.3391571044922
2246,173.9521026611328,11.12059211730957,-31.53483581542969,138.1201171875
2247,118.37718200683594,-45.64360809326172,-93.183349609375,68.63277435302734
2248,115.88641357421876,-60.5246696472168,-105.1136245727539,51.24224090576172
2249,116.5221939086914,-34.285533905029304,-84.46189880371094,85.25289154052734
2250,166.9061279296875,-14.856752395629885,-33.232749938964844,135.00103759765622
2251,122.95108032226562,-69.62384796142578,-81.94868469238281,69.53408813476561
2252,111.08811950683594,-89.89410400390625,-105.13607025146484,49.08431625366211
2253,126.99391174316406,-43.328609466552734,-86.3355941772461,81.09412384033203
2254,171.63336181640625,20.31326675415039,-34.60155487060547,131.19381713867188
2255,122.16570281982422,-57.71974563598633,-85.0191421508789,63.04536437988281
2256,103.28294372558594,-74.4258804321289,-101.44104766845705,42.73396682739258
2257,124.4320831298828,-35.317745208740234,-81.38770294189453,82.81073760986328
2258,164.02639770507812,11.423524856567385,-36.15361404418945,137.74986267089844
2259,120.21721649169922,-53.98358535766602,-86.20843505859375,72.1744613647461
2260,107.96156311035156,-74.26506042480469,-102.26008605957031,57.53649139404297
2261,121.08860778808594,-25.23871421813965,-85.28467559814453,88.16252899169922
2262,175.60513305664062,3.610873460769653,-27.42842674255371,145.68592834472656
2263,124.74249267578124,-80.888427734375,-87.48748016357422,75.52540588378906
2264,115.00005340576172,-84.57970428466797,-104.25344848632812,58.718299865722656
2265,129.0059814453125,-34.266834259033196,-80.119873046875,95.6610336303711
2266,172.21304321289062,21.667110443115234,-28.019330978393555,143.4644317626953
2267,119.28598022460938,-61.88599395751953,-87.2219467163086,70.97769165039062
2268,107.51651763916016,-91.79771423339844,-102.41716003417969,53.2580451965332
2269,126.67601776123048,-36.63418960571289,-74.356689453125,91.5097427368164
2270,162.0255584716797,11.849872589111328,-33.636661529541016,136.60919189453122
2271,107.03032684326172,-64.85173797607422,-89.89971160888672,58.93147277832031
2272,100.1825714111328,-53.796592712402344,-96.37348175048828,50.9692268371582
2273,108.45149230957031,-35.8114128112793,-83.67278289794922,82.70601654052734
2274,163.12135314941406,24.99936103820801,-29.881799697875977,134.33534240722656
2275,112.93189239501952,-51.96403884887695,-84.86580657958984,64.14863586425781
2276,104.78264617919922,-76.7932357788086,-108.74880981445312,50.2661247253418
2277,130.22518920898438,-44.577735900878906,-87.50991821289062,83.1548080444336
2278,159.46372985839844,61.2689094543457,-38.39381408691406,132.88800048828122
2279,103.0361099243164,-40.706939697265625,-94.58580780029295,68.23260498046875
2280,104.40865325927734,-102.27691650390624,-110.16997528076172,53.29544448852539
2281,116.1781234741211,-45.13872146606445,-84.12156677246094,87.46317291259766
2282,165.327880859375,27.66964912414551,-30.330589294433594,139.58241271972656
2283,121.0549545288086,-59.38774108886719,-83.54188537597656,69.01798248291016
2284,103.24180603027344,-59.3204231262207,-99.86280822753906,51.99395751953125
2285,116.07340240478516,-27.33305931091309,-78.44065856933594,84.89759826660156
2286,163.8506317138672,2.5263023376464844,-29.74716377258301,138.14254760742188
2287,119.10646057128906,-62.33478164672852,-81.29794311523438,73.94343566894531
2288,104.53207397460938,-70.23345184326172,-102.05438995361328,48.57569122314453
2289,110.60941314697266,-32.681114196777344,-78.76229095458984,80.85476684570312
2290,164.6210479736328,15.170904159545898,-27.56306266784668,126.07763671875
2291,117.22903442382812,-53.86764907836914,-85.30337524414062,60.22921752929688
2292,103.0323715209961,-53.26178359985352,-104.37313079833984,52.26323318481445
2293,118.30238342285156,-26.17742919921875,-82.91358184814453,77.89276885986328
2294,172.77777099609375,24.374797821044922,-31.77419090270996,127.9027099609375
2295,122.93985748291016,-50.04547119140625,-89.54816436767578,57.28965759277344
2296,107.65863037109376,-61.38110733032226,-102.35358428955078,45.96150207519531
2297,123.79255676269531,-23.802593231201172,-79.15498352050781,77.34674072265625
2298,166.19180297851562,4.717883586883545,-32.970958709716804,126.4553680419922
2299,122.17317962646484,-59.44384002685547,-86.92649841308594,67.52576446533203
2300,102.68082427978516,-82.6948013305664,-108.54685974121094,46.38037109375
2301,124.63029479980469,-20.485301971435547,-81.85893249511719,81.94307708740234
2302,168.79476928710938,15.915143966674805,-32.522171020507805,131.23869323730472
2303,120.28453063964844,-36.5332145690918,-84.7723159790039,63.64374923706055
2304,108.64222717285156,-60.96971893310547,-105.19216918945312,47.93990707397461
2305,124.97810363769531,-44.60765838623047,-79.47661590576172,77.99748229980469
2306,174.0680389404297,8.33062744140625,-34.49309539794922,123.73271942138672
2307,129.26029968261722,-48.03340530395508,-81.94868469238281,57.60007095336914
2308,108.1709976196289,-45.64360809326172,-103.65506744384766,39.87668228149414
2309,122.12456512451172,-54.74652481079102,-83.44464874267578,80.13296508789062
2310,179.05331420898438,12.399638175964355,-26.79638290405273,135.0272216796875
2311,124.81729125976562,-60.0908432006836,-84.60401916503906,66.38135528564453
2312,97.6506576538086,-10.94107723236084,-107.52960205078124,43.3809700012207
2313,126.6386260986328,-56.9904670715332,-82.29275512695312,77.06624603271484
2314,173.75013732910156,4.2167372703552255,-28.48307800292969,132.57759094238278
2315,128.08222961425778,-57.45047378540039,-86.81803894042969,59.47749710083008
2316,101.89918518066406,-68.98432159423828,-110.25972747802734,36.2153205871582
2317,120.19103240966795,-44.155128479003906,-81.93746948242188,76.58753967285156
2318,170.66098022460938,14.602438926696776,-28.34470176696777,129.97087097167972
2319,134.10346984863278,-49.0506591796875,-78.94928741455078,65.3304443359375
2320,98.3948974609375,-74.63905334472656,-105.06501007080078,40.44514846801758
2321,113.3096160888672,-11.8461332321167,-78.2125244140625,77.65715026855469
2322,160.29397583007812,16.472389221191403,-31.725570678710934,127.99246978759766
2323,116.87000274658205,-43.21641540527344,-83.80741882324219,63.75968551635742
2324,104.3151626586914,-63.40065383911133,-106.10469818115234,46.80671691894531
2325,121.2793426513672,-27.25452041625977,-87.00503540039062,74.784912109375
2326,168.45819091796875,11.490842819213867,-37.42891693115234,132.14375305175778
2327,124.80606842041016,-52.67462158203125,-82.9472427368164,67.30136871337889
2328,99.02320098876952,-75.7311019897461,-101.87113189697266,51.48159408569336
2329,112.6663589477539,-16.184417724609375,-77.60292053222656,87.55667114257812
2330,160.33511352539062,31.779800415039066,-26.886140823364254,140.73805236816406
2331,110.57575225830078,-48.69536590576172,-92.15861511230469,65.75679016113281
2332,97.66935729980469,-72.84016418457031,-108.17286682128906,41.57833862304688
2333,116.0584487915039,-32.38192367553711,-82.43487548828125,70.8542709350586
2334,166.9510040283203,31.84711837768555,-34.52301788330078,124.05809020996094
2335,120.64730072021484,-32.789573669433594,-83.43716430664062,53.6993522644043
2336,98.45099639892578,-60.74906539916992,-117.597412109375,35.467342376708984
2337,127.86904907226562,-33.91154098510742,-92.77195739746094,73.84619140625
2338,168.62648010253906,18.27128028869629,-35.760921478271484,125.94673919677734
2339,116.69796752929688,-48.47845458984375,-96.14534759521484,56.02931213378906
2340,98.00595092773438,-69.90059661865234,-111.78560638427734,32.61379623413086
2341,123.65792083740234,-41.047271728515625,-81.2418441772461,70.5887451171875
2342,160.6305694580078,30.575551986694336,-27.27882957458496,115.00753021240234
2343,125.2922592163086,-27.34427833557129,-77.90211486816406,56.83712768554688
2344,97.52349853515624,-71.68079376220703,-103.67750549316406,37.3597297668457
2345,125.62885284423828,-34.158374786376946,-81.1221694946289,77.80674743652344
2346,169.46795654296875,47.47990036010742,-35.07278060913086,131.74359130859378
2347,125.32592010498048,-60.18434143066406,-91.92674255371094,68.47570037841797
2348,102.69952392578124,-77.2569808959961,-109.5267105102539,55.5767822265625
2349,110.56452941894531,-19.59520530700684,-88.19058227539062,81.34469604492188
2350,167.33621215820312,3.307941436767578,-39.27642822265625,136.37358093261722
2351,113.16002655029295,-68.57293701171875,-95.894775390625,66.96477508544922
2352,99.72630310058594,-55.96573257446289,-113.13571166992188,51.60874938964844
2353,113.90052032470705,-55.76751708984375,-92.94025421142578,79.23912811279297
2354,166.0235137939453,68.21016693115234,-36.93899154663086,125.78218841552734
2355,128.47491455078122,-94.76719665527344,-85.68110656738281,66.29907989501953
2356,111.86227416992188,-98.24156188964844,-111.26202392578124,50.62141418457031
2357,132.345703125,-56.94184494018555,-79.08018493652344,80.72013092041016
2358,173.45843505859375,13.708602905273438,-40.19270324707031,133.01515197753906
2359,118.4856414794922,-56.089149475097656,-96.74747467041016,64.32814788818361
2360,112.31106567382812,-65.82036590576172,-111.5574722290039,44.97042846679688
2361,110.18680572509766,-51.975257873535156,-90.5130615234375,71.20956420898438
2362,165.8028564453125,15.365379333496096,-37.32419967651367,122.36017608642578
2363,127.5399398803711,-40.51994705200195,-85.50159454345703,64.32814788818361
2364,105.36233520507812,-59.43262100219727,-111.92772674560548,44.15886688232422
2365,123.24279022216795,-30.20530128479004,-87.80162811279297,81.47559356689453
2366,171.83157348632812,-1.2547364234924316,-34.94936370849609,137.2337646484375
2367,124.88461303710938,-44.37204360961914,-86.85543823242188,70.68223571777344
2368,95.20850372314452,-73.763916015625,-118.96247863769531,47.34152221679688
2369,113.5115737915039,-37.31485366821289,-91.997802734375,76.70347595214844
2370,167.55686950683594,7.436790943145753,-42.8779525756836,138.79704284667972
2371,114.48020935058594,-38.990325927734375,-91.40689849853516,71.52371978759766
2372,90.3017578125,-69.56401062011719,-118.74930572509766,49.32741165161133
2373,104.8611831665039,-49.89213562011719,-96.68389129638672,76.95779418945312
2374,150.72357177734375,21.01262855529785,-44.130821228027344,125.70738983154295
2375,112.427001953125,-59.77294921875,-98.1648941040039,59.78417205810547
2376,100.1002960205078,-97.56464385986328,-121.01942443847656,32.703556060791016
2377,116.59325408935548,-41.37638473510742,-91.73600769042969,70.12499237060547
2378,172.01856994628906,25.036760330200195,-43.42771911621094,124.64151763916016
2379,125.89064025878906,-45.96150207519531,-86.70584106445312,64.17855072021484
2380,100.87818908691406,-76.18363189697266,-110.6673812866211,54.21171951293945
2381,123.75889587402344,-38.92675018310547,-77.80113983154297,82.14877319335938
2382,169.21363830566406,8.435344696044924,-32.529651641845696,134.77290344238278
2383,118.190185546875,-28.49242782592773,-80.36296844482422,70.94403076171875
2384,104.34507751464844,-56.52671813964844,-102.67521667480469,55.72264099121094
2385,112.5466766357422,-23.98958778381348,-88.96099853515625,82.8144760131836
2386,160.43609619140625,23.13315200805664,-35.20367813110352,136.25764465332028
2387,119.75720977783205,-32.41184234619141,-83.77375793457031,72.2155990600586
2388,96.87649536132812,-79.39994812011719,-122.26107025146484,44.79839324951172
2389,117.2252960205078,-45.03774642944336,-97.63008880615234,74.4857177734375
2390,164.17225646972656,11.232789993286133,-40.33481979370117,125.34087371826172
2391,121.76179504394531,-55.19157409667969,-93.26188659667969,57.39811325073242
2392,97.11585235595705,-86.90966796875,-117.26082611083984,34.95497512817383
2393,117.22903442382812,-38.58641815185547,-92.36804962158205,74.42961883544922
2394,158.4240264892578,34.906356811523445,-41.22865676879883,125.87942504882812
2395,111.39852905273438,-41.331504821777344,-89.86605834960938,58.2358512878418
2396,94.50540161132812,-72.0959243774414,-116.6923599243164,33.51137542724609
2397,114.13613891601562,-42.58063125610352,-93.14968872070312,68.47570037841797
2398,162.40328979492188,7.36573314666748,-37.67949295043945,120.52762603759766
2399,116.71666717529295,-36.18914031982422,-90.296142578125,59.630836486816406
2400,91.99592590332031,-79.57198333740234,-116.63999938964844,37.59534454345703
2401,106.2636489868164,-41.03979110717773,-94.98971557617188,64.83677673339844
2402,159.83396911621094,37.95811462402344,-39.32878875732422,131.19755554199222
2403,120.22843170166016,-52.60730361938477,-89.89971160888672,72.39884948730469
2404,95.4254150390625,-68.60659790039061,-107.26780700683594,54.61562728881836
2405,121.36536407470705,-50.3072624206543,-78.60147857666016,94.32962799072266
2406,163.91793823242188,18.316160202026367,-33.756336212158196,145.65602111816406
2407,111.52568817138672,-61.085655212402344,-89.37612915039062,80.01329040527344
2408,94.4979248046875,-100.49298095703124,-116.76715850830078,56.167686462402344
2409,115.14216613769531,-41.96354675292969,-89.1704330444336,88.58888244628906
2410,161.35984802246094,-8.210949897766112,-36.98760986328125,137.58157348632812
2411,116.68675231933594,-73.96961212158203,-89.03205871582031,74.04814910888672
2412,103.24742126464844,-73.41984558105469,-107.21358489990234,47.82023239135742
2413,112.60464477539062,17.818754196166992,-93.4544906616211,68.17276763916016
2414,166.49661254882812,-12.429557800292967,-35.87125015258789,122.6219711303711
2415,127.1528549194336,-65.32295989990234,-83.2819595336914,60.41995239257813
2416,100.80525970458984,-98.93344116210938,-103.5896224975586,39.427894592285156
2417,121.74122619628906,-46.98623275756836,-87.56788635253906,74.69141387939453
2418,170.92465209960938,17.50834083557129,-41.00239181518555,134.80656433105472
2419,124.20955657958984,-53.93122863769531,-88.24481201171875,75.35711669921875
2420,97.20748138427734,-79.53084564208984,-114.49142456054688,50.41946029663086
2421,106.43755340576172,-49.222694396972656,-94.46052551269531,79.26905059814453
2422,160.72219848632812,4.444870948791504,-40.92385482788086,138.89801025390622
2423,117.2383804321289,-48.01096725463867,-87.6913070678711,74.88214874267578
2424,101.8786163330078,-48.86740112304688,-107.36317443847656,55.88345336914063
2425,121.10543823242188,-61.96453094482422,-82.14877319335938,91.00859832763672
2426,161.84791564941406,-5.013335704803467,-40.80418014526367,144.481689453125
2427,118.42767333984376,-63.30715560913086,-86.58055114746094,76.72966003417969
2428,103.53913116455078,-64.15985107421875,-110.26908111572266,51.39557647705078
2429,115.91445922851562,-77.01014709472656,-94.16506958007812,79.58694458007812
2430,167.46524047851562,3.012489318847656,-35.82637023925781,139.32435607910156
2431,113.84629821777344,-73.28894805908203,-94.12393188476562,72.26795959472656
2432,91.09274291992188,-83.6222915649414,-119.37199401855469,50.69995498657226
2433,108.99938201904295,-47.40510177612305,-95.21598052978516,85.00605773925781
2434,156.58213806152344,14.187310218811035,-40.20953369140625,132.274658203125
2435,116.32210540771484,-50.6588134765625,-84.93125915527344,65.15840911865234
2436,93.1609115600586,-70.01279449462889,-116.36885833740234,38.096492767333984
2437,105.65217590332031,-47.44623947143555,-90.5672836303711,70.51768493652344
2438,163.43736267089844,21.487594604492188,-38.34706497192383,129.99331665039062
2439,124.89022064208984,-39.81310653686523,-83.01268768310547,75.29727935791016
2440,94.11458587646484,-31.83589744567871,-99.88337707519531,61.68030166625977
2441,112.7018814086914,-25.5640869140625,-83.24830627441406,94.04165649414062
2442,166.6387176513672,-18.26380157470703,-40.16839599609375,148.86859130859375
2443,117.02520751953124,-60.62191009521485,-76.24720764160156,86.15420532226562
2444,98.67726135253906,-65.59597778320311,-101.7084503173828,59.40270233154297
2445,107.10325622558594,-34.132198333740234,-92.17544555664062,87.0106430053711
2446,162.0797882080078,45.16864013671875,-38.55649948120117,140.59967041015622
2447,112.9823760986328,-34.42390823364258,-88.79083251953125,74.1229476928711
2448,104.03279876708984,-104.26280212402344,-111.39105224609376,51.7807846069336
2449,119.25418853759766,-47.21062850952149,-91.18063354492188,80.0656509399414
2450,161.002685546875,-2.69833779335022,-42.87608337402344,131.75106811523438
2451,110.0128936767578,-68.53553771972656,-92.61675262451172,63.85318374633789
2452,89.85857391357422,-62.85836791992188,-116.78398895263672,40.30303192138672
2453,114.75508880615234,-40.26189422607422,-98.77262878417969,69.73978424072266
2454,162.5360565185547,13.435590744018555,-34.80163955688477,128.55345153808594
2455,126.0271453857422,-26.06523323059082,-80.28256225585938,73.3824462890625
2456,105.2707061767578,-56.64639282226562,-106.05421447753906,49.9257926940918
2457,119.09711456298828,-37.0081787109375,-91.36388397216795,82.1749496459961
2458,163.53086853027344,30.04822540283203,-34.46130752563477,135.36006164550778
2459,124.3404541015625,-81.393310546875,-85.1668701171875,73.20667266845703
2460,99.05873107910156,-86.78624725341797,-104.98460388183594,61.9794921875
2461,110.84689331054688,-61.15297317504883,-92.89350128173828,83.1959457397461
2462,163.35508728027344,11.101893424987793,-37.097938537597656,138.72224426269528
2463,113.91735076904295,-43.10421752929688,-84.99483489990234,78.41261291503906
2464,92.81309509277344,-80.52191925048828,-114.62606048583984,46.19337463378906
2465,112.2942352294922,-53.11967086791992,-90.49249267578124,82.36942291259766
2466,165.83837890625,19.30349349975586,-34.62212371826172,137.36839294433594
2467,122.51164245605469,-41.41004180908203,-84.40766906738281,68.05683135986328
2468,89.7725601196289,-74.43335723876953,-118.05181121826172,33.997562408447266
2469,103.6251449584961,-33.76942825317383,-99.93573760986328,67.00217437744139
2470,159.21876525878906,22.48240852355957,-42.00468444824219,128.00743103027344
2471,121.3934097290039,-58.718299865722656,-87.07421875,67.46218872070311
2472,103.59523010253906,-67.24900817871094,-109.0760498046875,43.11917495727539
2473,117.26082611083984,-21.760608673095703,-86.65908813476562,71.46013641357422
2474,169.98219299316406,38.941707611083984,-37.6589241027832,128.7479248046875
2475,128.29353332519528,-39.55131149291992,-85.60070037841797,64.62734222412111
2476,103.57653045654295,-70.36434936523439,-114.9963150024414,39.82432556152344
2477,117.1336669921875,-36.74264526367188,-89.91280364990234,78.07975769042969
2478,159.21128845214844,34.465049743652344,-33.30941772460937,136.96449279785156
2479,121.10169982910156,-41.52972030639648,-81.6289291381836,79.75897979736328
2480,87.22942352294922,-0.5291958451271057,-114.53630828857422,41.70923614501953
2481,111.06381225585938,-51.00288391113281,-93.435791015625,77.14478302001953
2482,154.19981384277344,22.97233581542969,-40.332950592041016,136.36236572265622
2483,119.88249206542969,-52.64470291137695,-87.94187927246094,78.3004150390625
2484,104.85557556152344,-75.49175262451172,-107.86058807373048,52.12859725952149
2485,110.98152923583984,-41.858829498291016,-97.5683822631836,81.82714080810547
2486,155.86407470703125,26.506540298461914,-40.15717697143555,136.50447082519528
2487,117.60863494873048,-38.23860549926758,-87.97554016113281,68.07926940917969
2488,93.6508331298828,-43.34357070922852,-121.2793426513672,39.97018051147461
2489,105.7531509399414,-21.300600051879886,-102.41529083251952,69.49668884277344
2490,158.10052490234375,-3.6482725143432617,-54.64928817749024,119.07280731201172
2491,121.09422302246094,-40.63588333129883,-95.7470474243164,62.82096862792969
2492,98.35936737060548,-52.34550857543945,-113.72474670410156,42.7190055847168
2493,110.97779083251952,-50.217506408691406,-94.2398681640625,69.81084442138672
2494,166.33578491210938,24.344879150390625,-34.15089797973633,129.3463134765625
2495,123.79068756103516,-43.60162353515625,-80.207763671875,69.42189025878906
2496,97.38699340820312,-58.80805587768555,-115.66201782226562,43.37348937988281
2497,113.3788070678711,-59.75799179077149,-91.27413177490234,81.16143798828125
2498,159.0691680908203,7.384432315826416,-33.76568603515625,141.3887939453125
2499,118.73434448242188,-52.734458923339844,-81.85706329345703,77.48885345458984
2500,92.0426788330078,-77.36170196533203,-118.953125,47.52103805541992
2501,117.59367370605469,-46.11483764648438,-94.84573364257812,78.79782104492188
2502,160.0901641845703,12.34727954864502,-41.8962287902832,131.81838989257812
2503,122.60887908935548,-46.47760772705078,-83.25204467773438,74.76246643066406
2504,97.12894439697266,-64.89661407470703,-116.37633514404295,41.79525375366211
2505,113.99588775634766,-20.2646484375,-94.5615005493164,76.24720764160156
2506,161.36920166015625,20.578800201416016,-41.49605941772461,133.2432861328125
2507,116.47918701171876,-55.35239028930664,-87.79228210449219,69.81084442138672
2508,92.77569580078124,-56.00687026977539,-120.0788345336914,45.32197570800781
2509,108.53563690185548,-4.362593173980713,-101.16990661621094,71.37786102294922
2510,152.9656524658203,16.577106475830078,-50.94304656982422,126.0963363647461
2511,125.35770416259766,-69.93051910400389,-92.50081634521484,65.97370147705078
2512,106.4338150024414,-82.08893585205078,-111.39852905273438,42.41607666015625
2513,114.78874969482422,-39.57374954223633,-92.49333953857422,69.03668212890625
2514,163.23541259765625,9.957483291625977,-40.79669952392578,130.31120300292972
2515,128.60020446777344,-49.17781448364258,-88.08025360107422,74.8858871459961
2516,102.56675720214844,-60.99215698242188,-113.5489730834961,43.21641540527344
2517,108.52816009521484,-49.04691696166992,-99.46450805664062,77.9600830078125
2518,162.08352661132812,4.5084495544433585,-41.15946960449219,142.21156311035156
2519,120.308837890625,-36.5967903137207,-88.01667785644531,80.70516967773438
2520,94.68304443359376,-47.07225036621094,-118.7474365234375,48.69536590576172
2521,112.679443359375,-48.29519653320313,-94.59142303466795,80.83980560302734
2522,159.46932983398438,1.1874182224273682,-40.30677032470703,138.51280212402344
2523,121.52804565429688,-30.30253982543945,-82.21983337402344,75.6937026977539
2524,90.3185806274414,-81.41949462890625,-116.50349426269531,41.23426818847656
2525,118.30799865722656,-50.96174621582031,-91.27413177490234,73.681640625
2526,164.42843627929688,11.483363151550293,-34.93627548217773,127.0986328125
2527,123.02400970458984,0.14398615062236786,-77.51129913330078,61.9981918334961
2528,103.23246002197266,-92.74391174316406,-107.2098388671875,41.46987915039063
2529,125.28290557861328,-54.795143127441406,-87.78105926513672,76.0115966796875
2530,167.13612365722656,14.52390193939209,-37.51306533813477,131.59773254394528
2531,123.81312561035156,-37.7711181640625,-76.90543365478516,70.7757339477539
2532,100.63697052001952,-71.7555923461914,-108.5936050415039,38.582679748535156
2533,117.10000610351562,-37.10167694091797,-91.94357299804688,69.47798919677734
2534,163.67298889160156,38.30592346191406,-37.281192779541016,124.17776489257812
2535,125.907470703125,-52.68210220336914,-84.55726623535156,73.69660186767578
2536,99.81419372558594,-73.73400115966797,-108.47393035888672,46.16345596313477
2537,119.7403793334961,-26.13629150390625,-89.79686737060547,81.3746109008789
2538,161.8142547607422,14.123732566833494,-30.92710304260254,141.57203674316406
2539,122.73977661132812,-42.969581604003906,-76.3743667602539,86.25891876220703
2540,98.73336029052734,-81.35591125488281,-112.64017486572266,59.43635940551758
2541,111.77812957763672,-58.21341323852539,-86.65908813476562,81.98421478271484
2542,156.7279815673828,6.901985168457031,-40.23945236206055,132.38685607910156
2543,126.588134765625,-36.44345474243164,-77.61601257324219,75.05044555664062
2544,101.10819244384766,-70.4541015625,-108.76190185546876,43.21641540527344
2545,108.56555938720705,-60.18434143066406,-98.12936401367188,70.59622192382812
2546,157.1505889892578,22.14955711364746,-45.02278518676758,129.9334716796875
2547,124.95379638671876,-50.43815994262695,-85.7652587890625,67.55194091796875
2548,109.25370025634766,-38.86690902709961,-107.22106170654295,38.29470443725586
2549,109.66134643554688,-9.99114227294922,-98.75019073486328,57.24851989746094
2550,170.3075714111328,0.6301731467247009,-37.57290649414063,128.12336730957028
2551,137.16456604003906,-62.25998306274414,-75.09532165527344,65.73809051513672
2552,100.30785369873048,-71.91266632080078,-106.84333038330078,34.90261459350586
2553,108.78620910644531,-5.125533103942871,-88.41310119628906,61.68030166625977
2554,158.20150756835938,-20.201068878173828,-37.89453506469727,128.15327453613278
2555,123.34564208984376,-66.05972290039061,-82.75837707519531,70.71589660644531
2556,103.23619842529295,-74.22392272949219,-109.77167510986328,49.61538314819336
2557,120.82868957519531,-16.898738861083984,-85.65306091308594,86.64413452148438
2558,160.4716339111328,21.09116554260254,-41.16695022583008,139.70957946777344
2559,122.48920440673828,-21.872804641723636,-82.15998840332031,82.64244079589844
2560,92.93277740478516,-85.888671875,-114.18849182128906,53.40390014648438
2561,118.31173706054688,-43.7624397277832,-87.60154724121094,80.9108657836914
2562,157.68165588378906,18.30867958068848,-40.96125411987305,136.59797668457028
2563,118.2145004272461,-47.68559265136719,-88.27098846435547,76.01533508300781
2564,97.33837890625,-52.19965362548828,-112.7261962890625,48.73650741577149
2565,114.95704650878906,-33.081283569335945,-95.6797332763672,67.05827331542969
2566,166.56765747070312,9.78544807434082,-49.78741836547852,119.02792358398438
2567,126.52081298828124,-43.01445770263672,-92.93090057373048,65.69321441650389
2568,96.13787078857422,-51.930381774902344,-122.42749786376952,33.133644104003906
2569,106.9536590576172,-26.61873817443848,-102.35171508789062,56.93436813354492
2570,155.96878051757812,60.56954956054688,-54.23041915893555,107.29212188720705
2571,137.36653137207028,-73.97708892822266,-78.01618194580078,68.59163665771484
2572,109.463134765625,-86.79373168945312,-110.10826110839844,37.53176498413086
2573,121.66268920898438,-37.89827728271485,-88.1587905883789,63.07528305053711
2574,165.72244262695312,30.732627868652344,-38.63129806518555,131.6351318359375
2575,129.62118530273438,-37.711280822753906,-80.83232879638672,74.74376678466797
2576,107.91107177734376,-81.9505615234375,-116.33145904541016,41.29036712646485
2577,120.06948852539062,-44.74603271484375,-92.86358642578124,75.32345581054688
2578,164.81739807128906,10.088379859924316,-50.2661247253418,133.47142028808594
2579,127.24635314941406,-41.46614074707031,-89.198486328125,82.11885070800781
2580,97.93302154541016,-63.07528305053711,-121.1821060180664,43.48942565917969
2581,108.5019760131836,-40.44514846801758,-105.60916137695312,68.10918426513672
2582,157.5769500732422,30.6877498626709,-50.217506408691406,123.86361694335938
2583,128.16262817382812,-49.69766235351562,-85.65679931640625,74.05562591552734
2584,99.08490753173828,-45.00034713745117,-121.6421127319336,40.24693298339844
2585,121.43455505371094,-26.450443267822266,-101.46161651611328,71.19086456298828
2586,175.7229461669922,16.715482711791992,-52.06875610351562,127.74937438964844
2587,129.18736267089844,-51.23476028442383,-90.24191284179688,67.40608978271484
2588,107.03219604492188,-80.11426544189453,-117.2028579711914,36.85110473632813
2589,122.8370132446289,-41.46240234375,-95.0813446044922,72.29413604736328
2590,177.6302947998047,21.427757263183594,-40.04497909545898,129.57818603515622
2591,133.7537841796875,-35.22424697875977,-78.67440795898438,74.28002166748047
2592,104.97525024414062,-30.5119743347168,-110.49347686767578,47.397621154785156
2593,118.13970184326172,-43.06681823730469,-97.13455200195312,78.43505096435547
2594,167.18849182128906,5.679038047790527,-43.12665557861328,132.65986633300778
2595,128.15141296386722,-29.763994216918945,-78.23310089111328,84.41889190673828
2596,109.11157989501952,-69.25360107421875,-110.91234588623048,51.95281982421875
2597,125.40632629394531,-44.98164749145508,-95.20476531982422,83.30814361572266
2598,161.0400848388672,9.983662605285645,-42.94713973999024,138.0789794921875
2599,126.03089141845705,-31.61898422241211,-79.90109252929688,85.46980285644531
2600,98.1611557006836,-64.48148345947266,-112.99920654296876,49.21521377563477
2601,114.81867218017578,-36.48459243774414,-89.73703002929688,78.33407592773438
2602,164.910888671875,36.563133239746094,-40.7929573059082,129.47346496582028
2603,131.62203979492188,-13.084039688110352,-75.85452270507812,74.50067901611328
2604,101.09697723388672,-41.0996322631836,-117.92839813232422,38.54153823852539
2605,121.43455505371094,-40.42271041870117,-98.0508270263672,69.05538177490234
2606,161.10740661621094,12.833466529846193,-40.25441360473633,117.03456115722656
2607,127.25757598876952,-19.8831787109375,-79.28026580810547,68.08674621582031
2608,100.81648254394531,-58.90529251098633,-111.63788604736328,35.92734909057617
2609,112.44009399414062,-28.484947204589844,-88.58888244628906,67.22283172607422
2610,172.11019897460938,38.91552734375,-30.874744415283203,136.70643615722656
2611,117.24960327148438,-32.30338668823242,-84.73678588867188,71.57233428955078
2612,94.23799896240234,-62.54421615600586,-113.32831573486328,46.91891479492188
2613,107.13504028320312,-47.26859664916992,-94.65686798095705,76.60063171386719
2614,160.85870361328125,26.76272392272949,-41.7260627746582,135.75088500976562
2615,119.26354217529295,-10.037891387939453,-85.9578628540039,79.66735076904297
2616,80.98566436767578,-3.365910053253174,-121.10169982910156,47.4555892944336
2617,105.59420776367188,-80.12735748291016,-95.13557434082031,82.24787902832031
2618,160.9709014892578,13.717952728271484,-46.07556915283203,140.321044921875
2619,117.55066680908205,-45.28270721435547,-94.44743347167969,76.79510498046875
2620,94.31092834472656,-81.53356170654297,-127.17903900146484,46.14662551879883
2621,109.76419067382812,-33.50950241088867,-103.33343505859376,69.64441680908203
2622,161.67027282714844,39.36244583129883,-48.13251113891602,120.91844177246094
2623,124.98558807373048,-41.52410888671875,-93.89019012451172,62.403968811035156
2624,98.14432525634766,-50.55596923828125,-121.0119400024414,32.439891815185554
2625,115.97616577148438,-49.52001571655274,-104.5264663696289,57.744056701660156
2626,162.21255493164062,11.563770294189453,-54.03781509399414,107.46228790283205
2627,134.15582275390622,-26.42613220214844,-84.48433685302734,62.83031845092773
2628,105.61664581298828,-78.80342864990234,-118.97369384765624,28.9917049407959
2629,122.55464935302734,-31.538576126098636,-103.00432586669922,61.53257369995117
2630,162.54539489746094,35.775882720947266,-47.73234176635742,115.9518585205078
2631,127.9251480102539,-36.55752182006836,-88.81888580322266,65.73248291015625
2632,105.0781021118164,-83.71392059326172,-123.5812530517578,39.85237503051758
2633,131.53041076660156,-41.6737060546875,-95.65167999267578,78.30602264404297
2634,159.72177124023438,18.445186614990234,-53.42073059082031,130.30558776855472
2635,129.92599487304688,-31.69565200805664,-83.64659881591797,82.37877655029297
2636,96.40901184082031,-65.19019317626953,-120.36493682861328,50.71304321289063
2637,107.1238250732422,-34.83342742919922,-103.09408569335938,79.110107421875
2638,163.0390625,-1.7652328014373782,-51.9434700012207,136.94766235351562
2639,129.05833435058594,-50.88507843017578,-90.2138671875,78.88945007324219
2640,104.5171127319336,-83.31375122070312,-122.0703353881836,47.29851531982422
2641,117.74140167236328,-66.36826324462889,-106.5385284423828,70.20166015625
2642,160.6642303466797,16.530357360839847,-56.831520080566406,123.00157165527344
2643,123.26148986816406,-34.818470001220696,-99.35417938232422,71.94071197509766
2644,91.33770751953124,-79.38311767578125,-133.27880859375,35.50286865234375
2645,115.76299285888672,-55.877845764160156,-106.71804809570312,69.88377380371094
2646,161.3074951171875,19.09218978881836,-54.46042251586914,123.52889251708984
2647,130.30746459960938,-18.17217445373535,-82.03844451904297,74.31181335449219
2648,101.33819580078124,-42.892913818359375,-124.45639038085938,34.75115203857422
2649,107.2285385131836,-67.46031188964844,-115.9443817138672,56.39768981933594
2650,173.37615966796875,-1.9933667182922363,-44.785301208496094,127.78115844726562
2651,132.45416259765622,-45.1480712890625,-89.05823516845703,71.55176544189453
2652,98.0358657836914,-62.56852722167969,-122.41814422607422,36.0040168762207
2653,111.61544799804688,-61.88786315917969,-101.9758529663086,64.64417266845703
2654,163.50282287597656,15.18399429321289,-49.23952102661133,124.64712524414062
2655,133.84915161132812,-24.36170768737793,-81.75047302246094,83.32122802734375
2656,101.05397033691406,-84.67133331298828,-124.17589569091795,46.33362197875977
2657,113.37319946289062,-67.15364074707031,-100.4312744140625,76.8437271118164
2658,157.59002685546875,6.18205451965332,-54.84189224243164,138.97842407226562
2659,125.42689514160156,-56.91753768920898,-93.5872573852539,79.39059448242188
2660,95.75827026367188,-95.54322052001952,-121.86090087890624,46.24760437011719
2661,109.3976821899414,-61.7382698059082,-103.81214141845705,73.70968627929688
2662,159.09347534179688,27.22273254394531,-48.27836990356445,129.71095275878906
2663,119.86566162109376,-29.64618682861328,-91.0777816772461,64.95084381103516
2664,86.08688354492188,-52.03322982788086,-125.64567565917969,30.37172698974609
2665,113.14132690429688,-53.67504501342773,-99.95256805419922,66.33086395263672
2666,163.461669921875,25.16204643249512,-41.31841659545898,120.13680267333984
2667,130.25885009765622,-47.055419921875,-75.22061157226562,65.45947265625
2668,98.38367462158205,-65.96435546875,-107.51464080810548,32.04346466064453
2669,106.92186737060548,-43.59601211547852,-92.58122253417969,56.719322204589844
2670,156.41197204589844,17.588748931884766,-41.292236328125,118.28929901123048
2671,135.326416015625,-23.411773681640625,-73.42919921875,74.47636413574219
2672,94.27352905273438,-71.02818298339844,-108.61791229248048,36.32564926147461
2673,114.798095703125,-33.24023056030273,-88.17935943603516,68.04747772216797
2674,160.87741088867188,10.224886894226074,-38.158199310302734,125.81397247314452
2675,127.08740997314452,-36.55004119873047,-69.50604248046875,82.95098114013672
2676,94.54280090332031,-77.21023559570312,-113.09831237792969,46.82354736328125
2677,109.78289031982422,-53.42446899414063,-92.21097564697266,74.56612396240234
2678,156.6438446044922,24.649681091308594,-35.001724243164055,135.79576110839844
2679,121.04747009277344,-35.42807388305664,-82.31520080566406,83.1080551147461
2680,97.11959075927734,-66.23736572265625,-110.87307739257812,53.10284042358398
2681,107.9727783203125,-49.58733367919922,-98.53888702392578,81.08850860595703
2682,157.48158264160156,12.135974884033205,-46.2214241027832,138.114501953125
2683,121.74683380126952,-31.8377685546875,-83.91587829589844,80.4789047241211
2684,90.67574310302734,-67.93154144287111,-116.22860717773438,45.30514907836914
2685,106.95552825927734,-47.186317443847656,-88.10082244873047,78.59025573730469
2686,155.4508056640625,4.424301624298097,-40.00196838378906,134.0828857421875
2687,126.41423034667969,-47.82583999633789,-83.28009033203125,74.53246307373047
2688,93.86213684082031,-81.2007064819336,-114.25768280029295,43.22576522827149
2689,118.13408660888672,-33.73763656616211,-90.13533020019531,86.79185485839844
2690,162.79971313476562,1.5744979381561282,-43.738128662109375,131.65196228027344
2691,134.02867126464844,-49.6322135925293,-71.02818298339844,88.3700942993164
2692,101.92162322998048,-70.4372787475586,-111.3106460571289,48.1474723815918
2693,111.65283966064452,-27.66777992248535,-92.66724395751952,76.83624267578125
2694,151.9091339111328,96.33234405517578,-44.08967971801758,131.85017395019528
2695,121.24942779541016,-98.71466064453124,-80.49012756347656,86.29071044921875
2696,95.3431396484375,-84.2936019897461,-113.39376831054688,53.56284713745117
2697,107.47537231445312,-56.94371795654297,-100.24053955078124,74.22579193115234
2698,149.81478881835938,3.9455945491790767,-51.89859008789063,136.14732360839844
2699,126.42544555664062,-32.185577392578125,-83.29878997802734,90.1914291381836
2700,93.88832092285156,-56.8277816772461,-120.28266143798828,51.5919189453125
2701,114.52882385253906,-48.29332733154297,-94.87752532958984,78.73611450195312
2702,159.34030151367188,6.814097881317139,-51.21419143676758,129.87924194335938
2703,127.00139617919922,-28.71495246887207,-80.44898986816406,78.84831237792969
2704,103.0323715209961,-74.30432891845703,-119.19061279296876,40.77238845825195
2705,114.30817413330078,-37.38029861450195,-105.52501678466795,64.49831390380861
2706,167.37734985351562,18.991212844848636,-47.81088256835938,125.81771087646484
2707,129.31265258789062,-14.10316276550293,-83.58676147460938,74.2108383178711
2708,104.9172821044922,-61.977622985839844,-112.52236938476562,42.10379409790039
2709,110.9646987915039,-52.95324325561523,-101.8561782836914,67.64730834960939
2710,166.4386444091797,25.19196701049805,-40.43206024169922,125.0996551513672
2711,137.49554443359378,-36.37800598144531,-78.84457397460938,84.95930480957031
2712,103.62701416015624,-79.30458068847656,-106.52356719970705,49.935142517089844
2713,118.953125,-42.54510116577149,-87.16958618164062,73.07764434814453
2714,176.71588134765625,22.862009048461914,-36.374267578125,135.72096252441406
2715,127.0799331665039,-32.873722076416016,-68.70570373535156,89.34246826171875
2716,99.06433868408205,-51.58443832397461,-106.40015411376952,50.0959587097168
2717,113.75840759277344,-15.221392631530762,-95.24029541015624,78.62017822265625
2718,163.45419311523438,1.5670180320739746,-47.55282974243164,132.0521240234375
2719,132.37562561035156,-41.79338073730469,-82.08706665039062,84.84336853027344
2720,109.62955474853516,-59.02684020996094,-106.93122100830078,50.578407287597656
2721,118.7698745727539,-50.3951530456543,-95.5170440673828,71.0057373046875
2722,165.64952087402344,4.861869812011719,-42.57876205444336,126.2029266357422
2723,133.31808471679688,-32.60818862915039,-80.61354064941406,76.40241241455078
2724,101.73836517333984,-60.56393814086914,-110.3681869506836,43.54365539550781
2725,112.27366638183594,-43.25568389892578,-94.87004089355469,60.65743637084961
2726,161.2626190185547,13.740392684936525,-42.97893142700195,120.85112762451172
2727,129.46598815917972,-39.8598518371582,-70.14930725097656,76.02842712402344
2728,93.18521881103516,-46.382240295410156,-112.2792739868164,37.922584533691406
2729,100.82209014892578,-3.7997384071350098,-105.15850830078124,64.60677337646484
2730,162.7136993408203,-1.892389416694641,-43.86902618408203,135.05152893066406
2731,140.2855224609375,-45.97459030151367,-76.91852569580078,93.69197082519531
2732,106.85829162597656,-81.48493957519531,-114.28385925292969,56.03866195678711
2733,128.366455078125,-43.77552795410156,-90.16524505615234,87.13592529296875
2734,158.82794189453125,38.214298248291016,-49.87530517578125,128.57402038574222
2735,124.85842895507812,-48.44666290283203,-81.04363250732422,83.77749633789062
2736,98.2939224243164,-82.37877655029297,-105.13232421875,54.10139465332031
2737,106.16266632080078,-38.43869018554688,-92.91781616210938,79.8917465209961
2738,160.89610290527344,11.522631645202635,-42.35062789916992,132.62432861328122
2739,130.31494140625,-33.247711181640625,-78.27984619140625,75.31410217285156
2740,95.17484283447266,-54.5501823425293,-117.09626770019531,31.00377082824707
2741,116.40625762939452,-62.04867935180664,-95.10565948486328,67.27706146240234
2742,157.9528045654297,-4.379422664642334,-46.27752304077149,121.34105682373048
2743,130.54307556152344,-14.46967315673828,-72.86447143554688,67.35559844970703
2744,102.5087890625,-79.5738525390625,-111.48268127441406,24.13731384277344
2745,114.23711395263672,-33.06819534301758,-86.70584106445312,61.52135467529297
2746,157.85931396484375,19.626995086669922,-39.34748840332031,123.22596740722656
2747,137.06919860839844,-28.51673698425293,-75.29166412353516,82.13568115234375
2748,97.32902526855469,-77.88341522216797,-109.74362182617188,50.7766227722168
2749,112.43447875976562,-32.271595001220696,-90.32606506347656,82.91732025146484
2750,153.966064453125,34.56415557861328,-45.25278854370117,137.16830444335938
2751,136.45585632324222,-41.47922897338867,-68.85155487060547,101.04087829589844
2752,92.68032836914062,-93.91636657714844,-123.95524597167969,47.65754699707031
2753,110.70664978027344,-70.71028900146484,-95.5918426513672,84.28986358642578
2754,151.85302734375,-1.5146595239639282,-49.10862731933594,142.08253479003906
2755,121.4813003540039,-29.78082275390625,-81.81031036376953,90.41956329345705
2756,106.65633392333984,-73.44415283203125,-112.8963623046875,47.71364212036133
2757,109.0947494506836,-55.49263381958008,-101.45974731445312,71.7088394165039
2758,161.5281524658203,3.867056608200073,-51.5208625793457,122.62010192871094
2759,133.09368896484378,-41.310935974121094,-83.59798431396484,75.83395385742188
2760,89.42662048339844,-84.04302978515625,-125.72795867919922,27.13671493530273
2761,118.68385314941406,-41.18377685546875,-94.0510025024414,67.44535827636719
2762,178.5970458984375,27.34240913391113,-41.92053985595703,125.0211181640625
2763,134.39143371582028,-54.179931640625,-80.34426879882812,74.79051971435547
2764,103.96734619140624,-80.0151596069336,-114.19784545898438,39.938392639160156
2765,116.37259674072266,-47.20501708984375,-104.57508087158205,61.01272964477539
2766,163.1288299560547,2.7039477825164795,-49.40407943725586,115.85462188720705
2767,131.87448120117188,-14.593090057373047,-77.65901947021484,76.27526092529297
2768,95.1823272705078,-39.22407150268555,-117.28326416015624,33.053234100341804
2769,125.50917053222656,-73.80318450927734,-88.7889633178711,78.26862335205078
2770,167.51199340820312,5.636029243469237,-39.85611343383789,134.16143798828122
2771,134.17825317382812,-36.64727783203125,-77.09803771972656,92.33812713623048
2772,102.08992004394531,-67.58747100830078,-108.73384857177734,58.71268844604492
2773,122.44245147705078,-41.6849250793457,-86.40290832519531,85.93167877197266
2774,155.99684143066406,5.119923114776611,-43.25568389892578,136.65968322753906
2775,137.52546691894528,-20.576929092407227,-70.037109375,88.85628509521484
2776,96.32673645019531,-60.36572647094727,-105.64469146728516,54.434242248535156
2777,124.77615356445312,-54.79701232910156,-90.1502914428711,80.7593994140625
2778,171.83157348632812,7.386302471160889,-37.17086410522461,132.16806030273438
2779,138.92793273925778,-36.08255386352539,-72.63633728027344,77.98439025878906
2780,100.6837158203125,-80.1385726928711,-119.10833740234376,30.42782592773437
2781,121.2008056640625,-44.3327751159668,-98.99889373779295,59.39709091186523
2782,163.7608642578125,37.37282180786133,-47.49673080444336,113.43116760253906
2783,143.7449188232422,-33.176651000976555,-70.037109375,73.58627319335938
2784,109.6557388305664,-69.92117309570311,-103.72986602783205,29.35821533203125
2785,116.3015365600586,-53.34967422485352,-87.39398193359375,51.65923690795898
2786,165.22317504882812,12.868995666503904,-37.00257110595703,113.49848175048828
2787,140.71934509277344,-22.099069595336914,-71.2002182006836,64.64417266845703
2788,104.98086547851562,-56.95493698120117,-106.04486083984376,38.498531341552734
2789,120.3331527709961,-54.16497039794922,-86.89283752441406,71.60038757324219
2790,168.9817657470703,12.543624877929688,-38.65560531616211,129.42671203613278
2791,139.84046936035156,-30.81303596496582,-68.82537841796875,83.48578643798828
2792,107.52025604248048,-57.1905517578125,-107.20423126220705,47.38079071044922
2793,106.07291412353516,-37.60469436645508,-91.59388732910156,75.26174926757812
2794,156.06040954589844,28.59527587890625,-40.37221908569336,138.51841735839844
2795,143.84963989257812,-42.53388214111328,-66.07655334472656,91.4405517578125
2796,99.9207763671875,-80.635986328125,-115.06549835205078,40.98930358886719
2797,112.42326354980469,-38.19559860229492,-96.63153839111328,74.54742431640625
2798,153.2928924560547,13.392581939697266,-45.89605331420898,123.24840545654295
2799,135.58445739746094,-35.80580139160156,-75.62077331542969,77.65154266357422
2800,97.04853057861328,-52.23892211914063,-113.55458068847656,42.94153213500977
2801,108.78433990478516,-43.95878219604492,-102.01325225830078,61.88412475585938
2802,159.83023071289062,15.176513671875,-50.26051712036133,118.33043670654295
2803,132.94035339355472,-22.551597595214844,-75.43378448486328,80.10491943359375
2804,105.2015151977539,-81.39144134521484,-114.13052368164062,37.22322463989258
2805,115.55355834960938,-54.9129524230957,-91.90430450439452,64.13180541992189
2806,163.8805389404297,14.86610221862793,-35.630027770996094,121.40089416503906
2807,145.54006958007812,-16.107749938964847,-61.296958923339844,89.28263092041016
2808,110.19054412841795,-73.1113052368164,-105.55493927001952,46.98810195922852
2809,111.86227416992188,-32.421192169189446,-87.79788970947266,78.48180389404297
2810,157.2721405029297,17.076383590698242,-34.30984115600586,133.40223693847656
2811,132.35693359375,-27.29752922058105,-65.57914733886719,93.06741333007812
2812,102.5461883544922,-61.76070785522461,-105.65217590332031,48.49154281616211
2813,121.4551239013672,-17.420454025268555,-84.98922729492188,84.62271881103516
2814,151.03399658203125,14.301377296447756,-43.66520309448242,134.41014099121094
2815,131.13398742675778,-36.015235900878906,-67.39112854003906,92.28015899658205
2816,92.66537475585938,-76.56697082519531,-109.72679138183594,48.67292785644531
2817,114.80931854248048,-38.240478515625,-94.75597381591795,69.41441345214844
2818,169.04534912109375,37.28680419921875,-39.95148086547852,129.72030639648438
2819,140.80535888671875,-1.0060330629348757,-68.74123382568361,81.94681549072266
2820,100.72859191894531,-71.93323516845703,-112.81594848632812,33.462753295898445
2821,116.9597625732422,-54.59505844116211,-97.74415588378906,65.72312927246094
2822,156.44561767578125,11.02896499633789,-41.5745964050293,126.62366485595705
2823,146.16090393066406,-19.82894897460937,-62.32356262207031,92.24275970458984
2824,100.2573699951172,-51.89111328125,-108.64596557617188,45.57629013061523
2825,120.32566833496094,-50.58962631225586,-88.12139129638672,80.31996154785156
2826,169.20616149902344,27.49948501586914,-37.703800201416016,133.6658935546875
2827,140.80162048339844,-35.113922119140625,-68.46821594238281,96.06120300292969
2828,101.20730590820312,-84.5105209350586,-110.66551208496094,45.490272521972656
2829,116.29779815673828,-35.54026794433594,-93.01318359375,83.34554290771484
2830,162.59776306152344,6.683201313018799,-48.05958557128906,135.01225280761722
2831,140.44259643554688,-8.313797950744629,-67.32754516601561,96.7904815673828
2832,98.60059356689452,-65.5828857421875,-114.49890899658205,47.928688049316406
2833,111.97821807861328,-14.899761199951172,-94.52410125732422,70.15117645263672
2834,157.01034545898438,3.9119353294372563,-50.2474250793457,119.66371154785156
2835,150.1177215576172,-51.51338195800781,-68.77114868164061,87.87081909179688
2836,107.79700469970705,-90.6551742553711,-113.9154815673828,38.07405090332031
2837,126.3581314086914,-38.498531341552734,-87.332275390625,69.84824371337889
2838,172.89370727539062,49.61725234985352,-37.86835861206055,138.04531860351562
2839,144.3096466064453,-29.18991851806641,-70.09881591796875,90.24939727783205
2840,103.19692993164062,-83.05195617675781,-133.38914489746094,33.791866302490234
2841,127.5025405883789,-50.91125869750977,-109.92874908447266,68.72627258300781
2842,158.41281127929688,4.155028820037842,-58.55000305175781,121.4588623046875
2843,147.873779296875,-23.15372085571289,-80.41345977783203,86.7114486694336
2844,102.40032958984376,-74.68579864501953,-127.40530395507812,40.991172790527344
2845,127.6259536743164,-43.64463424682617,-100.80339050292969,77.73194885253906
2846,166.95474243164062,1.6455559730529783,-55.1728744506836,130.54307556152344
2847,146.2095184326172,-13.57957649230957,-78.37895202636719,87.91569519042969
2848,109.42386627197266,-79.43921661376953,-121.9674835205078,49.0207405090332
2849,118.58287811279295,-51.73403549194336,-104.94346618652344,75.70118713378906
2850,166.7041778564453,8.018345832824707,-51.7321662902832,128.99850463867188
2851,134.37648010253906,-28.273643493652344,-82.45918273925781,89.04515075683594
2852,99.59540557861328,-82.29650115966797,-128.17945861816406,41.66061401367188
2853,120.3368911743164,-50.26799392700195,-102.04129791259766,76.0115966796875
2854,164.46771240234375,15.326109886169435,-49.32741165161133,131.418212890625
2855,138.63247680664062,-15.99555206298828,-84.31417083740234,89.06758880615234
2856,106.26738739013672,-59.21757507324219,-120.29949188232422,39.9365234375
2857,123.52702331542969,-43.73439025878906,-101.2634048461914,67.89975738525389
2858,158.58485412597656,26.63182830810547,-55.8871955871582,114.64850616455078
2859,137.36839294433594,-16.15262794494629,-81.13526153564453,78.25927734375
2860,104.78264617919922,-51.191749572753906,-118.10417175292969,31.2861328125
2861,117.33000946044922,-43.58479309082031,-101.22600555419922,50.43815994262695
2862,156.75230407714844,11.735806465148926,-58.50138473510742,103.00245666503906
2863,143.965576171875,-30.68587875366211,-78.65570831298828,73.51334381103516
2864,102.426513671875,-55.24206161499024,-126.07015991210938,28.110958099365234
2865,108.6534423828125,-34.511795043945305,-107.03406524658205,61.238990783691406
2866,162.60523986816406,31.063608169555664,-42.35623550415039,128.62825012207028
2867,138.44923400878906,-36.11995315551758,-76.56884002685547,85.71663665771484
2868,98.70905303955078,-71.09549713134766,-120.2957534790039,38.23486709594727
2869,110.71038818359376,-49.60603332519531,-103.1707534790039,72.25299835205078
2870,153.57711791992188,23.778284072875977,-54.24911880493164,128.11962890625
2871,136.44464111328122,-19.5484561920166,-74.5492935180664,98.4771728515625
2872,98.40612030029295,-42.94153213500977,-121.5224380493164,52.99999237060547
2873,102.54244995117188,-52.07810592651367,-108.26823425292969,78.3004150390625
2874,156.688720703125,18.778038024902344,-54.99335861206055,134.27175903320312
2875,131.51171875,-24.24951171875,-76.10509490966797,93.69384002685548
2876,100.73607635498048,-73.64611053466797,-111.9632568359375,45.3182373046875
2877,119.5103759765625,-43.91390609741211,-93.8135223388672,73.21788787841797
2878,155.00576782226562,2.3075182437896733,-43.02193832397461,123.53450775146484
2879,149.44827270507812,-25.70807266235352,-63.06032180786133,86.3299789428711
2880,98.0508270263672,-81.90754699707031,-115.6769790649414,31.731182098388672
2881,110.29525756835938,-65.48564910888672,-106.59275817871094,56.638916015625
2882,155.18153381347656,3.5753443241119385,-53.97610473632813,119.33834075927734
2883,140.584716796875,-43.846588134765625,-72.83267974853516,86.54315185546875
2884,98.35749816894531,-24.51504325866699,-124.26378631591795,42.479652404785156
2885,112.22504425048828,-65.65020751953125,-105.01451873779295,74.61287689208984
2886,160.3014678955078,-13.66185474395752,-49.151634216308594,134.61209106445312
2887,138.2435302734375,-34.84090805053711,-66.75160217285156,96.45762634277344
2888,105.9457550048828,-76.02468872070312,-104.7527313232422,59.65701293945313
2889,116.5221939086914,-65.01068115234375,-95.88542175292969,81.04550170898438
2890,161.76002502441406,40.794830322265625,-44.9479866027832,139.8629150390625
2891,143.23255920410156,-15.442047119140625,-68.52431488037111,100.2386703491211
2892,101.0240478515625,-90.81599426269531,-111.99317169189452,48.20544052124024
2893,115.47502136230469,-57.2204704284668,-92.17170715332031,76.61372375488281
2894,160.87741088867188,5.374236106872559,-45.23595809936523,130.4495849609375
2895,138.01165771484378,-33.41226577758789,-71.71070861816406,93.04309844970705
2896,103.11839294433594,-73.6535873413086,-118.35474395751952,47.5846176147461
2897,129.37623596191406,-52.80364608764648,-103.46246337890624,69.41067504882811
2898,160.9297637939453,23.138761520385746,-48.86366271972656,128.89752197265622
2899,141.90489196777344,-10.931727409362793,-66.15695953369139,90.85526275634766
2900,99.7786636352539,-79.77580261230469,-114.68590545654295,37.79729843139648
2901,119.38321685791016,-48.84683227539063,-93.940673828125,65.67451477050781
2902,156.8570098876953,11.773204803466795,-44.73107528686523,126.79196166992188
2903,146.4750518798828,-21.62784194946289,-66.82266235351561,90.15216064453124
2904,101.69722747802734,-76.30143737792969,-115.47502136230469,42.707786560058594
2905,119.50289154052734,-38.59576797485352,-92.60179138183594,79.022216796875
2906,163.01663208007812,12.135974884033205,-50.46060180664063,130.24014282226562
2907,148.35247802734375,-34.04056930541992,-71.17216491699219,101.43917846679688
2908,105.4408721923828,-46.000770568847656,-105.37355041503906,54.47725296020508
2909,119.1737823486328,-54.74091720581055,-93.86587524414062,82.17121124267578
2910,157.56011962890625,-16.676214218139652,-48.48219299316406,140.93252563476562
2911,152.07742309570312,-12.670781135559082,-57.42803192138672,108.11863708496094
2912,106.7273941040039,-77.76000213623047,-114.12117767333984,48.27649688720703
2913,110.69168853759766,-48.61122131347656,-93.02066040039062,81.01557922363281
2914,155.0394287109375,13.261685371398926,-47.77161026000977,135.12445068359378
2915,143.26248168945312,-24.34674835205078,-63.868141174316406,106.39828491210938
2916,103.29790496826172,-60.57889938354492,-113.68734741210938,52.58860397338867
2917,124.82476806640624,-38.397552490234375,-84.96865844726562,75.32719421386719
2918,168.01687622070312,57.86747360229492,-34.027481079101555,126.04772186279295
2919,146.2581329345703,-4.629996299743652,-66.52346801757811,85.55956268310547
2920,113.58263397216795,-104.33946990966795,-107.26219940185548,41.74289321899414
2921,119.70111083984376,-51.95843124389648,-91.51721954345705,65.43889617919922
2922,166.12448120117188,24.06625556945801,-37.78607940673828,123.96833038330078
2923,146.336669921875,-13.13826847076416,-62.06924819946289,96.32299041748048
2924,102.51252746582031,-52.51941680908203,-113.77336883544922,41.013614654541016
2925,122.27041625976562,-57.42242431640625,-88.3757095336914,77.8553695678711
2926,160.89610290527344,4.600077152252197,-44.28976440429688,129.06956481933594
2927,137.29733276367188,-20.22911834716797,-67.09941864013672,101.3419418334961
2928,91.98844909667969,-63.86252975463867,-114.48394775390624,52.83169555664063
2929,107.7296905517578,-17.03524398803711,-93.0543212890625,88.37944793701172
2930,155.8809051513672,24.776836395263672,-47.08346939086914,136.82237243652344
2931,140.9549560546875,-8.138022422790527,-69.691162109375,97.82269287109376
2932,97.00739288330078,-62.83031845092773,-118.23133087158205,50.92060852050781
2933,119.08402252197266,-22.47679901123047,-98.98206329345705,79.35132598876953
2934,155.64154052734375,20.281476974487305,-51.27215957641602,133.34800720214844
2935,139.84046936035156,-8.190381050109862,-75.76102447509766,94.85694885253906
2936,108.5674285888672,-46.40841674804688,-112.35968780517578,48.160560607910156
2937,113.26100158691406,-38.793983459472656,-107.83814239501952,63.146339416503906
2938,157.50027465820312,20.23659896850586,-59.45505905151367,109.8165512084961
2939,144.92298889160156,5.1797614097595215,-76.57632446289062,76.68852233886719
2940,107.10138702392578,-68.70196533203125,-112.65513610839844,40.05619812011719
2941,124.09922790527344,-14.271458625793455,-98.17424011230469,62.08420944213867
2942,166.21798706054688,0.4525278806686402,-51.548912048339844,112.06049346923828
2943,151.11253356933594,-26.65800666809082,-69.24237823486328,84.2206802368164
2944,103.54847717285156,-66.06159210205078,-118.35100555419922,34.58472442626953
2945,118.46320343017578,-56.02370071411133,-106.67129516601562,60.57328796386719
2946,160.7652130126953,-4.132589340209962,-52.65217971801758,120.84925842285156
2947,142.85108947753906,-19.754152297973636,-77.55243682861328,92.85236358642578
2948,102.37789154052734,-87.50244140625,-126.11129760742188,38.934226989746094
2949,118.5080795288086,-64.66661071777344,-107.59879302978516,75.01304626464844
2950,161.69644165039062,-4.914228439331055,-58.10495376586914,130.65901184082028
2951,144.45924377441406,-28.49429702758789,-81.5915298461914,99.68142700195312
2952,104.5171127319336,-35.151321411132805,-123.70280456542969,41.69801330566406
2953,121.28682708740234,-40.503116607666016,-112.3858642578125,66.72542572021484
2954,164.9950408935547,-17.551349639892578,-57.64120864868164,118.65393829345705
2955,158.33053588867188,-50.656944274902344,-71.54989624023438,92.04828643798828
2956,111.1965789794922,-85.75590515136719,-127.6259536743164,36.66036987304688
2957,125.0342025756836,-35.80954360961914,-103.60083770751952,61.74013900756836
2958,160.56700134277344,10.120169639587402,-63.86066055297852,111.77252197265624
2959,144.5078582763672,-28.00437164306641,-77.9787826538086,75.26361846923828
2960,105.75502014160156,-69.93238830566406,-119.64126586914062,27.744447708129886
2961,117.10187530517578,-26.02222442626953,-99.34857177734376,55.41970825195313
2962,162.72117614746094,16.949226379394528,-48.80756378173828,113.11888122558594
2963,155.56300354003906,-18.56486320495605,-65.28182220458984,93.0730209350586
2964,110.55331420898438,-74.60726165771484,-112.99172973632812,43.11169815063477
2965,126.48528289794922,-30.405385971069336,-99.71134185791016,77.88154602050781
2966,165.4251251220703,14.929680824279785,-49.73505783081055,126.61618041992188
2967,155.91830444335938,-29.07398223876953,-63.88310241699219,96.8727569580078
2968,109.50614166259766,-87.30048370361328,-119.41313934326172,41.98972702026367
2969,112.4494400024414,-56.13589859008789,-101.74211120605469,74.02197265625
2970,160.95968627929688,16.728572845458984,-51.851844787597656,129.54078674316406
2971,147.26417541503906,-5.995059490203857,-70.49898529052734,99.24759674072266
2972,105.25387573242188,-73.30951690673828,-117.3262710571289,56.14524841308594
2973,114.74200439453124,-41.48297119140625,-101.00908660888672,73.47594451904297
2974,147.67181396484375,15.56920337677002,-57.23729705810547,129.61932373046878
2975,142.5631103515625,-14.129342079162598,-80.4658203125,94.5802001953125
2976,89.70710754394531,-77.46080780029297,-133.65841674804688,36.5967903137207
2977,111.3050308227539,-20.184240341186523,-105.1192398071289,70.22222900390625
2978,156.87945556640625,17.6298885345459,-56.702491760253906,125.42315673828124
2979,139.21217346191406,-5.60984992980957,-71.36663818359375,96.3828353881836
2980,101.17364501953124,-93.47505950927734,-120.28453063964844,41.60825729370117
2981,109.24808502197266,-51.950950622558594,-102.86407470703124,60.83882141113281
2982,166.7677459716797,-24.76561737060547,-56.82217025756836,118.53800201416016
2983,151.99888610839844,-15.206433296203613,-73.20293426513672,91.9510498046875
2984,99.8572006225586,-77.18405151367188,-124.21891021728516,35.190589904785156
2985,110.61688995361328,-41.90184020996094,-104.03466796875,66.27289581298828
2986,156.87197875976562,64.16920471191406,-47.46120071411133,131.44439697265622
2987,138.26971435546878,-4.080230712890625,-77.06624603271484,96.59974670410156
2988,100.87445068359376,-117.09626770019531,-118.5080795288086,51.01410675048828
2989,108.09619903564452,-59.87579727172852,-98.34253692626952,74.2463607788086
2990,149.16029357910156,-9.465686798095703,-54.86994171142578,127.25196838378906
2991,134.2530517578125,-18.056236267089844,-70.30451202392578,92.64667510986328
2992,94.12019348144531,-78.92684936523438,-124.94818878173828,39.6485481262207
2993,106.61145782470705,-59.26619338989258,-109.0124740600586,65.68572998046875
2994,150.76846313476562,-6.054898262023926,-62.92568588256836,124.9145278930664
2995,143.73744201660156,-35.10644149780273,-81.9505615234375,95.53761291503906
2996,107.25846099853516,-83.50822448730469,-125.44933319091795,39.40171432495117
2997,120.15737915039062,-45.08075332641602,-105.12671661376952,64.73954010009766
2998,166.71913146972656,20.146841049194336,-56.45191955566406,122.09090423583984
2999,141.58700561523438,-26.57946968078613,-69.82205963134766,96.32299041748048
3000,94.50914001464844,-76.43607330322266,-117.26643371582031,40.74808120727539
3001,121.417724609375,-41.58768844604492,-89.6622314453125,82.29463195800781
3002,167.1903533935547,23.591289520263672,-45.98767852783203,133.74443054199222
3003,149.75868225097656,-22.65257453918457,-66.81143951416016,107.43423461914062
3004,101.00908660888672,-67.28827667236328,-121.417724609375,46.18963623046875
3005,119.48045349121094,-52.2838020324707,-102.69952392578124,77.10364532470703
3006,162.7473602294922,3.747379779815674,-50.26238632202149,126.4815444946289
3007,145.0277099609375,-25.412620544433594,-57.60380935668945,96.13600158691406
3008,96.56982421875,-68.85903930664061,-116.44739532470705,37.65144348144531
3009,108.01392364501952,-33.92089080810547,-98.18920135498048,63.55025100708008
3010,150.9629364013672,15.30741024017334,-48.80008316040039,118.9119873046875
3011,145.7532501220703,23.284616470336914,-64.58246612548828,90.7617645263672
3012,94.49417877197266,-33.741378784179695,-119.55525207519531,31.671342849731445
3013,118.32108306884766,-52.93454360961914,-95.81810760498048,64.28327178955078
3014,156.5690460205078,0.2281339019536972,-55.56182479858398,120.68843841552734
3015,149.46510314941406,-20.21603012084961,-69.51725769042969,100.10403442382812
3016,114.41101837158205,-56.53419876098633,-119.41500854492188,42.54323196411133
3017,116.13511657714844,-38.908050537109375,-103.97669982910156,64.68344116210939
3018,158.6465606689453,6.1465253829956055,-57.781455993652344,114.00150299072266
3019,147.92051696777344,-26.99646759033203,-65.65768432617189,90.51493072509766
3020,105.3305435180664,-73.50212097167969,-116.5128402709961,38.27226638793945
3021,116.91300964355469,-44.32716369628906,-95.56940460205078,63.66618728637695
3022,158.81484985351562,23.686656951904297,-45.81377410888672,124.15906524658205
3023,141.6262664794922,1.2023777961730957,-64.80872344970703,92.38488006591795
3024,99.2232894897461,-73.38992309570312,-114.99070739746094,41.39134216308594
3025,109.4855728149414,-56.7099723815918,-96.76617431640624,61.71769714355469
3026,163.91607666015625,13.476729393005373,-47.44063186645508,125.39697265625
3027,143.78419494628906,-20.844331741333008,-61.87290573120117,92.02584838867188
3028,102.15162658691406,-77.4140625,-112.32789611816406,32.823230743408196
3029,108.56929779052734,-46.27939224243164,-105.82794952392578,59.04740905761719
3030,151.45472717285156,28.37649154663086,-56.03118133544922,114.49890899658205
3031,143.52239990234375,-32.314605712890625,-72.40072631835938,89.19100189208984
3032,102.19276428222656,-64.92279052734375,-119.65435791015624,28.44754981994629
3033,121.30365753173828,-46.13353729248047,-97.21495819091795,63.0939826965332
3034,162.13961791992188,23.38746452331543,-51.30394744873047,118.87458801269531
3035,142.3106689453125,-20.01781463623047,-72.86073303222656,82.82569122314453
3036,104.51150512695312,-84.2618179321289,-120.23778533935548,22.43379020690918
3037,127.53807067871094,-43.17527389526367,-100.9959945678711,62.16274642944336
3038,158.19403076171875,8.876652717590332,-52.36233901977539,117.90221405029295
3039,140.63519287109378,-14.164871215820312,-72.90187072753906,89.4041748046875
3040,92.66724395751952,-2.8928127288818364,-126.02340698242188,33.305679321289055
3041,109.09661865234376,-68.13910675048828,-102.87342834472656,69.43311309814453
3042,154.71966552734375,7.930458068847656,-59.29611206054688,123.26897430419922
3043,142.80059814453125,-16.22929573059082,-68.12601470947266,95.97144317626952
3044,109.47808837890624,-81.0342788696289,-106.43755340576172,48.41113662719727
3045,117.75074768066406,-62.94064712524414,-98.37059020996094,63.60260772705078
3046,154.04273986816406,7.5078492164611825,-49.089927673339844,118.39214324951172
3047,141.34951782226562,1.0453020334243774,-67.97642517089844,91.68551635742188
3048,98.87921142578124,-57.83194351196289,-113.14319610595705,40.00384140014648
3049,102.49569702148438,-44.89188766479492,-108.59173583984376,62.45819854736328
3050,152.9581756591797,-6.023108959197997,-57.00729370117188,122.85758209228516
3051,148.82183837890625,-23.18177032470703,-66.58892059326172,96.59600830078124
3052,96.04437255859376,-58.04885864257813,-121.90577697753906,40.50124740600586
3053,110.19241333007812,-58.4864273071289,-108.5431137084961,69.43685150146484
3054,157.26654052734375,-6.920684814453125,-66.34956359863281,122.0422821044922
3055,144.9510498046875,-18.817306518554688,-74.69328308105469,93.40213012695312
3056,101.493408203125,-79.52336120605469,-121.19145965576172,49.65278244018555
3057,109.06670379638672,-44.51416015625,-105.99998474121094,66.39257049560547
3058,159.83958435058594,-4.396252632141113,-57.16437149047852,124.42459869384766
3059,149.2145233154297,-30.407257080078125,-72.17633056640625,87.4369888305664
3060,98.5650634765625,-67.46966552734375,-128.51417541503906,31.316051483154297
3061,109.9081802368164,-63.28097534179688,-105.31558227539062,63.4754524230957
3062,156.48489379882812,-3.9362447261810303,-52.64657211303711,122.43123626708984
3063,148.5899658203125,-26.076452255249023,-64.19911956787111,97.508544921875
3064,110.38688659667969,-75.1476821899414,-110.93291473388672,48.60187149047852
3065,112.78416442871094,-51.03280639648438,-99.36166381835938,65.42394256591797
3066,143.14466857910156,61.67655944824219,-57.67673873901367,114.86541748046876
3067,136.04634094238278,-56.90070724487305,-79.8543472290039,90.75428009033205
3068,97.24861907958984,-73.62928009033203,-119.27288818359376,41.70175552368164
3069,113.7191390991211,-37.45322799682617,-103.35961151123048,66.474853515625
3070,144.8949432373047,-16.281654357910153,-54.42302322387695,120.22843170166016
3071,133.42466735839844,-13.839499473571776,-68.06243896484375,91.2703857421875
3072,98.02278137207031,-59.7318115234375,-109.71744537353516,43.579185485839844
3073,104.12255096435548,-24.225202560424805,-96.44454193115234,65.34914398193361
3074,149.1771240234375,25.130258560180664,-54.34822463989258,117.61798095703124
3075,146.2188720703125,-1.86434018611908,-59.22879409790039,97.36642456054688
3076,105.02387237548828,-80.5293960571289,-111.4564971923828,41.9560661315918
3077,111.16104888916016,-51.33573532104492,-90.06800842285156,67.97080993652344
3078,154.6112060546875,17.69907569885254,-48.708457946777344,122.41627502441406
3079,136.61854553222656,-21.51377487182617,-58.85854721069336,93.40213012695312
3080,103.17262268066406,-78.47992706298828,-110.30087280273438,42.96583938598633
3081,122.78465270996094,-27.374197006225586,-83.27261352539062,66.34395599365234
3082,161.48513793945312,17.355005264282227,-40.94442367553711,118.10791015625
3083,152.31491088867188,-9.067387580871582,-49.68831253051758,97.72919464111328
3084,110.94412994384766,-49.99685287475586,-96.22014617919922,47.38266372680664
3085,103.51669311523438,-47.78657150268555,-97.78716278076172,57.73844528198242
3086,159.16265869140625,2.657198905944824,-45.8586540222168,117.84237670898438
3087,148.6872100830078,-15.825387001037598,-55.50385665893555,98.0358657836914
3088,93.34416198730469,-76.38558959960938,-110.97779083251952,34.094799041748054
3089,112.59342956542969,-36.43223571777344,-90.96932983398438,66.51225280761719
3090,148.971435546875,32.94664764404297,-45.447265625,124.29370880126952
3091,138.23417663574222,49.40594863891602,-61.21094131469727,99.30743408203124
3092,88.32147979736328,-79.0446548461914,-117.04390716552734,40.59474563598633
3093,109.40703582763672,-23.22290802001953,-101.7177963256836,63.85318374633789
3094,151.20040893554688,-16.259214401245114,-52.01078796386719,119.66744995117188
3095,145.4409637451172,-19.916837692260746,-64.92840576171875,98.02838897705078
3096,92.162353515625,-79.51588439941406,-127.61660766601562,31.46938896179199
3097,117.66847229003906,-45.72588729858398,-96.28372192382812,70.27458953857422
3098,146.60781860351562,-11.064494132995604,-63.163169860839844,112.8870086669922
3099,140.38836669921878,-28.922515869140625,-65.54548645019531,93.4806671142578
3100,88.09334564208984,-86.85356903076172,-119.5010223388672,36.2452392578125
3101,108.38603973388672,-30.91214370727539,-100.70428466796876,65.77175140380861
3102,147.54278564453125,-6.647672176361084,-52.45583724975586,117.70026397705078
3103,146.5218048095703,-25.320993423461914,-60.62003707885742,100.45932006835938
3104,101.32137298583984,-71.4975357055664,-119.23548889160156,42.94713973999024
3105,103.28107452392578,-29.36382484436035,-98.21351623535156,65.62215423583984
3106,145.56065368652344,-4.100800514221191,-54.01911544799805,118.23506927490234
3107,139.73014831542972,-30.47457504272461,-66.69363403320311,92.7326889038086
3108,93.11228942871094,-66.28411865234375,-119.05223846435548,31.22255516052246
3109,111.94642639160156,-51.94908142089844,-102.17780303955078,64.74701690673828
3110,143.14093017578125,10.956036567687988,-55.09246444702149,116.24543762207031
3111,133.12921142578122,-5.3835859298706055,-68.51870727539061,89.36678314208984
3112,84.48433685302734,-53.71431350708008,-123.51019287109376,29.580738067626953
3113,93.94255065917969,26.94036865234375,-113.02725982666016,49.8023796081543
3114,139.83859252929688,-37.789817810058594,-65.21263885498047,107.0639877319336
3115,136.76814270019528,-23.24908828735352,-66.91055297851561,93.09172058105469
3116,92.89537811279295,-42.244041442871094,-112.75424194335938,42.35249710083008
3117,108.83856964111328,-54.08830261230469,-99.10734558105469,65.76052856445311
3118,146.1216278076172,-20.40676498413086,-50.98605728149414,118.68759155273438
3119,148.14865112304688,-24.501955032348636,-50.88507843017578,105.36233520507812
3120,92.9664306640625,-80.00955200195312,-117.92652893066406,39.14366149902344
3121,107.25285339355469,-63.53903198242188,-100.0909423828125,67.38364410400389
3122,146.4694366455078,-4.62812614440918,-58.37983703613281,123.61304473876952
3123,142.97264099121094,-14.486502647399902,-62.04119873046875,91.91365051269531
3124,97.19625854492188,-82.08893585205078,-117.5749740600586,32.62501907348633
3125,114.51947784423828,-54.15188217163086,-103.72238159179688,57.09518432617188
3126,154.6486053466797,14.254629135131836,-55.365478515625,112.87953186035156
3127,147.64002990722656,-19.842039108276367,-69.40132141113281,82.68731689453125
3128,105.72322845458984,-85.84005737304688,-120.79502868652344,28.526086807250977
3129,111.01519012451172,-39.768226623535156,-100.44623565673828,56.97550582885742
3130,150.2542266845703,10.7017240524292,-56.82403945922852,112.21009063720705
3131,149.0125732421875,-5.050734996795653,-61.48021697998047,96.88397979736328
3132,105.71949005126952,-49.95945358276367,-108.79743194580078,47.87632751464844
3133,98.79693603515624,-6.1465253829956055,-105.90648651123048,73.52456665039062
3134,136.02389526367188,15.3466796875,-55.11864471435547,128.82272338867188
3135,141.45423889160156,-27.501354217529297,-63.14447021484375,113.20490264892578
3136,89.48084259033203,-70.30451202392578,-120.649169921875,45.39677429199219
3137,101.35877227783205,-73.18423461914062,-103.43815612792969,73.03463745117188
3138,145.63543701171875,8.364286422729492,-53.82463836669922,127.61473846435548
3139,138.98963928222656,-12.676390647888185,-63.91862869262695,101.06892395019531
3140,93.75929260253906,-76.3706283569336,-111.56495666503906,40.89019775390625
3141,100.2330551147461,-27.80428695678711,-97.5403289794922,65.91386413574219
3142,152.27377319335938,6.0343284606933585,-45.548240661621094,117.4048080444336
3143,149.7381134033203,-2.0176761150360107,-61.21468353271485,97.19438934326172
3144,90.80103302001952,-96.37908935546876,-116.93545532226562,30.49701499938965
3145,104.39556884765624,-59.91132736206055,-107.3388671875,51.43671417236328
3146,149.61843872070312,-2.597360610961914,-62.34787368774414,102.7892837524414
3147,145.7925262451172,-9.620892524719238,-74.77182006835938,85.806396484375
3148,103.29229736328124,-58.837974548339844,-120.144287109375,32.157527923583984
3149,111.4490203857422,-9.015028953552246,-98.9091339111328,57.58884811401367
3150,155.13479614257812,-11.838653564453125,-58.79122543334961,111.57056427001952
3151,141.54025268554688,-11.599299430847168,-61.81680679321289,89.99882507324219
3152,85.50159454345703,-70.56256103515625,-120.30509948730469,39.49521255493164
3153,108.19156646728516,-51.53395080566406,-99.51126098632812,73.83123779296875
3154,137.02993774414062,6.367179870605469,-59.93563842773438,112.61399841308594
3155,133.30125427246094,6.894505500793457,-73.21601867675781,96.37908935546876
3156,85.53899383544922,-95.0065460205078,-130.12608337402344,31.42076873779297
3157,106.50486755371094,-70.15117645263672,-109.49304962158205,59.72807312011719
3158,147.47174072265625,29.47976112365723,-68.933837890625,107.32203674316406
3159,141.48789978027344,-27.37793731689453,-71.02818298339844,90.83281707763672
3160,93.49002075195312,-85.00979614257812,-119.7815170288086,36.67158889770508
3161,114.9308624267578,-38.05535125732422,-99.61223602294922,62.188926696777344
3162,147.50540161132812,12.373458862304688,-55.43279647827149,115.34038543701172
3163,149.40899658203125,-22.54598617553711,-57.254127502441406,99.03816223144531
3164,93.83782958984376,-58.63602066040039,-112.76546478271484,32.034114837646484
3165,109.19011688232422,-64.24961090087889,-104.11881256103516,54.60815048217773
3166,142.19847106933594,22.534767150878906,-61.46525573730469,115.1608657836914
3167,136.96261596679688,-19.976675033569336,-66.67867279052734,103.02489471435548
3168,86.10371398925781,-75.09532165527344,-126.40487670898438,34.93253707885742
3169,106.05982208251952,-60.71914672851562,-111.5948715209961,60.37881469726562
3170,143.8851776123047,2.0625548362731934,-65.56792449951172,119.52159118652344
3171,149.1098175048828,-12.545494079589846,-61.51387405395508,105.36607360839844
3172,94.84386444091795,-83.6596908569336,-114.31752014160156,45.18360137939453
3173,113.30400848388672,-47.83518981933594,-102.08431243896484,63.5165901184082
3174,140.17892456054688,-7.8257408142089835,-64.18416595458984,114.40541076660156
3175,147.83824157714844,-21.248241424560547,-63.55212020874024,103.30538940429688
3176,101.01095581054688,-89.59117126464844,-120.47339630126952,35.609458923339844
3177,111.56495666503906,-4.471050262451172,-98.946533203125,64.58246612548828
3178,136.77561950683594,18.712589263916016,-66.73477172851561,105.21647644042969
3179,146.06553649902344,-43.34730911254883,-63.85131072998047,95.35061645507812
3180,100.13581848144531,-88.5589599609375,-118.70816802978516,35.33644485473633
3181,110.15127563476562,-54.791404724121094,-104.04401397705078,60.65182876586914
3182,143.14466857910156,11.39360523223877,-57.72161483764648,116.73910522460938
3183,138.64930725097656,-6.24750280380249,-66.78339385986328,99.77491760253906
3184,92.71212005615234,-83.69335174560547,-125.23429107666016,37.12411880493164
3185,106.17949676513672,-48.65422821044922,-107.73529815673828,63.78212356567383
3186,143.630859375,23.38746452331543,-61.09874725341797,121.68699645996094
3187,136.61480712890622,-24.91708374023437,-72.18006896972656,103.08099365234376
3188,90.55419921875,-74.95694732666016,-127.08927917480469,36.48833465576172
3189,102.75000762939452,-46.03629684448242,-111.41535949707031,66.08964538574219
3190,136.166015625,18.712589263916016,-69.27790832519531,114.14361572265624
3191,143.72434997558594,-18.297460556030273,-69.83889007568361,93.95189666748048
3192,91.54527282714844,-77.57861328125,-125.6269760131836,27.920223236083984
3193,118.78670501708984,-50.34466171264648,-105.8728256225586,59.058631896972656
3194,154.90292358398438,-3.479976892471313,-60.16376876831055,113.97905731201172
3195,147.6624755859375,-7.40313196182251,-64.83116912841797,97.42626190185548
3196,105.15476989746094,-14.11999225616455,-117.75074768066406,34.12097549438477
3197,114.09687042236328,-95.17484283447266,-111.17974853515624,56.48183822631836
3198,158.2987518310547,-11.483363151550293,-50.92247772216797,117.7451400756836
3199,153.2536163330078,-7.406871795654298,-60.48914337158203,97.62448120117188
3200,104.73963928222656,-78.86139678955078,-121.62154388427734,29.580738067626953
3201,123.30450439453124,-37.72998046875,-92.73455810546876,63.04162216186523
3202,154.3905487060547,-4.732843399047852,-55.06254577636719,107.4267578125
3203,150.47860717773438,-20.586278915405273,-57.31396865844727,87.74365997314453
3204,104.6685791015625,-76.84185791015625,-113.65181732177734,27.587371826171875
3205,117.12244415283205,-33.33933639526367,-97.16634368896484,55.80491638183594
3206,152.4420623779297,-16.393852233886722,-53.84708023071289,108.354248046875
3207,158.302490234375,-14.939030647277832,-56.05361938476562,96.58478546142578
3208,102.7238311767578,-92.3960952758789,-114.54939270019531,31.69004249572754
3209,112.58969116210938,-37.40460968017578,-101.98332977294922,57.274696350097656
3210,149.50624084472656,-7.893058776855469,-59.10537719726562,118.97557067871094
3211,146.9855499267578,-9.35909938812256,-62.20575714111328,102.32553100585938
3212,94.63816833496094,-82.7957763671875,-115.01314544677734,41.903709411621094
3213,105.17720794677734,-54.69416809082031,-99.2457275390625,71.21704864501953
3214,143.01377868652344,9.665771484375,-54.45668411254883,126.95277404785156
3215,144.99966430664062,-22.691843032836914,-54.583839416503906,106.61893463134766
3216,100.09841918945312,-91.67803955078124,-113.70604705810548,47.45185089111328
3217,115.1253433227539,-46.55988311767578,-100.11151123046876,68.20455169677734
3218,148.66476440429688,-8.84299373626709,-57.33827590942383,121.09796142578124
3219,151.19293212890625,-1.8680800199508667,-57.083961486816406,109.1003646850586
3220,96.71381378173828,-62.27120590209961,-114.30817413330078,38.04974365234375
3221,108.3823013305664,-11.580599784851074,-104.30020141601562,49.76310729980469
3222,149.5959930419922,-22.938676834106445,-58.07129669189453,103.61019134521484
3223,152.68515014648438,-25.227495193481445,-58.93147277832031,88.06342315673828
3224,112.5522918701172,-82.41804504394531,-113.18994140625,25.99604415893555
3225,114.5045166015625,-43.07429885864258,-91.19933319091795,60.032875061035156
3226,145.94212341308594,0.7535898685455322,-58.800575256347656,111.01519012451172
3227,150.1981201171875,-12.115406036376953,-55.01953887939453,104.88923645019531
3228,96.36600494384766,-79.5083999633789,-112.88327026367188,46.02320861816406
3229,107.49220275878906,-50.2960433959961,-102.17967987060548,74.95133209228516
3230,149.3080291748047,-9.755529403686523,-64.79937744140625,122.1376495361328
3231,142.24710083007812,7.702323913574219,-67.43600463867189,111.74073028564452
3232,95.74891662597656,-82.99772644042969,-130.75999450683594,50.316612243652344
3233,97.06536102294922,-65.55857849121094,-118.09294891357422,62.57600784301758
3234,138.29402160644528,-4.964717388153076,-71.97250366210938,118.9213409423828
3235,148.07760620117188,-18.981863021850586,-64.76945495605469,107.40245056152344
3236,93.23570251464844,-79.39620971679688,-120.26583099365234,41.84199905395508
3237,106.60585021972656,-50.46434020996094,-99.879638671875,63.49975967407226
3238,146.11415100097656,6.05676794052124,-60.18434143066406,116.68487548828124
3239,142.16107177734375,-25.0068416595459,-58.2246322631836,97.9068374633789
3240,100.4125747680664,-81.18761444091797,-109.30044555664062,30.970111846923828
3241,98.06765747070312,-40.42644882202149,-104.65174865722656,40.1777458190918
3242,146.31610107421875,-12.840946197509766,-62.342262268066406,100.07971954345705
3243,148.60491943359375,-13.274774551391602,-47.93990707397461,90.92444610595705
3244,100.4275360107422,-60.1431999206543,-113.66864776611328,25.53603744506836
3245,109.23873901367188,6.314821243286133,-103.80279541015624,43.49503707885742
3246,157.93223571777344,-43.253814697265625,-51.6910285949707,101.22039031982422
3247,166.54148864746094,-1.782062292098999,-48.50837326049805,90.32980346679688
3248,97.83578491210938,-99.11296081542969,-118.07798767089844,29.02910423278809
3249,114.35491943359376,-61.72143936157226,-100.96794891357422,60.06653213500977
3250,147.21368408203125,-8.192251205444336,-68.10170745849611,109.08914184570312
3251,147.60263061523438,-17.796314239501953,-67.86235809326172,104.6910171508789
3252,89.52198791503906,-87.79975891113281,-129.65298461914062,34.30984115600586
3253,108.27384185791016,-74.24262237548828,-115.76673126220705,58.42097854614258
3254,147.6624755859375,-15.503755569458008,-76.38558959960938,117.54879760742188
3255,144.20680236816406,-16.098400115966793,-74.11547088623047,100.70802307128906
3256,90.4345245361328,-89.2994613647461,-126.4366683959961,37.94502639770508
3257,100.98477935791016,-44.51789855957031,-110.46355438232422,60.93793106079102
3258,142.527587890625,21.588571548461914,-57.1026611328125,116.05657196044922
3259,147.9915771484375,11.935891151428224,-56.35468292236328,99.7543487548828
3260,96.93072509765624,-73.61431884765625,-118.1453094482422,33.995689392089844
3261,106.06356048583984,-60.07962417602539,-102.96505737304688,55.043846130371094
3262,148.3693084716797,11.457183837890625,-58.58740234375,111.6135711669922
3263,152.71133422851562,14.16861057281494,-60.4835319519043,102.75375366210938
3264,98.07139587402344,-89.6809310913086,-118.32482147216795,32.290294647216804
3265,110.59258270263672,-54.51091003417969,-100.2611083984375,56.640785217285156
3266,137.21319580078122,-22.57216644287109,-62.914466857910156,108.61043548583984
3267,139.95452880859378,-22.067279815673828,-69.06660461425781,95.46468353271484
3268,93.32172393798828,-85.01727294921875,-131.88569641113278,26.84126281738281
3269,101.33258819580078,-58.12365341186523,-113.62751007080078,46.55427551269531
3270,133.84727478027344,-11.038314819335938,-77.75064849853516,99.1671905517578
3271,138.9185791015625,-10.387572288513184,-69.57897186279297,98.9278335571289
3272,82.39747619628906,-74.4670181274414,-129.66046142578122,31.968664169311523
3273,98.76702117919922,-50.55409622192383,-110.0783462524414,61.32313919067383
3274,136.0426025390625,-4.070880889892578,-62.3833999633789,115.34225463867188
3275,134.91314697265622,-19.44561004638672,-63.827003479003906,104.97151184082031
3276,85.6549301147461,-71.93510437011719,-120.91657257080078,43.663330078125
3277,96.50064086914062,-38.410640716552734,-105.94949340820312,60.496620178222656
3278,126.35626220703124,-23.469741821289066,-73.45724487304688,105.67461395263672
3279,132.68043518066406,-5.690257549285889,-59.32416152954102,102.36853790283205
3280,85.22857666015625,-85.1893081665039,-118.63523864746094,29.7658634185791
3281,105.52501678466795,-59.23066711425781,-97.77033233642578,60.986549377441406
3282,132.8973388671875,-28.75422096252441,-70.70468139648438,91.6986083984375
3283,146.87709045410156,-24.39723777770996,-67.50706481933594,98.3032684326172
3284,96.29120635986328,-84.6395492553711,-123.53076171875,29.937898635864254
3285,101.05957794189452,-67.21160888671875,-112.11659240722656,56.58468627929688
3286,132.10075378417972,-12.500616073608398,-68.13910675048828,99.78427124023438
3287,145.5344696044922,-19.752281188964844,-59.290504455566406,98.86799621582031
3288,89.8323974609375,-84.75173950195312,-130.46453857421878,29.485370635986328
3289,100.45745086669922,-72.08470153808594,-115.04492950439452,56.53232955932617
3290,137.72929382324222,-15.638391494750975,-71.71070861816406,108.21400451660156
3291,138.50344848632812,-6.082947254180907,-62.54421615600586,107.90359497070312
3292,80.56118774414062,-88.99279022216797,-129.41363525390622,34.545455932617195
3293,100.1545181274414,-72.43999481201172,-114.03141784667969,58.45837783813477
3294,138.91110229492188,-29.19926834106445,-80.8472900390625,108.22522735595705
3295,140.22755432128906,-16.715482711791992,-77.9376449584961,97.79090118408205
3296,99.49256134033205,-68.34854125976561,-126.59374237060548,31.97240447998047
3297,107.05463409423828,-52.82047653198242,-113.77710723876952,57.04469299316406
3298,141.00918579101562,-19.88691711425781,-68.52805328369139,105.97380828857422
3299,150.52723693847656,-9.418937683105467,-59.12968826293945,108.55807495117188
3300,97.05414581298828,-67.35372924804689,-117.81620025634766,44.19439697265625
3301,101.2802276611328,-49.4508285522461,-103.2904281616211,66.24485015869139
3302,133.26759338378906,-15.062447547912598,-73.47220611572266,109.51923370361328
3303,141.13633728027344,-9.205763816833496,-67.22657012939453,107.75399780273438
3304,82.326416015625,-101.33071899414062,-128.61329650878906,32.821361541748054
3305,100.48737335205078,-79.97589111328125,-111.63040161132812,59.65514373779297
3306,132.43733215332028,3.7268102169036874,-77.17096710205078,98.31075286865234
3307,148.3767852783203,-16.857599258422848,-62.910728454589844,95.28517150878906
3308,81.75794982910156,-86.82738494873047,-131.05545043945312,31.785409927368164
3309,95.70030212402344,-48.39617538452149,-114.51012420654295,61.09126663208008
3310,126.9696044921875,-10.634405136108398,-76.92413330078125,106.5946273803711
3311,136.64472961425778,-3.139646053314209,-68.07179260253906,109.55663299560548
3312,80.49012756347656,-90.21199798583984,-133.01141357421878,40.48815536499024
3313,99.91143035888672,-69.27603912353516,-115.0748519897461,61.27825927734375
3314,135.72096252441406,-10.709203720092773,-81.01932525634766,105.39411926269531
3315,136.06878662109378,6.748649597167969,-79.05213165283203,94.17442321777344
3316,88.48603057861328,-93.61904907226562,-128.366455078125,31.115966796875
3317,104.23474884033205,-46.802978515625,-114.34557342529295,55.33182144165039
3318,137.84896850585938,-13.55900764465332,-76.18737030029297,100.0872039794922
3319,133.98939514160156,-20.032773971557614,-72.1146240234375,87.73057556152344
3320,93.34416198730469,-72.09966278076172,-124.47322082519531,26.99833869934082
3321,97.75724792480469,-62.12534713745117,-110.4972152709961,42.01029586791992
3322,131.49114990234378,32.41184234619141,-66.74038696289061,96.13038635253906
3323,148.60118103027344,-10.350172996520996,-55.31872940063477,101.25031280517578
3324,94.17442321777344,-90.94501495361328,-116.4586181640625,33.34494781494141
3325,105.39411926269531,-66.36639404296875,-108.19717407226562,64.50579071044922
3326,136.87660217285156,-27.91274261474609,-69.79214477539061,113.10953521728516
3327,146.82847595214844,-34.569766998291016,-68.22512817382811,107.04341888427734
3328,99.7730484008789,-83.30440521240234,-117.77880096435548,49.03382873535156
3329,114.8672866821289,-85.32769012451172,-104.94720458984376,75.13459014892578
3330,147.89434814453125,-37.07923889160156,-78.39765167236328,120.08818817138672
3331,153.11898803710938,-23.04339408874512,-64.57124328613281,119.33646392822266
3332,92.42041015625,-111.26763153076172,-132.28587341308594,42.36558532714844
3333,101.50836181640624,-87.0929183959961,-117.88351440429688,58.10308456420898
3334,145.14552307128906,-39.16610336303711,-68.32236480712889,113.48726654052734
3335,150.81146240234375,-25.257413864135746,-61.156715393066406,101.5382843017578
3336,98.50896453857422,-91.32274627685548,-125.5353546142578,29.93415832519531
3337,105.14728546142578,-63.31089782714844,-113.81450653076172,46.24386215209961
3338,140.34722900390622,-29.397483825683594,-65.85028839111328,100.93990325927734
3339,146.084228515625,-23.35006523132324,-63.34455490112305,94.4137725830078
3340,97.33089447021484,-104.10198211669922,-124.9294891357422,28.718690872192386
3341,102.66773223876952,-43.07803726196289,-111.18535614013672,44.7254638671875
3342,157.43482971191406,-20.63115882873535,-62.7536506652832,105.43900299072266
3343,144.31900024414062,-18.5629940032959,-59.82530975341797,97.3009796142578
3344,94.13702392578124,-96.47258758544922,-110.86746215820312,40.114166259765625
3345,103.4605941772461,-74.39969635009766,-98.84742736816406,63.09959030151367
3346,142.4714813232422,-24.20650291442871,-58.75195693969727,109.59402465820312
3347,150.0709686279297,-27.87534523010254,-56.39208221435547,108.0008316040039
3348,89.44718933105469,-84.99109649658203,-118.19766998291016,31.706871032714844
3349,102.85846710205078,-71.30680084228516,-105.56428527832031,54.75213623046875
3350,141.44302368164062,-8.525101661682129,-67.30510711669922,101.31388854980469
3351,151.24530029296875,-11.359946250915527,-56.55663681030274,101.24282836914062
3352,97.9068374633789,-108.78433990478516,-125.20249938964844,32.982177734375
3353,101.24282836914062,-77.95634460449219,-115.61339569091795,53.439430236816406
3354,134.35591125488278,-6.587833881378174,-69.01798248291016,101.85991668701172
3355,143.0287322998047,-22.41135025024414,-65.12100982666016,98.95775604248048
3356,91.38819885253906,-83.4951400756836,-121.66455841064452,32.256637573242195
3357,89.48084259033203,5.028295516967773,-113.81450653076172,47.47428894042969
3358,128.04669189453122,-48.23910140991211,-75.33841705322266,98.09383392333984
3359,145.35121154785156,-33.444053649902344,-53.81903076171875,102.56301879882812
3360,89.29759216308594,-107.07146453857422,-112.62895965576172,37.06988906860352
3361,101.68414306640624,-96.85779571533205,-108.17473602294922,52.76998901367188
3362,150.90496826171875,-18.27128028869629,-54.0284652709961,102.51439666748048
3363,148.09255981445312,-24.65903091430664,-56.79598999023438,92.59618377685548
3364,98.83433532714844,-86.2701416015625,-116.82512664794922,29.15999984741211
3365,101.72901916503906,-58.36301040649414,-108.97881317138672,52.74380874633789
3366,127.53058624267578,-37.804779052734375,-73.37870788574219,96.2575454711914
3367,143.03994750976562,-26.611257553100586,-62.188926696777344,104.93785095214844
3368,88.7066879272461,-71.93510437011719,-121.97870635986328,32.372573852539055
3369,99.45516204833984,-85.17809295654297,-114.19971466064452,57.10827255249024
3370,133.35734558105472,-15.182124137878418,-71.19086456298828,109.19760131835938
3371,145.48585510253906,-20.59001922607422,-58.78187942504883,113.49848175048828
3372,91.93795776367188,-88.9404296875,-127.03504943847656,38.76780319213867
3373,92.37552642822266,-70.10629272460939,-118.6501922607422,60.17124938964844
3374,119.13451385498048,-36.32751846313477,-85.32020568847656,97.62635040283205
3375,141.23731994628906,-34.554805755615234,-69.63880920410156,103.49799346923828
3376,87.12844848632812,-92.82244873046876,-127.17716979980469,23.55014991760254
3377,100.29663848876952,-57.83942413330078,-112.89449310302734,42.15241241455078
3378,127.48197174072266,2.948911190032959,-71.41899871826172,87.85025024414062
3379,147.15383911132812,1.5801076889038086,-58.183494567871094,95.10565948486328
3380,92.02771759033205,-67.22657012939453,-116.13323974609376,27.67526054382324
3381,103.78970336914062,-73.13935089111328,-102.1310577392578,49.95010375976562
3382,143.2119903564453,-10.933597564697266,-61.96453094482422,109.94184112548828
3383,146.70130920410156,-3.842747211456299,-53.71805191040039,114.9271240234375
3384,95.4497299194336,-57.47665405273438,-120.2733154296875,41.583946228027344
3385,104.04776000976562,-58.718299865722656,-105.30623626708984,65.34727478027344
3386,130.81422424316406,-23.144371032714844,-71.0749282836914,111.19844818115234
3387,143.8365478515625,-9.056167602539062,-55.53564453125,120.94088745117188
3388,86.7619400024414,-72.50357055664062,-123.1492919921875,45.8586540222168
3389,98.42668914794922,-63.44927215576172,-108.2121353149414,68.14097595214844
3390,130.13356018066406,-21.158483505249023,-81.09412384033203,110.66364288330078
3391,148.91159057617188,-35.54214096069336,-61.53070449829102,114.61297607421876
3392,90.88330841064452,-106.3646240234375,-129.65298461914062,40.5180778503418
3393,107.67919921875,-82.10763549804688,-112.51676177978516,65.51930999755861
3394,138.290283203125,-13.932997703552244,-73.37870788574219,110.59632110595705
3395,155.38536071777344,-20.350666046142575,-53.82276916503906,113.95101165771484
3396,99.12979125976562,-78.53228759765625,-113.41433715820312,39.16423416137695
3397,105.28565979003906,-64.94149017333984,-105.48948669433594,54.53522109985352
3398,137.99482727050778,-10.492289543151855,-61.78501892089844,96.56795501708984
3399,154.67478942871094,-3.640792608261109,-41.91119003295898,101.2764892578125
3400,103.57653045654295,-89.07132720947266,-104.25531768798828,29.70602607727051
3401,99.53743743896484,-20.35814476013184,-104.1356430053711,41.19125747680664
3402,134.66258239746094,-21.498815536499023,-67.74641418457031,93.35912322998048
3403,157.7452392578125,-35.88621139526367,-50.557838439941406,107.79513549804688
3404,96.3360824584961,-95.466552734375,-112.73367309570312,40.346038818359375
3405,103.019287109375,-74.8671875,-103.95613098144531,65.26873779296875
3406,134.46810913085938,-11.472143173217773,-61.28387069702149,121.46073150634766
3407,143.7505340576172,-23.30144691467285,-56.88200759887695,114.29882049560548
3408,95.01963806152344,-89.87914276123047,-117.24773406982422,42.14867401123047
3409,97.55155181884766,-72.76536560058594,-105.8784408569336,58.60423278808594
3410,129.64363098144528,-42.82372283935547,-71.1160659790039,104.06271362304688
3411,141.00918579101562,-28.6158447265625,-56.98672485351562,109.59402465820312
3412,99.47386169433594,-94.5577621459961,-114.64102172851562,42.02151489257813
3413,103.55034637451172,-66.134521484375,-102.41902923583984,62.59844589233398
3414,137.90133666992188,-20.874252319335934,-64.32440948486328,104.42174530029295
3415,154.04647827148438,-10.473589897155762,-47.73047256469727,111.25454711914062
3416,95.62176513671876,-80.73135375976562,-117.2028579711914,32.11452102661133
3417,102.96131896972656,-69.43124389648439,-105.83917236328124,54.351966857910156
3418,137.09538269042972,-19.52975845336914,-59.4494514465332,110.73469543457031
3419,154.2390899658203,-17.050203323364258,-52.41469955444336,113.39376831054688
3420,87.66512298583984,-67.71836853027344,-112.40269470214844,36.08629608154297
3421,101.43544006347656,-90.9394073486328,-104.87053680419922,59.25871658325195
3422,131.00682067871094,-28.86080741882324,-64.81620788574219,116.59512329101562
3423,151.5575714111328,-1.196768045425415,-44.68806457519531,123.9215850830078
3424,92.2913818359375,-88.47481536865234,-107.2378921508789,56.72306442260742
3425,99.8160629272461,-70.4410171508789,-106.70308685302734,75.11589050292969
3426,132.00163269042972,-29.05528259277344,-67.64356994628906,113.0571746826172
3427,153.203125,-6.4588069915771475,-51.83501434326172,124.53118896484376
3428,92.3100814819336,-94.08092498779295,-118.4987335205078,52.3847770690918
3429,98.23033905029295,-94.49605560302734,-111.46398162841795,68.35041046142578
3430,138.542724609375,-37.4887580871582,-65.40337371826172,118.26685333251952
3431,150.9217987060547,-24.89277458190918,-48.82813262939453,124.5798110961914
3432,93.83222198486328,-81.77291107177734,-122.9566879272461,45.33506774902344
3433,96.8503189086914,-88.84506225585938,-104.69850158691406,60.986549377441406
3434,135.44609069824222,-14.85488224029541,-57.20550918579102,110.94039154052734
3435,149.88583374023438,50.35775375366211,-41.86444091796875,113.1207504272461
3436,95.66851043701172,-114.0781707763672,-102.14041137695312,35.289695739746094
3437,103.62701416015624,-86.6796646118164,-97.59642791748048,53.23747634887695
3438,137.89198303222656,-30.779376983642575,-57.2915267944336,99.73564910888672
3439,162.08164978027344,-10.572697639465332,-40.72377014160156,115.4282684326172
3440,107.3070831298828,-88.84506225585938,-102.0581283569336,43.12478637695313
3441,106.59275817871094,-77.91707611083984,-100.97355651855469,59.89449691772461
3442,139.20094299316406,-28.370880126953125,-61.177284240722656,112.82156372070312
3443,161.1691131591797,-15.389688491821287,-46.47573852539063,121.70382690429688
3444,91.8500747680664,-91.63502502441406,-114.65037536621094,46.78614807128906
3445,103.92247009277344,-58.84732437133789,-96.64649200439452,68.85155487060547
3446,139.51509094238278,-18.849096298217773,-59.95059585571289,113.71540069580078
3447,148.13182067871094,-26.242877960205078,-48.90667343139648,121.19145965576172
3448,88.62628173828125,-110.07647705078124,-117.0738296508789,51.5806999206543
3449,101.47657775878906,-75.15328979492188,-97.04666137695312,67.88666534423828
3450,139.54127502441406,-16.997844696044922,-56.790382385253906,116.28096771240234
3451,151.24716186523438,-16.085309982299805,-43.450157165527344,120.19664764404295
3452,94.44930267333984,-88.16439819335938,-109.79224395751952,48.5289421081543
3453,103.07725524902344,-67.60243225097656,-103.62140655517578,67.69966888427734
3454,139.25331115722656,-5.650989055633545,-64.68157196044922,109.51548767089844
3455,159.04112243652344,-17.016544342041016,-49.6546516418457,118.18457794189452
3456,101.98519897460938,-79.05400848388672,-103.91686248779295,47.186317443847656
3457,106.96300506591795,-61.11744689941406,-94.79524230957031,60.67239761352539
3458,135.315185546875,-20.82002258300781,-56.8203010559082,100.90250396728516
3459,152.59352111816406,3.5454251766204834,-50.13710021972656,110.7496566772461
3460,89.01522827148438,-64.51327514648439,-117.54879760742188,33.79747772216797
3461,104.69288635253906,-62.75178146362305,-105.0276107788086,47.7884407043457
3462,131.42195129394528,2.1242632865905757,-66.57022094726561,101.9534149169922
3463,149.9494171142578,-0.28423240780830383,-48.5177230834961,111.26576232910156
3464,105.67648315429688,-72.09779357910156,-112.73554229736328,43.08364868164063
3465,92.4334945678711,-57.444862365722656,-114.47085571289062,49.03008651733398
3466,142.11807250976562,-25.70807266235352,-65.6240234375,103.64010620117188
3467,150.77220153808594,4.648695468902588,-61.23712158203125,112.9188003540039
3468,86.95454406738281,-20.389934539794922,-123.2371826171875,39.590579986572266
3469,101.33445739746094,-104.63491821289062,-108.7413330078125,59.0792007446289
3470,135.19551086425778,-41.77094268798828,-76.97462463378906,102.61537170410156
3471,150.07656860351562,-13.968525886535645,-58.207801818847656,113.19929504394531
3472,94.46800231933594,-64.28887939453125,-126.92098236083984,38.19186019897461
3473,105.5979461669922,-77.4308853149414,-113.52466583251952,58.99318313598633
3474,141.10829162597656,-20.360015869140625,-70.21288299560547,107.3201675415039
3475,155.68643188476562,-20.65920829772949,-59.883277893066406,109.72492218017578
3476,96.49502563476562,-79.1288070678711,-125.3838882446289,37.32046127319336
3477,103.35026550292969,-81.55599975585938,-114.28012084960938,49.24700164794922
3478,143.03060913085938,-30.29319000244141,-65.88955688476561,102.97814178466795
3479,161.3448944091797,-24.642200469970703,-56.65948486328125,115.07672119140624
3480,108.07376098632812,-98.9652328491211,-111.5948715209961,45.56320190429688
3481,117.55440521240234,-63.806434631347656,-101.4747085571289,59.00814056396485
3482,151.61741638183594,-28.06046867370605,-63.7278938293457,109.5678482055664
3483,159.99853515625,-20.11692237854004,-51.33012771606445,119.21305084228516
3484,106.39828491210938,-98.1387176513672,-111.3517837524414,48.24097061157226
3485,113.78458404541016,-87.25934600830078,-106.68438720703124,66.48793792724611
3486,135.12818908691406,-24.06251716613769,-73.93034362792969,105.48761749267578
3487,154.07452392578125,-26.09328269958496,-56.86517715454102,123.00157165527344
3488,92.07447052001952,-67.04144287109375,-120.35746002197266,45.26026916503906
3489,102.2133331298828,-54.2509880065918,-105.44274139404295,61.296958923339844
3490,134.2119140625,-25.805309295654297,-69.80522918701172,111.29942321777344
3491,156.73733520507812,-2.8124048709869385,-50.18197631835938,114.19410705566406
3492,103.66067504882812,-74.73442077636719,-108.8834457397461,42.73957824707031
3493,116.6231689453125,-62.35161209106445,-99.07743072509766,60.38068389892578
3494,142.39108276367188,-18.897714614868164,-61.16232299804688,110.71599578857422
3495,161.9096221923828,0.42634859681129456,-35.27099609375,122.54530334472656
3496,98.21163940429688,-83.19407653808594,-99.3467025756836,43.49877548217773
3497,100.42566680908205,-66.20371246337889,-103.55034637451172,55.44027709960938
3498,136.93083190917972,-3.863316535949707,-57.77023315429688,110.61502075195312
3499,150.06161499023438,-13.456159591674805,-45.619300842285156,122.43310546875
3500,96.79795837402344,-84.71621704101562,-114.77005004882812,44.39261245727539
3501,96.27437591552734,-52.654052734375,-105.14728546142578,55.54125595092773
3502,129.57070922851562,-31.37775993347168,-72.95423126220703,100.62200927734376
3503,157.0253143310547,1.3501038551330566,-47.42193222045898,114.71021270751952
3504,92.80001068115234,-75.5010986328125,-119.63565826416016,31.729310989379886
