,T7,F8,Cz,P4
3000,145.72332763671875,-23.19672966003418,-67.35746765136719,93.8209991455078
3001,107.03032684326172,-76.57632446289062,-119.02044677734376,41.66435623168945
3002,115.7966537475586,-47.2143669128418,-110.0746078491211,57.57762908935547
3003,148.11312866210938,12.395898818969727,-72.99723815917969,103.42880249023438
3004,152.52247619628906,-23.41364288330078,-69.01424407958984,80.6528091430664
3005,111.9856948852539,-54.45855331420898,-112.67009735107422,32.29590606689453
3006,105.05940246582031,-29.82383155822754,-107.62123107910156,46.65338134765625
3007,144.53404235839844,1.8568602800369265,-70.21849060058594,93.98929595947266
3008,143.5392303466797,-2.7993152141571045,-71.74436950683594,79.8898696899414
3009,116.01730346679688,-61.6279411315918,-102.69578552246094,41.69427490234375
3010,106.19258880615234,-43.23511505126953,-99.61036682128906,60.83134460449219
3011,143.34849548339844,9.101046562194824,-64.92279052734375,108.2532730102539
3012,149.88583374023438,-6.602793216705322,-67.660400390625,93.5405044555664
3013,116.14446258544922,-66.36639404296875,-98.26026153564452,54.89612197875977
3014,109.55475616455078,-31.82841873168945,-100.47428131103516,72.87381744384766
3015,135.73593139648438,-5.4621238708496085,-70.71589660644531,117.33187866210938
3016,141.40562438964844,-21.898984909057614,-75.21873474121094,101.2540512084961
3017,103.15766143798828,-75.50296783447266,-119.94046020507812,50.41385269165039
3018,98.72962188720705,-49.35733032226562,-108.96011352539062,67.47153472900389
3019,133.61540222167972,-9.572274208068848,-71.18338775634766,111.15730285644531
3020,135.62747192382812,-22.415090560913086,-75.18133544921875,86.80681610107422
3021,112.89261627197266,-62.41706085205078,-114.27825164794922,38.48731231689453
3022,110.4504623413086,-42.40485382080078,-105.84851837158205,52.61291122436523
3023,141.14382934570312,8.027695655822754,-65.37532043457031,101.82999420166016
3024,136.91773986816406,-19.969196319580078,-66.26168060302734,87.89512634277344
3025,103.0379867553711,-60.83882141113281,-105.25013732910156,44.86009979248047
3026,106.84519958496094,-60.34141540527344,-98.30513763427734,62.62462615966797
3027,143.3279266357422,-5.697737693786621,-63.59138870239258,106.0523452758789
3028,145.33251953125,-7.728503227233888,-60.285316467285156,86.01396179199219
3029,115.80599975585938,-57.54771041870117,-94.16506958007812,37.918846130371094
3030,110.21858978271484,-18.009489059448242,-93.4769287109375,60.2647476196289
3031,140.87081909179688,25.79595947265625,-61.91591262817383,106.833984375
3032,143.85525512695312,-7.466710090637207,-58.77439880371094,92.03145599365234
3033,104.15995025634766,-86.34120178222656,-109.07979583740234,38.44243240356445
3034,119.64688110351562,-45.46783447265625,-100.4219207763672,61.67095184326172
3035,140.76609802246094,4.934797763824463,-72.1333236694336,101.31015014648438
3036,146.5592041015625,-0.3384609520435333,-63.8157844543457,93.27684783935548
3037,98.11627197265624,-52.9663314819336,-107.32952117919922,35.783363342285156
3038,98.6697769165039,-34.255615234375,-108.90027618408205,57.781455993652344
3039,139.00460815429688,-3.1546056270599365,-77.81048583984375,96.2986831665039
3040,134.31851196289062,0.37212005257606506,-63.69984436035156,88.49725341796875
3041,108.0008316040039,-56.83338928222656,-104.65548706054688,29.66114616394043
3042,111.0338897705078,5.944571018218994,-98.06204986572266,59.55416870117188
3043,139.99192810058594,-8.988849639892578,-66.96477508544922,100.99974060058594
3044,139.63290405273438,-10.24919605255127,-60.9360580444336,88.15692138671875
3045,114.93460845947266,-51.05524444580078,-103.56717681884766,34.90448760986328
3046,125.11087036132812,-43.20519256591797,-95.56753540039062,51.77517318725586
3047,128.06539916992188,-2.2607696056365967,-72.5372314453125,96.55299377441406
3048,134.53541564941406,-14.045194625854492,-64.39173126220703,90.72623443603516
3049,98.34815216064452,-46.361671447753906,-107.66236877441406,42.20103073120117
3050,106.44503021240234,-14.613658905029295,-95.29077911376952,61.42411804199219
3051,135.90048217773438,-5.420985221862793,-71.13102722167969,99.7281723022461
3052,141.51780700683594,1.5427087545394895,-66.50102996826172,89.35742950439453
3053,99.84037017822266,-66.56086730957031,-116.03600311279295,39.85611343383789
3054,113.37506866455078,-30.65035057067871,-105.85225677490234,61.56249237060547
3055,146.5554656982422,17.029634475708008,-73.89481353759766,107.0359344482422
3056,138.56329345703122,-6.827187538146973,-72.05104064941406,89.4920654296875
3057,89.00213623046875,-67.46218872070311,-114.09125518798828,30.607341766357425
3058,119.13077545166016,-34.85025787353516,-99.91329956054688,56.86517715454102
3059,130.74690246582028,7.436790943145753,-72.75414276123047,100.22557830810548
3060,140.75486755371094,-4.3214545249938965,-63.5352897644043,94.27539825439452
3061,100.22183990478516,-60.84256362915039,-116.59325408935548,34.14154815673828
3062,104.97898864746094,-44.83953094482422,-105.27257537841795,53.76480102539063
3063,140.16397094726562,7.294674873352051,-74.17156219482422,100.66688537597656
3064,142.9950714111328,-12.829727172851562,-66.41875457763672,91.12266540527344
3065,97.48796844482422,-61.579322814941406,-108.8329620361328,35.66742706298828
3066,117.74700927734376,-35.762794494628906,-94.25109100341795,56.00874328613281
3067,132.13066101074222,28.110958099365234,-71.68079376220703,93.96124267578124
3068,138.75776672363278,-6.385879039764403,-66.66184997558594,83.73635864257812
3069,101.5308074951172,-81.47559356689453,-115.3740463256836,30.259531021118164
3070,113.3376693725586,-47.779090881347656,-107.28838348388672,60.22734832763672
3071,150.3589324951172,-3.715590715408325,-78.19195556640625,105.79802703857422
3072,139.82737731933594,-16.240514755249027,-73.43480682373047,92.6036605834961
3073,122.50790405273438,-60.61816787719727,-112.34098815917969,43.42771911621094
3074,111.00022888183594,-36.38361740112305,-111.91463470458984,59.89449691772461
3075,127.11546325683594,-15.241962432861328,-79.47474670410156,101.88983154296876
3076,143.7505340576172,4.220477104187012,-70.46158599853516,96.60535430908205
3077,106.1121826171875,-56.72867202758789,-112.7261962890625,38.50600814819336
3078,116.96163177490234,-23.98958778381348,-99.78987884521484,63.2940673828125
3079,129.49777221679688,24.6665096282959,-80.0843505859375,96.51185607910156
3080,145.1006317138672,-6.109126567840576,-69.48172760009766,84.52922058105469
3081,119.5234603881836,-70.02401733398439,-109.2742691040039,32.623146057128906
3082,110.6262435913086,-32.838191986083984,-108.68710327148438,51.88363265991211
3083,140.05924987792972,-5.4396843910217285,-74.71011352539062,93.2880630493164
3084,141.96286010742188,40.4301872253418,-65.64459228515625,90.2325668334961
3085,109.78475952148438,-68.09423065185547,-111.97073364257812,27.009557723999023
3086,111.5125961303711,-62.17770767211914,-109.06857299804688,48.330726623535156
3087,141.2560272216797,-10.76156234741211,-77.01014709472656,96.38470458984376
3088,143.1558837890625,-4.486010074615479,-64.28327178955078,92.38674926757812
3089,101.6953582763672,-60.33393478393555,-110.41119384765624,32.46607208251953
3090,112.42139434814452,-16.902477264404293,-105.87095642089844,60.305885314941406
3091,136.166015625,-8.51014232635498,-78.44627380371094,100.33777618408205
3092,153.13768005371094,7.4779300689697275,-59.26058578491211,97.78716278076172
3093,101.2989273071289,-59.2979850769043,-110.69168853759766,39.72895812988281
3094,103.81214141845705,-48.06706237792969,-100.9642105102539,62.23193359375
3095,132.42985534667972,2.1373529434204097,-77.30934143066406,103.83084106445312
3096,155.23202514648438,-8.876652717590332,-59.98612594604492,102.843505859375
3097,95.79005432128906,-60.91361999511719,-108.85540008544922,48.87301254272461
3098,104.14873504638672,-43.37722778320313,-97.09715270996094,63.76903533935547
3099,130.54495239257812,0.2898422479629517,-69.62010955810547,104.18987274169922
3100,142.93898010253906,12.137845039367676,-51.45915222167969,102.7986297607422
3101,103.93930053710938,-57.693565368652344,-108.40287017822266,37.28680419921875
3102,117.30944061279295,-25.68376350402832,-104.65548706054688,49.3330192565918
3103,144.40501403808594,3.652012348175049,-72.26421356201172,93.97620391845705
3104,146.2562713623047,9.519915580749512,-59.140907287597656,91.90430450439452
3105,112.72432708740234,-37.49436569213867,-104.37873840332031,38.93610000610352
3106,105.3305435180664,-48.351295471191406,-106.73487854003906,54.17618942260742
3107,134.10533142089844,-4.067141056060791,-79.57572174072266,98.44538879394531
3108,146.1291046142578,10.35765266418457,-63.292198181152344,95.49834442138672
3109,116.6325225830078,-67.26023101806639,-109.46126556396484,38.22551727294922
3110,108.91336822509766,-37.09419631958008,-107.08268737792969,53.57406616210938
3111,144.75282287597656,5.693997859954834,-71.56111907958984,101.05583953857422
3112,142.6659698486328,-20.95652961730957,-75.28605651855469,91.14510345458984
3113,102.65277099609376,-76.15745544433594,-115.62088012695312,34.59407424926758
3114,103.77474212646484,-43.47820663452149,-108.84417724609376,59.81595993041992
3115,150.94610595703125,-2.7170372009277344,-71.51249694824219,105.65591430664062
3116,137.93873596191406,-8.753235816955566,-76.88299560546875,93.5610809326172
3117,102.21146392822266,-55.41970825195313,-111.69398498535156,44.94985580444336
3118,101.2353515625,-27.42281723022461,-114.72330474853516,59.56912612915039
3119,128.79841613769528,-35.523441314697266,-84.620849609375,101.41860961914062
3120,161.9975128173828,8.742015838623049,-58.79309844970703,97.61886596679688
3121,93.83409118652344,-92.2315444946289,-123.82247924804688,23.961538314819336
3122,105.18094635009766,-41.91119003295898,-113.21611785888672,43.15096664428711
3123,137.54603576660156,-13.506649017333984,-80.970703125,88.27285766601562
3124,157.3675079345703,-6.1727046966552725,-64.71335601806639,91.64250946044922
3125,109.89695739746094,-72.77658081054688,-114.9364776611328,30.80555534362793
3126,109.4444351196289,-55.44588851928711,-116.32023620605469,48.42048645019531
3127,146.34228515625,13.779661178588867,-74.4034423828125,98.81189727783205
3128,132.24285888671878,-14.901631355285645,-68.60659790039061,92.27081298828124
3129,99.42523956298828,-88.60758209228516,-119.54777526855469,29.642446517944336
3130,105.00143432617188,-33.85918426513672,-104.53581237792969,60.19369125366211
3131,144.70420837402344,-20.388065338134766,-78.87261962890625,96.6390151977539
3132,148.31695556640625,-17.639238357543945,-65.53987884521484,98.89043426513672
3133,90.2587432861328,-74.08928680419922,-115.76299285888672,40.19270324707031
3134,132.11196899414062,-65.49125671386719,-101.7832489013672,62.2094955444336
3135,128.1551513671875,-21.038806915283203,-77.50755310058594,101.6355209350586
3136,143.8103790283203,-24.41219711303711,-59.84027099609375,103.31473541259766
3137,114.4409408569336,-78.59587097167969,-107.7072525024414,30.962631225585934
3138,133.54434204101562,-60.64434814453125,-98.18920135498048,52.79990768432617
3139,139.13175964355472,-35.8338508605957,-71.24322509765625,94.12580108642578
3140,154.1848602294922,-26.768333435058594,-61.30630874633789,96.16030883789062
3141,115.91819763183594,-82.91171264648438,-112.31480407714844,35.304656982421875
3142,129.23971557617188,-61.14923477172852,-103.77287292480469,55.62353134155274
3143,136.42033386230472,-17.175491333007812,-83.67091369628906,89.53694152832031
3144,166.3133544921875,-14.733335494995115,-64.74701690673828,95.53948211669922
3145,102.08431243896484,-88.2410659790039,-117.29634857177734,32.286556243896484
3146,116.21739196777344,-61.22403335571289,-104.68540954589844,58.47707748413086
3147,130.72445678710938,-9.703170776367188,-79.73279571533203,96.78487396240234
3148,139.15419006347656,3.640792608261109,-66.19809722900389,105.84291076660156
3149,106.78536224365234,-68.87586975097656,-110.78518676757812,45.45474243164063
3150,103.96173858642578,-75.44313049316406,-110.40371704101562,60.2535285949707
3151,152.64401245117188,-26.514020919799805,-75.17759704589844,106.73300170898438
3152,152.04188537597656,-28.69438171386719,-70.35686492919922,103.22872161865234
3153,103.05294036865234,-83.46147918701172,-115.22071075439452,40.19270324707031
3154,109.62020874023438,-57.43551254272461,-118.68385314941406,63.63813781738281
3155,135.84065246582028,-31.996713638305664,-86.86104583740234,99.28312683105469
3156,154.85055541992188,-31.162715911865234,-70.207275390625,107.33512878417969
3157,98.5463638305664,-99.62158203125,-119.09524536132812,37.26436233520508
3158,138.05841064453122,-67.48836517333984,-111.25267028808594,64.64043426513672
3159,122.85197448730469,-34.19577407836914,-87.28365325927734,101.57942199707031
3160,152.28872680664062,-33.728286743164055,-76.23599243164062,98.59872436523438
3161,107.15935516357422,-86.96576690673828,-121.5,31.13840675354004
3162,111.64723205566406,-52.98877334594727,-117.0869140625,50.21563720703125
3163,139.08314514160156,-40.80418014526367,-89.27328491210938,91.0142059326172
3164,155.56488037109375,-23.03217315673828,-68.22138214111328,95.52078247070312
3165,115.2637176513672,-73.16927337646484,-110.396240234375,43.27438354492188
3166,111.0712890625,-60.58076858520508,-107.38187408447266,55.42157745361328
3167,132.80384826660156,-9.553574562072754,-73.91725158691406,99.91143035888672
3168,151.67538452148438,2.133612871170044,-61.29883193969727,106.6357650756836
3169,113.37133026123048,-76.99893188476562,-109.62581634521484,45.55572128295898
3170,111.88285064697266,-54.73530578613281,-103.25676727294922,63.55212020874024
3171,136.46147155761722,17.30264663696289,-70.76451873779297,103.25489807128906
3172,152.71133422851562,-16.68182373046875,-61.58306121826172,101.38494873046876
3173,109.122802734375,-93.43952941894531,-106.58901977539062,40.72377014160156
3174,113.93605041503906,-61.30257034301758,-103.49612426757812,60.18994903564453
3175,139.70770263671878,-8.00899600982666,-78.44627380371094,99.89273071289062
3176,146.1814727783203,8.416645050048826,-53.72179412841797,97.64505004882812
3177,111.7108154296875,-77.36170196533203,-108.83670043945312,39.500823974609375
3178,112.01374053955078,-52.28940963745117,-101.00908660888672,57.34388732910156
3179,132.36253356933594,-19.569026947021484,-77.18218231201172,92.97391510009766
3180,156.8551483154297,-17.287687301635742,-61.044517517089844,100.16200256347656
3181,109.19385528564452,-73.11691284179688,-106.82463073730469,43.79796981811523
3182,124.59850311279295,-67.49958801269531,-93.88457489013672,64.76384735107422
3183,142.15733337402344,-5.342447280883789,-86.21778106689453,87.06861114501953
3184,136.27447509765622,-21.9962215423584,-70.25962829589844,90.84964752197266
3185,106.25055694580078,-82.04031372070312,-104.90606689453124,38.35641479492188
3186,118.77174377441406,-44.192527770996094,-96.24071502685548,59.37465286254883
3187,141.78334045410156,-28.53356742858887,-72.1370620727539,90.22134399414062
3188,157.22914123535156,-14.269588470458984,-50.89068984985352,100.0946807861328
3189,109.45565032958984,-80.45833587646484,-103.02863311767578,36.47150421142578
3190,119.8226547241211,-54.87368392944336,-102.3105697631836,48.59626007080078
3191,144.04225158691406,-22.97233581542969,-77.18218231201172,88.6244125366211
3192,155.6209716796875,-10.600746154785156,-57.042823791503906,102.39472198486328
3193,107.3164291381836,-61.37362670898438,-100.7622528076172,38.96601867675781
3194,126.55821228027344,-67.92219543457031,-96.01631927490234,55.04758834838867
3195,144.96974182128906,-30.246440887451172,-73.2403335571289,103.52043151855469
3196,153.49671936035156,-25.41823005676269,-55.49824523925781,106.86389923095705
3197,102.18528747558594,-88.86189270019531,-111.1404800415039,39.01089477539063
3198,112.32415771484376,-78.79034423828125,-106.49178314208984,50.79532241821289
3199,128.15888977050778,-24.61415100097656,-84.35157012939453,93.3105010986328
3200,145.66162109375,-10.49976921081543,-63.77090454101562,102.69391632080078
3201,121.9730987548828,-83.06130981445312,-111.61170196533205,37.31672286987305
3202,126.52081298828124,-65.23694610595703,-115.0150146484375,49.47887802124024
3203,165.1726837158203,-26.861831665039066,-81.2511978149414,94.0884017944336
3204,150.90122985839844,-14.329426765441895,-74.32115936279297,94.00238800048828
3205,96.78861236572266,-83.8392105102539,-119.54402923583984,28.0230712890625
3206,117.02146911621094,-34.08731842041016,-103.8364486694336,50.55222702026367
3207,138.31646728515622,-24.344879150390625,-83.7419662475586,89.45466613769531
3208,145.9159393310547,-5.394805908203125,-71.4152603149414,96.07803344726562
3209,106.80406188964844,-91.58454132080078,-118.4706802368164,36.67720031738281
3210,127.19400024414062,-51.171180725097656,-106.41698455810548,54.86433410644531
3211,117.0326919555664,-32.108909606933594,-86.04949188232422,92.08755493164062
3212,170.47959899902344,2.82923436164856,-53.65447616577149,108.51693725585938
3213,124.81168365478516,-91.78649139404295,-111.6191864013672,36.51264190673828
3214,107.9559555053711,-51.74712753295898,-101.1848602294922,58.967002868652344
3215,159.98544311523438,-18.312419891357425,-73.54700469970703,94.6905288696289
3216,147.6662139892578,-32.48290252685547,-58.57244491577149,102.58732604980469
3217,107.81009674072266,-77.74691009521484,-109.53605651855469,43.59414291381836
3218,106.91999816894531,-68.43830108642578,-107.98026275634766,60.4835319519043
3219,140.49308776855472,-30.1716423034668,-73.46098327636719,104.1543426513672
3220,151.23406982421875,-8.001516342163086,-57.15876007080078,105.24639129638672
3221,118.15091705322266,-83.50261688232422,-104.65174865722656,37.670143127441406
3222,113.57328033447266,-51.47411346435547,-96.67454528808594,57.43551254272461
3223,139.59176635742188,-33.825523376464844,-77.08120727539062,96.83909606933594
3224,151.8175048828125,-16.75288200378418,-59.3802604675293,106.97048950195312
3225,119.4187469482422,-73.61805725097656,-107.15373992919922,45.45287322998047
3226,116.05657196044922,-48.64674758911133,-104.15060424804688,57.83942413330078
3227,137.81156921386722,-34.895137786865234,-79.19051361083984,93.96311950683594
3228,147.3894500732422,-13.659984588623047,-50.2474250793457,103.3166046142578
3229,116.23235321044922,-67.56316375732422,-93.04684448242188,42.45721435546875
3230,110.31582641601562,-63.60260772705078,-104.27776336669922,50.19132614135742
3231,133.56678771972656,-5.073174476623535,-68.33731842041016,101.68226623535156
3232,154.74957275390625,15.189603805541992,-50.72613143920898,101.01282501220705
3233,122.1376495361328,-76.95404815673828,-106.7685317993164,36.15548324584961
3234,104.43296813964844,-71.03752899169922,-106.53292083740234,57.70852661132813
3235,129.94282531738278,-16.464910507202152,-74.5492935180664,102.17219543457031
3236,152.7487335205078,-4.130719661712647,-49.66773986816406,118.37718200683594
3237,92.06511688232422,-54.23041915893555,-110.39249420166016,49.07683563232422
3238,117.68343353271484,-58.40788650512695,-102.13479614257812,63.28845596313477
3239,142.6884002685547,-3.1022469997406006,-80.1479263305664,97.21682739257812
3240,144.03102111816406,-2.758176326751709,-60.59946823120117,103.92620849609376
3241,94.64564514160156,-70.56629943847656,-103.82897186279295,46.06621932983398
3242,97.04666137695312,-77.63097381591797,-108.28319549560548,61.728919982910156
3243,128.3309326171875,-25.78848075866699,-82.38064575195312,103.23806762695312
3244,156.7354736328125,-1.725963830947876,-51.91542053222656,111.95577239990234
3245,99.6047592163086,-73.259033203125,-110.29525756835938,39.2446403503418
3246,101.40364837646484,-37.14655685424805,-104.54329681396484,60.12076187133789
3247,146.43577575683594,2.466464042663574,-75.33467102050781,95.12996673583984
3248,148.15614318847656,-34.33041000366211,-52.17721557617188,101.1287612915039
3249,95.4123306274414,-73.50960540771484,-103.64197540283205,37.01940155029297
3250,112.66822814941406,-42.2664794921875,-96.5062484741211,54.49595260620117
3251,116.14259338378906,-18.162824630737305,-82.86309051513672,85.89614868164062
3252,148.93777465820312,4.609426498413086,-44.55903625488281,113.272216796875
3253,120.17046356201172,-59.57847595214844,-94.04165649414062,49.342369079589844
3254,104.9453353881836,-33.75072860717773,-102.00016021728516,64.91157531738281
3255,124.64338684082031,-24.29999923706055,-75.63760375976562,99.0979995727539
3256,135.70600891113278,-0.2187841534614563,-50.32970428466797,115.74429321289062
3257,107.0359344482422,-61.579322814941406,-97.47862243652344,53.19820785522461
3258,112.39147186279295,-39.48025512695313,-101.91414642333984,61.9570541381836
3259,135.69479370117188,-4.983416557312012,-74.03692626953125,96.65584564208984
3260,167.99630737304688,-10.806441307067873,-50.75231170654297,105.38477325439452
3261,97.7235870361328,-85.09955596923828,-108.3916473388672,36.31629943847656
3262,114.9084243774414,-49.88839721679688,-101.49901580810548,55.39352798461914
3263,128.10653686523438,-8.285748481750487,-80.64533233642578,82.92667388916016
3264,155.49755859375,-9.72560977935791,-56.41826248168945,97.64318084716795
3265,115.82096099853516,-71.68827056884766,-102.4452133178711,39.37553787231445
3266,110.86933135986328,-34.7193603515625,-107.1088638305664,46.170936584472656
3267,135.66487121582028,-26.416784286499023,-72.20811462402344,82.1973876953125
3268,152.65524291992188,7.032881736755371,-50.32222366333008,89.13116455078125
3269,112.9001007080078,-50.2549057006836,-103.16326904296876,28.6158447265625
3270,129.03028869628906,-30.51945304870605,-107.21732330322266,40.531166076660156
3271,116.18373107910156,-37.05679702758789,-91.53965759277344,83.40164184570312
3272,142.17230224609375,1.1612389087677002,-60.72662734985352,110.29151916503906
3273,111.58365631103516,-66.39257049560547,-106.18136596679688,47.08721160888672
3274,103.4044952392578,-57.62998962402344,-112.29610443115234,53.66195297241211
3275,121.23633575439452,1.2696959972381592,-88.5589599609375,94.26604461669922
3276,154.42047119140625,-14.127471923828125,-61.2763900756836,115.3777847290039
3277,105.96258544921876,-59.65701293945313,-107.65489196777344,49.27505111694336
3278,107.32765197753906,-53.459999084472656,-113.15628051757812,54.3613166809082
3279,139.95079040527344,-24.44585609436035,-88.14009094238281,89.1760482788086
3280,149.5174560546875,7.305894374847412,-62.13282775878906,111.85105895996094
3281,119.1045913696289,-62.31982421875,-105.5829849243164,43.99431228637695
3282,116.97659301757812,-59.05488967895508,-106.7236557006836,58.54252243041992
3283,128.03921508789062,-12.104186058044435,-76.7558364868164,105.5156707763672
3284,154.3157501220703,4.9460177421569815,-55.35612869262695,113.9902801513672
3285,103.0417251586914,-45.27335739135742,-103.33904266357422,39.11000442504883
3286,119.3626480102539,-57.693565368652344,-100.48550415039062,55.404747009277344
3287,148.17483520507812,-3.521115779876709,-75.64134979248047,85.12947082519531
3288,159.8956756591797,4.710403919219972,-58.36301040649414,88.38318634033203
3289,96.94568634033205,-52.36420822143555,-110.07086181640624,26.00913429260254
3290,106.51982879638672,-38.8930892944336,-99.65150451660156,46.54118347167969
3291,122.7509994506836,10.712943077087402,-81.15022277832031,88.51408386230469
3292,147.03790283203125,37.7187614440918,-60.69296646118164,112.13529205322266
3293,101.78885650634766,-78.62952423095703,-111.97447204589844,50.76353073120117
3294,101.87113189697266,-43.7400016784668,-112.55789947509766,59.69815444946289
3295,144.0160675048828,-10.421231269836426,-83.2183837890625,98.74644470214844
3296,150.1981201171875,3.2668025493621826,-60.34515762329102,116.02478790283205
3297,119.7590789794922,-68.63277435302734,-109.13214874267578,45.44165420532226
3298,116.93919372558594,-61.003379821777344,-111.34991455078124,62.38714218139648
3299,120.2041244506836,-7.111419677734375,-85.45110321044922,96.07241821289062
3300,149.07615661621094,-4.732843399047852,-57.39811325073242,111.6229248046875
3301,116.66243743896484,-58.927734375,-110.76274871826172,39.10626220703125
3302,115.5442123413086,-40.19457626342773,-109.02369689941406,43.42584991455078
3303,128.85450744628906,-15.582293510437012,-85.69793701171875,81.07542419433594
3304,163.35882568359375,-2.8928127288818364,-61.23151016235352,95.83680725097656
3305,121.42707061767578,-35.24294662475586,-104.70410919189452,28.81031990051269
3306,117.2944793701172,-61.960792541503906,-109.4986572265625,35.68799591064453
3307,132.41116333007812,16.977275848388672,-83.1136703491211,84.79288482666016
3308,159.6488494873047,13.671204566955565,-61.22029113769531,98.95962524414062
3309,129.32200622558594,-68.81228637695311,-102.3105697631836,39.55131149291992
3310,98.76327514648438,-51.61996841430664,-108.90401458740234,54.604408264160156
3311,124.99119567871094,5.963270664215088,-81.37834930419922,100.87445068359376
3312,153.0853271484375,14.535120964050293,-57.94787979125977,120.64730072021484
3313,103.8046646118164,-52.38290786743164,-109.98110961914062,50.28482437133789
3314,105.90648651123048,-37.20265579223633,-115.92755126953124,57.52527236938477
3315,125.1632308959961,8.042654991149902,-96.147216796875,89.9202880859375
3316,142.75572204589844,22.68062400817871,-70.17361450195311,113.01042938232422
3317,87.56975555419922,-61.15297317504883,-122.3078155517578,40.3479118347168
3318,113.019775390625,-38.20868682861328,-116.06218719482422,56.39208221435547
3319,110.813232421875,-3.468757152557373,-102.53496551513672,83.517578125
3320,153.29849243164062,26.01661491394043,-64.09253692626953,101.59625244140624
3321,104.6723175048828,-43.42584991455078,-112.86083221435548,28.2755126953125
3322,100.99974060058594,-30.62417030334473,-109.34532165527344,43.4408073425293
3323,130.83291625976562,4.8712196350097665,-85.0845947265625,80.24142456054688
3324,154.31948852539062,52.0911979675293,-54.58945083618164,97.6282196044922
3325,128.98541259765622,-41.634437561035156,-102.72570037841795,29.274066925048828
3326,100.82395935058594,-25.451889038085934,-115.9612045288086,31.52548599243164
3327,121.90951538085938,-8.813074111938477,-85.71289825439453,75.36085510253906
3328,146.28993225097656,26.514020919799805,-56.126548767089844,105.89714050292969
3329,106.75918579101562,-58.11243438720703,-97.52349853515624,54.40619277954102
3330,112.69066619873048,-44.99286651611328,-101.56259155273438,71.07866668701172
3331,129.98396301269528,5.241469860076903,-82.8593521118164,110.69916534423828
3332,154.08013916015625,16.711742401123047,-60.07588195800781,129.73526000976562
3333,100.9361572265625,-76.13875579833984,-113.79580688476562,58.34056854248047
3334,104.77703857421876,-47.85763168334961,-113.58263397216795,70.76825714111328
3335,123.7196273803711,-4.534628868103027,-93.80603790283205,97.73667907714844
3336,141.23731994628906,4.691704273223877,-61.347450256347656,120.59120178222656
3337,101.58689880371094,-60.83882141113281,-111.07689666748048,47.162010192871094
3338,108.27384185791016,-44.93302917480469,-113.70978546142578,59.78417205810547
3339,121.90951538085938,-1.591327428817749,-92.5531768798828,91.5920181274414
3340,149.4912872314453,12.193943977355955,-65.10231018066406,111.6229248046875
3341,105.04631042480469,-61.83363723754883,-110.37005615234376,43.13787460327149
3342,110.80949401855469,-49.75001907348633,-107.1238250732422,55.4945068359375
3343,116.92423248291016,-15.354159355163574,-89.84922790527344,84.19075775146484
3344,147.62881469726562,14.007795333862305,-56.48931884765625,110.53087615966795
3345,99.63841247558594,-31.30483245849609,-102.53496551513672,38.01795196533203
3346,112.34659576416016,-42.13184356689453,-102.25821685791016,46.51874542236328
3347,129.69973754882812,1.9802770614624023,-82.35820770263672,80.70143127441406
3348,152.93572998046875,44.48049926757813,-57.91421890258789,111.01332092285156
3349,95.13557434082031,-65.53239440917969,-108.35050964355469,36.68280792236328
3350,106.48991394042969,-38.25356674194336,-108.2270965576172,49.46578598022461
3351,127.29871368408205,-15.754328727722168,-89.4041748046875,89.53133392333984
3352,161.859130859375,13.13265895843506,-60.27035903930664,110.85250091552734
3353,95.36744689941406,-59.66449356079102,-113.6312484741211,42.59933090209961
3354,99.41402435302734,-50.46060180664063,-114.02767944335938,47.60331726074219
3355,129.31451416015622,8.166071891784668,-84.7255630493164,88.80205535888672
3356,176.1492919921875,24.4907341003418,-57.121360778808594,117.55066680908205
3357,87.1022720336914,-53.89382934570313,-117.8049774169922,41.51102066040039
3358,108.7001953125,-51.17492294311523,-111.2190170288086,57.21112060546875
3359,114.78874969482422,-9.467556953430176,-89.53507232666016,88.30464935302734
3360,156.61953735351562,29.56203842163086,-49.86221694946289,123.16425323486328
3361,108.55059814453124,-44.79465103149414,-93.09919738769531,57.97031784057617
3362,107.88115692138672,-30.609210968017575,-104.71158599853516,62.07299041748047
3363,133.32369995117188,-10.922377586364746,-85.95599365234375,79.35881042480469
3364,159.50299072265625,17.033374786376953,-54.61936950683594,102.72196197509766
3365,110.7085189819336,-73.22163391113281,-106.13648986816406,35.8338508605957
3366,106.10095977783205,-56.6276969909668,-101.065185546875,48.02218627929688
3367,131.06852722167972,-26.697275161743164,-81.74860382080078,85.13320922851562
3368,162.95492553710938,15.473835945129395,-55.5244255065918,100.53038024902344
3369,103.43815612792969,-94.1762924194336,-109.0947494506836,44.40944290161133
3370,111.44153594970705,-73.83497619628906,-107.8119659423828,46.8441162109375
3371,139.58428955078122,-32.034114837646484,-87.00690460205078,92.38861846923828
3372,158.74752807617188,-22.067279815673828,-57.09518432617188,114.38671112060548
3373,118.2556381225586,-60.59946823120117,-101.27835845947266,52.9364128112793
3374,103.2436752319336,-85.25289154052734,-112.1278076171875,51.76582336425781
3375,135.07395935058594,-52.5549430847168,-88.86936950683594,91.66307830810548
3376,155.4526824951172,-15.683270454406738,-58.65098190307617,120.74828338623048
3377,133.81736755371094,-85.2080078125,-102.52000427246094,50.76727294921875
3378,123.69718933105469,-72.50730895996094,-102.17967987060548,57.55892944335938
3379,150.90122985839844,-32.681114196777344,-80.2489013671875,94.87191009521484
3380,159.67503356933594,16.214336395263672,-49.33863067626953,121.82537078857422
3381,134.52420043945312,-67.56316375732422,-95.58997344970705,53.87138748168945
3382,102.07682800292969,-77.17096710205078,-109.80533599853516,58.837974548339844
3383,126.16178131103516,-41.30158615112305,-81.96177673339844,98.0732650756836
3384,163.11573791503906,5.170411586761475,-58.75195693969727,119.26354217529295
3385,120.39859771728516,-71.48632049560547,-102.29935455322266,45.71466827392578
3386,106.26551818847656,-81.88697814941406,-114.45402526855469,42.12062454223633
3387,127.14911651611328,-39.88416290283203,-86.02704620361328,82.26097106933594
3388,160.5352020263672,-6.262462615966798,-58.08251571655274,105.08184051513672
3389,118.77922058105469,-58.27699279785156,-102.07869720458984,37.7711181640625
3390,107.90733337402344,-56.72493362426758,-115.99860382080078,44.31220626831055
3391,129.40428161621094,-21.136045455932614,-91.67803955078124,77.77308654785156
3392,170.0869140625,3.8090879917144775,-53.08227157592773,107.63993072509766
3393,127.46701049804688,-75.97419738769531,-105.15290069580078,43.03689956665039
3394,114.77378845214844,-56.2873649597168,-107.86058807373048,43.3585319519043
3395,132.59815979003906,-23.01721382141113,-80.15540313720703,83.93644714355469
3396,158.91583251953125,13.48794937133789,-52.30063247680664,115.05241394042969
3397,113.62190246582031,-68.52805328369139,-104.4198760986328,48.27649688720703
3398,125.32778930664062,-39.79066467285156,-107.61749267578124,52.805519104003906
3399,128.54035949707028,-51.27589797973633,-92.7962646484375,79.40742492675781
3400,152.64027404785156,1.1537591218948364,-55.67776107788086,111.54812622070312
3401,116.46048736572266,-71.05996704101562,-102.68830108642578,43.7923583984375
3402,111.46023559570312,-58.32934951782226,-100.724853515625,52.906494140625
3403,129.60997009277344,-21.094905853271484,-80.9482650756836,83.48391723632812
3404,169.15567016601562,23.56324005126953,-43.160316467285156,110.9422607421875
3405,130.45518493652344,-51.358177185058594,-96.1285171508789,42.50957107543945
3406,119.51224517822266,-35.231727600097656,-98.70905303955078,44.28602600097656
3407,121.6290283203125,-13.274774551391602,-89.75572967529297,70.36061096191406
3408,157.80508422851562,3.2144439220428467,-62.52177810668945,101.01657104492188
3409,128.98915100097656,-68.50935363769531,-106.77601623535156,38.133888244628906
3410,112.8178253173828,-60.92110061645508,-109.89508819580078,43.47446823120117
3411,130.31307983398438,-31.83589744567871,-100.41818237304688,70.34564971923828
3412,156.0061798095703,0.9892035126686096,-57.42803192138672,106.6451187133789
3413,121.55422973632812,-68.16154479980469,-102.9687957763672,52.60730361938477
3414,106.48991394042969,-48.46723175048828,-107.76334381103516,49.61538314819336
3415,125.08843231201172,-24.70764923095703,-91.6069793701172,80.98566436767578
3416,155.73316955566406,29.01975440979004,-57.34949493408203,114.47647094726562
3417,109.63330078125,-44.18691635131836,-109.19573211669922,42.11688232421875
3418,105.77745819091795,-54.052772521972656,-113.38067626953124,42.19168090820313
3419,135.52462768554688,-16.040430068969727,-89.46401977539062,78.40887451171875
3420,165.2044677734375,-4.768372535705566,-58.64350128173828,104.8200454711914
3421,107.4678955078125,-59.26245498657226,-112.05675506591795,39.68220901489258
3422,114.9963150024414,-51.51338195800781,-117.92465209960938,46.79923629760742
3423,112.83464813232422,-28.76731109619141,-102.37789154052734,80.04320526123047
3424,165.17080688476562,10.69611358642578,-56.6800537109375,113.78084564208984
3425,117.51326751708984,-54.28464889526367,-103.9897918701172,42.09444427490234
3426,116.85130310058594,-63.76155471801758,-109.2705307006836,47.9773063659668
3427,125.83828735351562,-16.01051139831543,-90.83281707763672,75.70866394042969
3428,153.39012145996094,7.322724342346191,-62.12534713745117,105.45208740234376
3429,113.06278228759766,-66.13265228271484,-108.62726593017578,41.72419357299805
3430,105.72510528564452,-52.7251091003418,-107.57635498046876,53.2281265258789
3431,123.3662109375,-40.47319793701172,-96.5324249267578,77.87032318115234
3432,173.40980529785156,17.86176300048828,-47.91372680664063,127.40530395507812
3433,116.05096435546876,-53.96675491333008,-100.77721405029295,52.16973495483398
3434,113.02912902832031,-56.49493026733398,-107.8306655883789,53.50487899780274
3435,143.2437744140625,-41.47549057006836,-82.11885070800781,79.91231536865234
3436,159.71055603027344,-2.25141978263855,-54.08456420898438,113.54149627685548
3437,132.68977355957028,-64.83116912841797,-98.9970245361328,46.79923629760742
3438,109.56597900390624,-65.78484344482422,-113.23856353759766,53.08600997924805
3439,114.90281677246094,-37.01005172729492,-96.19583892822266,79.91979217529297
3440,156.12025451660156,3.9605541229248047,-55.176612854003906,115.7779541015625
3441,121.5186996459961,-54.86433410644531,-102.04129791259766,46.22703170776367
3442,109.0760498046875,-39.31008911132813,-111.37982940673828,44.01675415039063
3443,118.8521499633789,-17.929080963134766,-95.94152069091795,75.58150482177734
3444,158.94761657714844,20.02342414855957,-54.81758499145508,113.1488037109375
3445,116.57080841064452,-47.92681884765625,-97.5534210205078,49.36854934692383
3446,114.3343505859375,-24.38414764404297,-105.8597412109375,52.80925750732422
3447,131.28358459472656,-20.457252502441406,-89.57247161865234,81.09412384033203
3448,173.22280883789062,12.18459415435791,-52.97755432128906,114.29695129394531
3449,92.21658325195312,-42.4478645324707,-108.6497039794922,43.61658477783203
3450,112.16520690917969,-58.85480499267578,-106.08787536621094,50.97296524047852
3451,136.24642944335938,-32.09208297729492,-86.08688354492188,88.24481201171875
3452,184.40138244628903,5.007726192474365,-49.21521377563477,122.15447998046876
3453,127.8428726196289,-49.06000900268555,-99.61410522460938,55.6067008972168
3454,131.10032653808594,-61.86168670654297,-108.04010009765624,50.78597259521485
3455,113.18620300292969,-33.40852737426758,-94.80085754394531,80.42093658447266
3456,163.65989685058594,28.064208984375,-48.33259582519531,117.52074432373048
3457,106.7012176513672,-62.62462615966797,-112.0230941772461,44.79465103149414
3458,114.04637908935548,-38.3526725769043,-117.54692840576172,50.53539657592773
3459,140.4912109375,-30.68961906433105,-98.18172454833984,89.11994934082031
3460,159.65072631835938,13.250465393066404,-59.42514038085938,117.10187530517578
3461,109.53605651855469,-50.49238967895508,-108.79930114746094,48.07080459594727
3462,106.0280303955078,-67.06014251708984,-110.83006286621094,50.54287719726562
3463,123.8336944580078,-23.071443557739254,-95.7470474243164,83.90278625488281
3464,148.1617431640625,13.83763027191162,-61.156715393066406,116.1968231201172
3465,119.7534637451172,-49.78180694580078,-104.64801025390624,50.9692268371582
3466,88.41310119628906,-38.38259506225586,-111.03202056884766,54.53709030151367
3467,109.375244140625,38.49105072021485,-79.5457992553711,93.52180480957031
3468,151.78196716308594,-8.691527366638184,-53.09349060058594,115.0112762451172
3469,121.50373840332031,-65.74369812011719,-90.4251708984375,53.02617263793945
3470,119.66744995117188,-75.07475280761719,-96.18087768554688,59.03245162963867
3471,142.33123779296875,-38.984718322753906,-81.12403869628906,83.39041900634766
3472,177.87899780273438,1.768972635269165,-54.42863464355469,114.31938934326172
3473,116.32772064208984,-41.89809799194336,-102.8865203857422,44.1850471496582
3474,110.42989349365234,-50.89255905151367,-107.96156311035156,47.65941619873047
3475,120.53510284423828,-18.88649559020996,-85.89614868164062,77.4776382446289
3476,163.21484375,23.08640289306641,-50.81962966918945,109.93622589111328
3477,100.12273406982422,-51.62931823730469,-104.04214477539062,40.53864669799805
3478,101.21104431152344,-43.28560256958008,-106.92935180664062,45.03774642944336
3479,110.9646987915039,2.367356777191162,-97.29911041259766,73.90977478027344
3480,150.52162170410156,27.62664031982422,-65.24068450927734,106.05047607421876
3481,109.92874908447266,-51.89111328125,-112.60277557373048,40.59474563598633
3482,90.36907196044922,-26.302717208862305,-124.06182861328124,41.79899215698242
3483,114.34557342529295,-25.629533767700195,-104.27776336669922,72.75040435791016
3484,149.12289428710938,34.915706634521484,-60.44987106323242,113.47791290283205
3485,116.1407241821289,-61.43159484863281,-104.0945053100586,46.97875213623047
3486,131.49301147460938,-55.47393417358398,-101.71966552734376,54.16683959960938
3487,113.31710052490234,-22.72737121582031,-94.8980941772461,76.50526428222656
3488,159.37770080566406,18.75933837890625,-55.81613540649414,109.14337158203124
3489,124.9145278930664,-33.93585205078125,-96.45762634277344,45.830604553222656
3490,110.56827545166016,-59.85335922241211,-102.89773559570312,43.0406379699707
3491,142.8211669921875,-26.50467109680176,-80.6116714477539,76.46038818359375
3492,161.74131774902344,-7.569557666778564,-55.04945755004883,105.78868103027344
3493,106.21876525878906,-63.87749099731445,-93.53302764892578,42.16176223754883
3494,112.55042266845705,-52.22022247314453,-96.06867980957031,45.59498977661133
3495,123.97955322265624,-15.12789535522461,-77.39910125732422,81.52794647216797
3496,154.85243225097656,23.92787933349609,-42.09070587158203,117.52822875976562
3497,116.5595932006836,-60.79207229614258,-96.34169006347656,41.97102737426758
3498,102.86407470703124,-40.65271377563477,-107.8306655883789,48.39617538452149
3499,119.10646057128906,-12.824116706848145,-90.89640045166016,85.09955596923828
3500,147.17440795898438,17.22597885131836,-55.322471618652344,124.79859161376952
3501,119.2298812866211,-54.23603057861328,-88.01293182373047,65.15840911865234
3502,108.24205780029295,-57.94226837158203,-111.5219497680664,48.53081130981445
3503,114.2520751953125,-19.84016990661621,-111.42096710205078,66.92738342285156
3504,158.43899536132812,6.597183704376222,-59.93002700805664,107.20236206054688
3505,128.47491455078122,-60.99028778076172,-103.40636444091795,46.15971374511719
3506,141.1307373046875,-76.45103454589844,-109.84647369384766,48.80008316040039
3507,136.00332641601562,-41.59516906738281,-94.60637664794922,79.41864776611328
3508,167.31002807617188,-12.850296020507812,-60.64434814453125,109.66321563720705
3509,117.3674087524414,-46.11670684814453,-100.3620834350586,44.40570068359375
3510,89.39669799804688,-63.73163604736328,-122.3265151977539,32.692337036132805
3511,124.60411834716795,-39.09317398071289,-89.39669799804688,72.43999481201172
3512,171.89515686035156,2.935821533203125,-56.638916015625,104.98086547851562
3513,104.30393981933594,-57.48974227905274,-105.14167785644531,35.418724060058594
3514,103.70555877685548,-25.46497917175293,-103.70181274414062,43.17527389526367
3515,115.6769790649414,-41.082801818847656,-88.63749694824219,77.27194213867188
3516,162.34718322753906,2.1167833805084233,-49.38351058959961,115.4338836669922
3517,110.66551208496094,-65.25751495361328,-98.69783020019531,51.15622329711914
3518,112.32976531982422,-54.06773376464844,-107.90546417236328,49.55554580688477
3519,119.42809295654295,-45.278968811035156,-107.9727783203125,70.49898529052734
3520,159.99853515625,15.191473960876465,-59.7430305480957,110.44859313964844
3521,131.72114562988278,-54.19488906860352,-100.40696716308594,44.55155944824219
3522,111.42471313476562,-66.67119598388672,-117.42724609375,47.43876266479492
3523,145.77195739746094,-27.024517059326172,-93.78733825683594,76.34444427490234
3524,177.81915283203125,-0.938714861869812,-52.99999237060547,113.72848510742188
3525,118.59410095214844,-75.07101440429688,-99.56548309326172,48.24283981323242
3526,127.69701385498048,-62.41144943237305,-97.6095199584961,49.55180358886719
3527,149.8671417236328,-43.11356735229492,-90.94501495361328,81.88323974609375
3528,168.0131378173828,1.3650634288787842,-56.82217025756836,114.03141784667969
3529,117.5843276977539,-48.289588928222656,-97.53845977783205,55.13921356201172
3530,108.05506134033205,-43.562355041503906,-106.45438385009766,46.52622604370117
3531,135.5321044921875,-42.72461700439453,-94.27352905273438,76.92039489746094
3532,170.82928466796875,17.024024963378903,-41.35768508911133,117.37863159179688
3533,120.89039611816406,-64.3973388671875,-81.99917602539062,54.76896667480469
3534,116.58576965332031,-50.11465835571289,-91.43494415283205,59.18952560424805
3535,123.45222473144531,-34.94936370849609,-76.4529037475586,92.04828643798828
3536,166.21798706054688,8.238999366760254,-38.4517822265625,129.54826354980472
3537,123.67288208007812,-59.0679817199707,-90.57850646972656,63.74846649169922
3538,109.9175262451172,-61.0052490234375,-95.6797332763672,58.74448013305664
3539,130.31494140625,-24.03259658813477,-83.1996841430664,94.16880798339844
3540,151.87921142578125,1.2379069328308103,-51.56013107299805,122.9062042236328
3541,130.83853149414062,-72.05665588378906,-91.909912109375,59.6607551574707
3542,105.24639129638672,-59.45318984985352,-109.21068572998048,49.1441535949707
3543,124.69013214111328,-37.23070526123047,-88.56644439697266,82.18617248535156
3544,163.0428009033203,-6.4588069915771475,-55.70019912719727,117.49830627441406
3545,126.5226821899414,-59.07545852661133,-104.4759750366211,49.67896270751953
3546,104.57321166992188,-55.54873275756836,-105.09305572509766,47.31908416748047
3547,117.13927459716795,-36.26206970214844,-97.84139251708984,77.0924301147461
3548,174.4382781982422,10.46798038482666,-53.609596252441406,111.42096710205078
3549,126.64984130859376,-61.33061981201172,-92.6541519165039,46.56736373901367
3550,112.28862762451172,-44.11212158203125,-96.32673645019531,50.30352401733398
3551,129.4285888671875,-32.335174560546875,-80.76875305175781,73.28894805908203
3552,161.29254150390625,12.906394958496096,-39.05016708374024,117.2215576171875
3553,122.07220458984376,-42.552581787109375,-86.52071380615234,58.29943084716797
3554,105.01451873779295,-35.917999267578125,-109.89134979248048,46.59728240966797
3555,124.36476135253906,-58.45463562011719,-95.07760620117188,70.05767822265625
3556,147.71295166015625,8.23151969909668,-52.71575927734375,114.8167953491211
3557,131.35462951660156,-59.62522506713867,-87.81098175048828,53.21316528320313
3558,94.14636993408205,-60.94915008544922,-102.13853454589844,48.13064193725586
3559,123.0034408569336,-29.833181381225586,-93.5405044555664,74.59791564941406
3560,167.06320190429688,3.795998573303223,-57.70852661132813,121.1147918701172
3561,120.85299682617188,-50.55970764160156,-98.12562561035156,60.90240097045898
3562,120.68096160888672,-68.33919525146484,-112.57286071777344,50.789710998535156
3563,114.3119125366211,-33.524463653564446,-103.51856231689452,72.12210083007812
3564,155.5069122314453,2.5506117343902592,-62.72747039794922,113.67613220214844
3565,117.17667388916016,-57.25786972045898,-95.43289947509766,57.09518432617188
3566,105.44834899902344,-54.32578659057617,-110.51217651367188,45.53515243530274
3567,122.62944793701172,-38.23673629760742,-102.05252075195312,74.29124450683594
3568,157.72467041015625,13.284124374389648,-58.29943084716797,120.68470001220705
3569,113.41433715820312,-68.81415557861328,-98.3313217163086,59.858970642089844
3570,117.95831298828124,-62.24689483642578,-107.16496276855469,50.96548843383789
3571,129.20045471191406,-37.90762710571289,-94.31466674804688,76.26216888427734
3572,143.70751953125,32.21175765991211,-56.36590194702149,116.65309143066406
3573,121.40650177001952,-51.56574249267578,-90.54484558105469,52.37542724609375
3574,99.82353973388672,-48.9328498840332,-102.67708587646484,51.17866134643555
3575,113.39937591552734,-50.39889144897461,-94.04165649414062,79.16059112548828
3576,144.67990112304688,20.094482421875,-49.24513244628906,121.66829681396484
3577,114.23711395263672,-63.122032165527344,-92.6317138671875,53.16080856323242
3578,117.7451400756836,-59.86083984375,-108.84791564941406,50.53913879394531
3579,136.53813171386722,-16.578975677490234,-92.3100814819336,80.84354400634766
3580,151.6473388671875,40.63401412963867,-63.26975631713867,114.98883056640624
3581,116.69796752929688,-67.62113189697266,-110.40371704101562,53.729270935058594
3582,107.71846771240234,-70.8598861694336,-122.23676300048828,48.91228103637695
3583,123.19043731689452,-34.328540802001946,-107.85684204101562,78.39017486572266
3584,155.4545440673828,16.302223205566403,-69.09278106689453,118.3884048461914
3585,115.16835021972656,-48.25592803955078,-109.91004943847656,54.28651809692383
3586,110.41119384765624,-65.73248291015625,-116.92984008789062,52.48014450073242
3587,122.63693237304688,-25.09098815917969,-102.23577880859376,85.26036834716797
3588,164.4564971923828,11.324417114257812,-49.65278244018555,130.408447265625
3589,122.69303131103516,-65.17149353027344,-92.92342376708984,64.58620452880861
3590,94.281005859375,-58.52569580078125,-108.44400787353516,51.47037124633789
3591,104.8574447631836,-32.30899429321289,-91.65560150146484,76.99144744873047
3592,166.1057891845703,11.43661403656006,-42.90600204467773,126.25341033935548
3593,106.0280303955078,-41.44557189941406,-91.22550964355469,55.12799453735352
3594,107.33325958251952,-56.41265106201172,-103.82149505615234,58.00771713256836
3595,115.478759765625,-49.43773651123047,-95.17110443115234,71.26940155029297
3596,157.2796173095703,20.251558303833008,-46.93013381958008,123.63922119140624
3597,123.25775146484376,-51.08329391479492,-84.6395492553711,66.10834503173828
3598,117.90969848632812,-47.76226043701172,-100.43688201904295,59.08106994628906
3599,118.68385314941406,-29.60130882263184,-91.04973602294922,83.82424926757812
3600,161.96197509765625,10.40066146850586,-54.54457092285156,118.21263122558594
3601,129.50712585449222,-65.20515441894531,-96.1023406982422,53.04113006591797
3602,123.08197784423828,-57.80389404296875,-108.02140045166016,43.87837600708008
3603,124.65647888183594,-42.42916488647461,-98.91848754882812,76.0714340209961
3604,164.39291381835938,31.41889953613281,-54.95595932006836,114.74574279785156
3605,121.97496795654295,-64.87604522705078,-101.90292358398438,45.12002182006836
3606,118.46320343017578,-56.94371795654297,-110.95348358154295,46.27939224243164
3607,116.4586181640625,-32.103302001953125,-98.94092559814452,76.19110870361328
3608,149.13038635253906,6.118476390838622,-61.770057678222656,112.19886779785156
3609,123.92345428466795,-47.59770584106445,-95.2646026611328,55.5132064819336
3610,113.8107681274414,-59.729942321777344,-107.22480010986328,49.4732666015625
3611,115.33290100097656,-18.527463912963867,-98.99327850341795,71.96502685546875
3612,165.86268615722656,18.875274658203125,-40.99865341186523,117.25895690917969
3613,120.34436798095705,-41.71110534667969,-80.93704223632812,52.30810928344727
3614,125.13143920898438,-57.71787643432617,-92.66537475585938,46.23825454711914
3615,127.79425048828124,-32.140701293945305,-92.07072448730469,65.18832397460939
3616,163.45419311523438,14.540731430053713,-49.43960571289063,119.45053100585938
3617,120.04143524169922,-26.96841812133789,-87.96057891845703,54.25659942626953
3618,106.30291748046876,-62.27681350708008,-111.63788604736328,45.49401473999024
3619,124.44891357421876,-57.53087997436523,-99.198974609375,68.40090179443361
3620,154.41673278808594,6.294251441955566,-66.82640075683594,109.44256591796876
3621,123.76077270507812,-57.66177749633789,-102.9687957763672,54.4211540222168
3622,108.89466857910156,-53.02804183959961,-116.24918365478516,49.02821731567383
3623,112.1334228515625,-44.88253784179688,-107.90546417236328,64.45156860351561
3624,157.0271759033203,1.3089649677276611,-63.01170349121094,119.20370483398438
3625,115.6115264892578,-69.19188690185547,-107.4641571044922,51.42923355102539
3626,109.38459014892578,-74.65214538574219,-119.01296997070312,46.84037780761719
3627,120.1816864013672,-42.80315399169922,-109.63330078125,67.31259155273439
3628,155.29934692382812,5.718307018280028,-66.04850006103516,112.63643646240234
3629,122.0291976928711,-54.58758163452149,-103.40636444091795,47.29664611816406
3630,101.73275756835938,-67.40422058105469,-118.61653900146484,32.157527923583984
3631,116.55772399902344,-30.04261589050293,-99.24759674072266,62.7012939453125
3632,162.6669464111328,-1.6268564462661743,-54.71660614013672,110.40371704101562
3633,137.29173278808594,-46.59915161132813,-84.94622039794922,48.03714370727539
3634,120.1667251586914,-62.03372192382813,-100.49298095703124,44.94424819946289
3635,127.7549819946289,-38.18811798095703,-89.46401977539062,67.54446411132811
3636,168.9686737060547,1.2229472398757937,-53.60211563110352,105.75502014160156
3637,119.8226547241211,-71.28997039794922,-89.26953887939453,44.70115280151367
3638,113.4199447631836,-42.85177230834961,-107.4641571044922,39.43911361694336
3639,122.9005889892578,-69.20310974121094,-101.59625244140624,66.74412536621094
3640,153.5041961669922,-2.6553289890289307,-65.28182220458984,110.63185119628906
3641,135.95658874511722,-51.48346328735352,-93.06179809570312,57.29713821411133
3642,106.4749526977539,-67.88292694091797,-111.06941986083984,46.331748962402344
3643,109.63890838623048,-43.70820999145508,-105.63534545898438,68.31114196777344
3644,152.34481811523438,-1.2117276191711426,-63.93172073364258,110.71412658691406
3645,123.27458190917969,-48.74585723876953,-104.9023208618164,49.27131271362305
3646,104.92288970947266,-67.407958984375,-127.79798889160156,36.2452392578125
3647,124.11979675292969,-55.3542594909668,-112.31854248046876,63.73724365234375
3648,152.13539123535156,14.125601768493652,-71.80795288085938,110.6804656982422
3649,126.5656967163086,-58.13300323486328,-104.4123992919922,48.7813835144043
3650,109.38085174560548,-78.089111328125,-112.15399169921876,46.099876403808594
3651,112.80660247802734,-39.51204299926758,-97.32154846191406,80.96322631835938
3652,160.7932586669922,8.822423934936523,-46.462646484375,127.26692199707031
3653,116.5128402709961,-62.31047439575195,-93.4544906616211,61.80745697021485
3654,113.03099822998048,-69.05351257324219,-103.08847045898438,46.12979507446289
3655,141.00918579101562,-29.197399139404297,-91.04225158691406,71.39656066894531
3656,160.755859375,9.454466819763184,-50.52043914794922,114.91777801513672
3657,125.7242202758789,-52.7550277709961,-88.4953842163086,54.54830932617188
3658,115.51802825927734,-64.74140930175781,-108.47766876220705,48.160560607910156
3659,119.1045913696289,-60.50410079956055,-102.31805419921876,64.25708770751953
3660,160.1125946044922,-7.012312412261963,-63.97659683227539,112.15399169921876
3661,120.06575012207031,-54.41180419921875,-100.33590698242188,56.88574981689453
3662,115.60031127929688,-78.0479736328125,-118.29864501953124,46.05499649047852
3663,109.17890167236328,-57.43364334106445,-110.1157455444336,69.81084442138672
3664,154.065185546875,-5.703347206115723,-65.24816131591797,114.973876953125
3665,119.91615295410156,-55.42905807495117,-97.332763671875,57.70104598999024
3666,120.15176391601562,-63.14447021484375,-111.2227554321289,49.89961624145508
3667,123.85052490234376,-38.2816162109375,-103.189453125,75.0093002319336
3668,141.39065551757812,-0.3590303957462311,-65.92882537841797,112.77481079101562
3669,111.24332427978516,-56.910057067871094,-100.5977020263672,48.89732360839844
3670,110.82445526123048,-67.78194427490234,-114.88785552978516,41.8550910949707
3671,123.92532348632812,-39.76261520385742,-90.83656311035156,66.74412536621094
3672,150.88626098632812,16.13018798828125,-45.52393341064453,114.20345306396484
3673,115.31981658935548,-35.08774185180664,-84.84149932861328,56.78477096557617
3674,106.96862030029295,-72.59519958496094,-104.92850494384766,46.0512580871582
3675,118.58848571777344,-21.983131408691406,-84.39645385742188,81.3334732055664
3676,148.114990234375,4.2223472595214835,-57.39811325073242,116.87000274658205
3677,113.6406021118164,-61.97388076782226,-90.1072769165039,67.88853454589844
3678,101.39242553710938,-73.12626647949219,-116.93357849121094,48.73650741577149
3679,111.54625701904295,-39.92717361450195,-99.44580841064452,75.59646606445312
3680,149.25941467285156,-6.170835018157959,-73.31138610839844,110.33639526367188
3681,123.84678649902344,-65.78109741210939,-103.18196868896484,50.30352401733398
3682,97.66748809814452,-75.13459014892578,-131.95301818847656,34.33041000366211
3683,100.15826416015624,-48.04649353027344,-117.6404266357422,61.87477493286133
3684,143.34288024902344,-2.7600462436676025,-77.48511505126953,112.95059204101562
3685,107.00975799560548,-45.01717758178711,-107.03406524658205,58.10869598388672
3686,97.89936065673828,-71.81729888916016,-133.85662841796878,44.29350662231445
3687,116.09771728515624,-47.3845329284668,-111.9669952392578,71.12728881835938
3688,150.82643127441406,-1.3725433349609375,-73.0608139038086,112.3222885131836
3689,114.88972473144531,-52.12298583984375,-98.02838897705078,56.657615661621094
3690,107.42862701416016,-69.69677734375,-117.6479034423828,36.645408630371094
3691,121.18023681640624,-41.774681091308594,-101.0240478515625,67.28266906738281
3692,156.36895751953125,5.722046852111816,-55.23645401000977,107.53895568847656
3693,123.03897094726562,-53.81341934204102,-88.31586456298828,54.76896667480469
3694,103.77848052978516,-83.08187866210938,-113.40311431884766,40.17587661743164
3695,119.98346710205078,-55.55621337890625,-95.6236343383789,77.56739807128906
3696,159.17013549804688,6.903855323791504,-53.01495361328125,124.43955993652344
3697,116.27722930908205,-32.589488983154304,-91.229248046875,63.40439224243164
3698,103.7448272705078,-70.72898864746094,-112.00065612792969,47.64445495605469
3699,100.75664520263672,-58.65658950805664,-111.22649383544922,64.91157531738281
3700,147.43807983398438,-3.5192458629608154,-64.65351867675781,120.86421966552734
3701,119.73663330078124,-59.75986099243164,-97.47488403320312,67.04331970214844
3702,102.14414978027344,-68.94879913330078,-119.85070037841795,46.69826126098633
3703,106.92748260498048,-38.7341423034668,-109.12093353271484,69.24237823486328
3704,145.84487915039062,4.936667919158936,-66.14948272705078,119.5963897705078
3705,123.34190368652344,-44.87506103515625,-100.43314361572266,60.99589920043945
3706,91.91551971435548,-70.16426086425781,-126.5226821899414,39.95148086547852
3707,99.73564910888672,-50.28295516967773,-112.74115753173828,55.99191284179688
3708,149.95877075195312,8.957060813903809,-63.03414535522461,109.39020538330078
3709,119.06719207763672,-53.49179077148438,-96.0051040649414,49.23765182495117
3710,106.38893127441406,-57.60567855834961,-115.9612045288086,39.59244918823242
3711,102.73131561279295,-45.7988166809082,-103.15953063964844,66.76282501220703
3712,150.69552612304688,-2.8086647987365723,-63.89057922363281,118.30986785888672
3713,109.1863784790039,-42.8480339050293,-95.7620086669922,58.26203155517578
3714,95.61054229736328,-77.47950744628906,-109.74923706054688,43.11917495727539
3715,115.566650390625,-46.71883010864258,-93.21139526367188,72.81771850585938
3716,146.15528869628906,14.881061553955078,-59.43635940551758,111.61544799804688
3717,116.0939712524414,-52.332420349121094,-91.36014556884766,60.45735168457031
3718,100.8763198852539,-71.14785766601562,-110.30648040771484,40.63214492797852
3719,113.33018493652344,-49.74066925048828,-104.5208511352539,67.55194091796875
3720,153.73606872558594,22.188825607299805,-62.99674606323242,115.00379180908205
3721,113.3189697265625,-48.12503433227539,-102.9089584350586,46.92265319824219
3722,105.3492431640625,-73.9939193725586,-124.76119232177734,33.690887451171875
3723,108.52816009521484,-60.84443283081055,-119.9292449951172,55.92085266113281
3724,149.39404296875,7.4611005783081055,-68.05309295654297,107.5688705444336
3725,118.4987335205078,-46.763710021972656,-104.82378387451172,51.38435363769531
3726,99.791748046875,-66.23362731933594,-123.448486328125,33.705848693847656
3727,118.6408462524414,-47.16387939453125,-107.29586029052734,61.42224502563477
3728,144.71168518066406,20.21415901184082,-77.0325927734375,101.49901580810548
3729,117.6348114013672,-65.25377655029297,-113.26100158691406,49.0207405090332
3730,100.22931671142578,-72.66999816894531,-133.68833923339844,27.366718292236328
3731,115.42079162597656,-42.87421417236328,-118.26124572753906,51.09638214111328
3732,143.94500732421875,3.896975755691528,-72.31657409667969,94.71857452392578
3733,114.49329376220705,-60.08523178100586,-98.17424011230469,46.83663558959961
3734,95.1692352294922,-73.60871124267578,-119.26354217529295,30.71392822265625
3735,105.10614776611328,-25.9511661529541,-109.19198608398438,57.93666076660156
3736,138.57450866699222,-6.608403205871582,-77.93016815185547,97.74415588378906
3737,126.07202911376952,-64.64417266845703,-102.28065490722656,49.09927749633789
3738,98.95775604248048,-66.73103332519531,-120.34062957763672,29.636837005615234
3739,105.07623291015624,-58.55187225341797,-109.3976821899414,55.99939346313477
3740,146.6377410888672,2.3299577236175537,-72.11087799072266,101.828125
3741,106.97235870361328,-49.15350341796875,-105.2837905883789,50.45685958862305
3742,95.8723373413086,-69.25547027587889,-127.89148712158205,24.64407157897949
3743,113.39002990722656,-27.58550262451172,-108.36920928955078,51.20109939575195
3744,161.2757110595703,25.83896827697754,-66.40379333496094,100.87818908691406
3745,113.77149963378906,-25.25180435180664,-100.75851440429688,46.30183029174805
3746,92.73081970214844,-41.07532119750977,-122.1993637084961,22.097198486328125
3747,113.95475006103516,-30.15107345581055,-103.3951416015625,49.55928421020508
3748,140.5791015625,-3.122816562652588,-64.91905212402344,98.63050842285156
3749,111.30316162109376,-48.48406219482422,-95.57127380371094,50.00433349609375
3750,92.33438873291016,-60.17873001098633,-116.70919036865234,28.54478645324707
3751,107.88489532470705,-38.405033111572266,-102.96505737304688,56.11158752441406
3752,151.24903869628906,6.585963726043701,-63.64000701904297,100.03671264648438
3753,106.66194915771484,-37.57477569580078,-91.41250610351562,50.53913879394531
3754,95.62924194335938,-60.90427017211914,-110.97218322753906,35.53839874267578
3755,103.85702514648438,-34.048049926757805,-105.9382781982422,63.26975631713867
3756,134.49801635742188,5.520092487335205,-68.1241455078125,100.49298095703124
3757,112.93376159667969,-42.77323532104492,-97.25796508789062,51.96778106689453
3758,97.89188385009766,-78.71741485595703,-119.97038269042969,31.52548599243164
3759,99.61971282958984,-32.68298721313477,-108.29815673828124,57.33453750610352
3760,145.6167449951172,24.94887351989746,-65.53614044189453,108.96759796142578
3761,117.73204803466795,-58.14048385620117,-93.4769287109375,54.62310791015625
3762,92.23715209960938,-78.99042510986328,-126.13373565673828,30.893444061279297
3763,95.66664123535156,-45.72775650024414,-110.87120056152344,63.92424011230469
3764,137.54229736328122,18.89397430419922,-69.89685821533203,107.76708984375
3765,125.57836151123048,-66.64501953125,-95.82184600830078,59.26806640625
3766,109.90070343017578,-78.5715560913086,-118.20514678955078,40.08237838745117
3767,126.32633972167969,-51.300209045410156,-109.96240997314452,62.02811050415039
3768,147.62881469726562,-2.5356521606445312,-64.67595672607422,112.60277557373048
3769,103.01180267333984,-47.04046249389648,-98.97832489013672,63.76342391967773
3770,93.34042358398438,-77.19153594970703,-116.52593231201172,46.53744506835938
3771,106.76666259765624,-39.0445556640625,-106.45812225341795,65.60345458984375
3772,138.22669982910156,1.8849096298217771,-71.9388427734375,103.1707534790039
3773,110.32331085205078,-58.65658950805664,-98.08074951171876,50.75979232788086
3774,97.1027603149414,-61.72330856323242,-116.16316223144531,29.008533477783203
3775,114.68777465820312,-54.71473693847656,-112.8047332763672,45.69222640991211
3776,142.33685302734375,-8.455913543701174,-74.36978149414062,97.26171112060548
3777,111.98008728027344,-55.15978622436523,-91.62567901611328,55.80117797851562
3778,104.82939910888672,-46.03068923950195,-116.42495727539062,41.08467102050781
3779,102.18154907226562,-46.804847717285156,-113.00294494628906,60.16189956665039
3780,143.35037231445312,30.87661361694336,-70.13247680664061,106.75357055664062
3781,110.88803100585938,-86.62356567382812,-101.21478271484376,55.31872940063477
3782,97.70862579345705,-82.6443099975586,-121.33544158935548,40.7106819152832
3783,105.95136260986328,-49.774330139160156,-108.54124450683594,67.72771453857422
3784,146.03561401367188,-1.7166141271591189,-68.54301452636719,111.0432357788086
3785,112.1334228515625,-43.86902618408203,-95.01403045654295,60.58076858520508
3786,91.14884185791016,-64.28887939453125,-119.77964782714844,44.69741439819336
3787,102.15910339355469,-53.11032104492188,-107.509033203125,65.35662078857422
3788,137.36279296875,13.47111988067627,-64.5675048828125,111.07689666748048
3789,111.22088623046876,-49.2208251953125,-96.4651107788086,57.87308120727539
3790,102.2937469482422,-63.59325790405274,-119.89932250976562,36.00214767456055
3791,101.84121704101562,-29.17121887207031,-108.72824096679688,58.92025375366211
3792,149.71192932128906,8.549411773681639,-61.64664077758789,105.3398895263672
3793,117.1748046875,-14.56691074371338,-92.05577087402344,56.24248504638672
3794,93.0449676513672,-66.30842590332031,-118.34352111816406,25.691242218017575
3795,108.7226333618164,-59.01188278198242,-114.83175659179688,57.7721061706543
3796,146.6863555908203,19.26796531677246,-65.16962432861328,103.14456939697266
3797,118.3229522705078,-30.12863349914551,-86.43843841552734,55.06067657470703
3798,99.8515853881836,-53.862037658691406,-112.61399841308594,33.836746215820305
3799,105.0089111328125,-38.17316055297852,-103.42132568359376,60.62938690185547
3800,145.60179138183594,-3.3509502410888667,-59.66823196411133,106.28982543945312
3801,125.26795196533205,-55.27946090698242,-89.83426666259766,61.92713165283203
3802,99.52996063232422,-69.69677734375,-118.05929565429688,33.268280029296875
3803,111.62853240966795,-54.774574279785156,-111.39479064941406,60.34889602661133
3804,140.08543395996094,15.4495267868042,-66.639404296875,107.73342895507812
3805,121.04186248779295,-63.10707092285156,-96.65584564208984,58.69960021972656
3806,102.89960479736328,-73.52268981933594,-118.1453094482422,36.15922164916992
3807,103.34091186523438,-30.9102725982666,-116.85504150390624,50.47555923461914
3808,139.77876281738278,21.560523986816406,-77.20088195800781,99.1540985107422
3809,123.36060333251952,-65.19767761230469,-104.03466796875,52.07997512817383
3810,106.54226684570312,-42.10005569458008,-116.4623565673828,34.69318008422852
3811,106.6769027709961,-33.333728790283196,-114.68590545654295,56.97924423217773
3812,165.17642211914062,-5.905302047729492,-63.9092788696289,105.02947998046876
3813,131.21812438964844,-46.16906356811523,-85.49972534179688,59.858970642089844
3814,102.52561950683594,-74.50254821777344,-117.6404266357422,33.13738250732422
3815,111.30316162109376,-42.0439567565918,-109.5173568725586,55.50198364257813
3816,141.27471923828125,27.57054328918457,-65.42394256591797,106.6862564086914
3817,117.74700927734376,-56.73054122924805,-97.8900146484375,63.8868408203125
3818,92.61862182617188,-63.98220825195313,-119.37574005126952,33.728286743164055
3819,108.64409637451172,-48.32324600219727,-111.40601348876952,58.3536605834961
3820,149.70819091796875,7.565817832946777,-72.07347869873047,108.53937530517578
3821,108.49823760986328,-31.28800392150879,-93.03936004638672,62.77421951293945
3822,97.86943817138672,-44.235538482666016,-120.34436798095705,35.60384750366211
3823,99.18962860107422,-46.73752975463867,-115.0972900390625,55.24206161499024
3824,159.12525939941406,9.230072975158693,-67.91471099853516,99.20832824707031
3825,122.4144058227539,-47.3246955871582,-94.12767028808594,50.196937561035156
3826,81.45127868652344,-69.00489044189453,-121.53366088867188,23.37437438964844
3827,97.43187713623048,-11.548810958862305,-108.04757690429688,51.30394744873047
3828,141.09893798828125,1.047171950340271,-71.56111907958984,100.5546875
3829,135.92666625976562,-33.06819534301758,-85.3650894165039,67.03022766113281
3830,107.88489532470705,-73.45537567138672,-115.21322631835938,39.05951690673828
3831,105.59607696533205,-47.76974105834961,-106.2599105834961,60.82573318481445
3832,151.27146911621094,7.322724342346191,-61.60176086425781,108.93206787109376
3833,125.05851745605469,-28.16518592834473,-83.82798767089844,69.29660797119139
3834,90.2363052368164,-56.57720565795898,-122.5845718383789,32.196800231933594
3835,111.54999542236328,-60.25726699829102,-111.7014617919922,56.25557327270508
3836,140.08169555664062,24.15601348876953,-73.19171142578125,104.39556884765624
3837,120.40982055664062,-40.30490112304688,-93.5405044555664,67.82308197021484
3838,90.86834716796876,-77.86845397949219,-123.8112564086914,28.77104949951172
3839,110.06525421142578,-58.11804580688477,-108.74694061279295,60.85939025878906
3840,136.7232666015625,-1.7203539609909058,-76.38184356689453,110.30087280273438
3841,131.19195556640622,-32.428672790527344,-101.39804077148438,63.44366455078125
3842,106.8564224243164,-80.26947021484375,-130.32615661621094,34.377159118652344
3843,105.25200653076172,-52.75876998901367,-114.10247802734376,50.387672424316406
3844,139.43095397949222,4.555198192596436,-73.05707550048828,101.62429809570312
3845,128.74606323242188,-43.17340469360352,-89.89784240722656,60.91923141479492
3846,93.08611297607422,-66.95916748046875,-128.62077331542972,20.6816463470459
3847,98.45286560058594,-54.89425277709961,-117.3262710571289,49.965065002441406
3848,148.74330139160156,-14.09194278717041,-70.99639129638672,99.41402435302734
3849,130.69828796386722,-42.69843673706055,-95.7657470703125,54.17245101928711
3850,116.49788665771484,-61.4278564453125,-121.49252319335938,28.673812866210934
3851,112.44009399414062,-41.026702880859375,-118.5492172241211,56.33037185668945
3852,140.71372985839844,24.70951843261719,-64.83677673339844,104.5676040649414
3853,121.670166015625,-16.672473907470707,-89.538818359375,57.96844863891602
3854,90.34476470947266,-25.78287124633789,-113.9080047607422,33.176651000976555
3855,104.41800689697266,-46.91330337524414,-109.22190856933594,50.63824462890625
3856,136.88407897949222,1.7652328014373782,-66.54216766357422,106.68064880371094
3857,129.13874816894528,-24.06625556945801,-74.949462890625,72.830810546875
3858,91.30591583251952,-37.70193099975586,-119.43557739257812,29.698545455932614
3859,103.28482055664062,-58.10308456420898,-110.90486145019531,52.51567459106445
3860,139.26264953613278,1.911088824272156,-70.88045501708984,101.84121704101562
3861,116.97659301757812,-34.29114151000977,-81.35591125488281,64.37490081787111
3862,89.94459533691406,-59.733680725097656,-119.70111083984376,26.60938835144043
3863,114.40727996826172,-44.418792724609375,-104.45353698730469,55.18596267700195
3864,157.47222900390625,8.964540481567383,-71.0711898803711,97.95172119140624
3865,122.43684387207031,-31.94622611999512,-97.82269287109376,49.74814987182617
3866,90.84217071533205,-49.76310729980469,-124.6115951538086,25.16204643249512
3867,114.11182403564452,-49.280662536621094,-109.25930786132812,52.04818725585938
3868,137.69189453125,8.732666015625,-72.69804382324219,104.5900421142578
3869,125.91120910644531,-26.747764587402344,-90.79916381835938,64.78254699707031
3870,97.98163604736328,-72.19876861572266,-120.88665771484376,38.14698028564453
3871,107.33139038085938,-36.80061721801758,-107.98026275634766,59.23627471923828
3872,140.99049377441406,5.624809741973877,-75.93679809570312,102.49943542480469
3873,128.73483276367188,-39.18292999267578,-90.67200469970705,70.75890350341797
3874,99.04003143310548,-41.43809127807617,-116.5221939086914,32.79144287109375
3875,98.1200180053711,-57.26908874511719,-114.31938934326172,50.79532241821289
3876,143.2045135498047,8.08940315246582,-69.81084442138672,100.15826416015624
3877,122.94547271728516,-38.9734992980957,-83.9588851928711,70.57565307617188
3878,103.94677734375,-64.13180541992189,-113.29466247558594,37.5298957824707
3879,105.73445129394531,-45.53702163696289,-103.96734619140624,61.4278564453125
3880,137.093505859375,9.619022369384766,-70.28955078125,105.61477661132812
3881,129.15744018554688,-34.964324951171875,-86.90592193603516,63.30902481079102
3882,83.007080078125,-65.35848999023439,-126.8854522705078,31.38524055480957
3883,102.59293365478516,-21.87093544006348,-109.2705307006836,60.61629867553711
3884,135.05526733398438,-0.6769219040870667,-73.52830505371094,104.287109375
3885,120.8623504638672,-29.42553329467773,-89.198486328125,72.27356719970703
3886,101.74771881103516,-77.91333770751953,-119.4916763305664,37.9712028503418
3887,118.10604095458984,-59.86083984375,-105.1192398071289,57.6131591796875
3888,146.24130249023438,-0.6208233833312988,-73.71155548095703,108.24018096923828
3889,122.4106674194336,-27.892173767089844,-94.5839385986328,63.76529312133789
3890,95.33753204345705,-71.70136260986328,-129.37248229980472,32.49225234985352
3891,103.00432586669922,-43.19210433959961,-113.01042938232422,64.0570068359375
3892,151.10317993164062,14.978299140930176,-71.052490234375,110.24102783203124
3893,119.26541137695312,-16.32840347290039,-91.1245346069336,70.68411254882812
3894,97.99285888671876,-83.47456359863281,-128.17198181152344,32.55208969116211
3895,87.95870971679688,-41.43435287475586,-121.26812744140624,58.59675216674805
3896,138.2491455078125,-1.3314043283462524,-75.47679138183594,110.0876922607422
3897,105.73818969726562,1.9073489904403689,-86.89844512939453,70.29515838623047
3898,83.24642944335938,-64.11684417724611,-127.39781951904295,25.47245788574219
3899,99.68329620361328,-51.49842071533203,-113.107666015625,51.42736434936523
3900,136.41285705566406,18.78177833557129,-67.73146057128906,104.21231079101562
3901,125.76909637451172,-28.32600212097168,-90.24191284179688,67.73706817626953
3902,90.5354995727539,-54.44920349121094,-124.9332275390625,37.27184295654297
3903,99.0886459350586,-45.428565979003906,-114.47647094726562,56.57720565795898
3904,136.31935119628906,18.30681037902832,-78.52481079101562,108.97694396972656
3905,134.02305603027344,-25.37896156311035,-89.49019622802734,70.02588653564453
3906,89.88101196289062,-60.91923141479492,-125.52787017822266,33.56186294555664
3907,100.8314437866211,-50.35027313232422,-115.8826675415039,63.73163604736328
3908,146.2188720703125,16.283523559570312,-72.43251037597656,106.43755340576172
3909,124.80793762207031,-11.43661403656006,-87.42203521728516,69.84637451171875
3910,102.88838958740234,-76.222900390625,-124.05809020996094,31.24312400817871
3911,89.8136978149414,-24.571142196655273,-116.67179107666016,57.53836059570313
3912,150.35519409179688,-16.025470733642578,-73.15057373046875,106.0934829711914
3913,121.74496459960938,-9.203893661499023,-89.7669448852539,73.91912078857422
3914,93.25814819335938,-74.39035034179688,-126.08137512207031,30.34928894042969
3915,105.1098861694336,-50.25677490234375,-111.3648681640625,55.22336196899414
3916,149.54737854003906,26.40369415283203,-67.12185668945311,108.25140380859376
3917,136.29316711425778,-29.18618011474609,-87.23503875732422,64.66661071777344
3918,111.25828552246094,-74.20709228515625,-117.86107635498048,29.92667961120605
3919,103.35961151123048,-60.40312576293945,-116.28658294677734,51.16557312011719
3920,143.20077514648438,6.870196342468263,-75.70118713378906,105.05378723144531
3921,131.40512084960938,-22.473058700561523,-86.6927490234375,70.9421615600586
3922,94.19312286376952,-94.22303771972656,-131.44813537597656,30.124895095825195
3923,115.00940704345705,-47.39949035644531,-117.94335174560548,61.558753967285156
3924,153.4293975830078,1.3650634288787842,-78.19195556640625,109.2424774169922
3925,133.83979797363278,-50.3839340209961,-91.76031494140624,70.08198547363281
3926,104.51150512695312,-78.83708953857422,-126.8181381225586,29.43301200866699
3927,113.26287078857422,-43.06494903564453,-116.01356506347656,58.15170288085938
3928,144.83885192871094,-1.8549903631210327,-71.47883605957031,108.65904998779295
3929,137.34782409667972,-27.81737518310547,-87.38463592529297,74.39035034179688
3930,107.39496612548828,-67.80438995361328,-124.38346099853516,36.27703094482422
3931,101.91227722167969,-51.9322509765625,-113.87060546875,59.9730339050293
3932,142.34059143066406,15.071796417236328,-79.81881713867188,109.5042724609375
3933,126.69659423828124,-36.26206970214844,-87.48934936523438,79.42425537109375
3934,92.05015563964844,-73.9116439819336,-119.68241119384766,37.37282180786133
3935,115.43201446533205,-55.28694152832031,-102.43025207519531,68.21577453613281
3936,139.81990051269528,8.455913543701174,-66.30655670166016,103.9654769897461
3937,130.48136901855472,-2.8385841846466064,-81.00062561035156,75.06352996826172
3938,90.58411407470705,-80.23207092285156,-123.8336944580078,35.2597770690918
3939,93.3292007446289,-7.535898208618164,-113.6349868774414,61.28948211669922
3940,141.5626983642578,1.7577530145645142,-72.65690612792969,103.47180938720705
3941,132.71409606933594,-49.20960235595703,-87.44821166992188,68.77301788330078
3942,107.76522064208984,-76.95217895507812,-119.43183135986328,31.445077896118164
3943,110.63745880126952,-44.602046966552734,-111.88097381591795,56.25557327270508
3944,140.21258544921878,1.73905348777771,-78.09471893310547,102.90708923339844
3945,128.82084655761722,-21.10799598693848,-83.86538696289062,82.54707336425781
3946,94.0472640991211,-86.49640655517578,-123.10441589355469,40.080509185791016
3947,105.56241607666016,-44.003662109375,-107.13878631591795,70.18669891357422
3948,134.69998168945312,5.8604230880737305,-72.42877197265625,109.20133972167969
3949,121.12787628173828,-25.206926345825195,-87.8782958984375,75.96110534667969
3950,92.29698944091795,-46.95070266723633,-125.34087371826172,32.00232315063477
3951,103.93556213378906,-68.75806427001953,-109.92127227783205,56.1171989440918
3952,145.29136657714844,-6.178314685821532,-66.77030181884766,109.14897918701172
3953,131.39016723632812,-20.66668701171875,-81.65884399414062,72.24364471435547
3954,100.32655334472656,-55.88906478881836,-119.46923065185548,26.00352478027344
3955,107.41366577148438,-44.25797653198242,-106.41324615478516,55.03262710571289
3956,134.81965637207028,-3.28737211227417,-71.17964935302734,102.69391632080078
3957,125.45868682861328,-16.231164932250973,-86.85730743408203,73.21976470947266
3958,98.04521942138672,-70.81500244140625,-116.89244079589844,38.39007186889648
3959,109.07418060302734,-39.19789123535156,-104.96590423583984,60.95288848876953
3960,143.5747528076172,20.711565017700195,-79.10823059082031,109.72118377685548
3961,121.65894317626952,-19.107149124145508,-79.75149536132812,85.52029418945312
3962,94.93362426757812,-58.967002868652344,-117.44969177246094,39.94587326049805
3963,98.91287231445312,-25.483678817749023,-107.1051254272461,57.38876342773438
3964,138.69793701171878,6.275552272796631,-69.08530426025389,109.54541015625
3965,137.90507507324222,-31.23938369750977,-75.32719421386719,78.59774017333984
3966,106.1308822631836,-77.85350036621094,-118.87832641601562,40.5816535949707
3967,112.2156982421875,-58.585533142089844,-105.45582580566406,63.97098922729492
3968,152.93946838378906,8.598030090332031,-58.17227554321289,111.20592498779295
3969,140.16023254394528,-14.073243141174315,-72.63072967529297,79.83190155029297
3970,104.02531433105469,-65.76614379882811,-116.88870239257812,34.627735137939446
3971,112.855224609375,-39.27268981933594,-106.82089233398438,60.23856735229492
3972,152.50564575195312,-9.903255462646484,-64.45904541015625,104.65361785888672
3973,144.1507110595703,-32.64932632446289,-72.46990966796875,85.49411010742188
3974,107.52586364746094,-40.529296875,-112.13155364990234,43.88772583007813
3975,113.69295501708984,-41.61012649536133,-107.52025604248048,68.21951293945311
3976,144.4798126220703,4.435521125793457,-73.18048858642578,117.4926986694336
3977,138.29776000976562,-38.62942504882813,-76.58753967285156,90.98428344726562
3978,101.26152801513672,-73.20480346679688,-117.7227020263672,52.104286193847656
3979,110.2709503173828,-40.20392608642578,-111.39479064941406,73.86676025390625
3980,138.88117980957028,-5.7295265197753915,-73.67790222167969,119.8413543701172
3981,129.37062072753906,-31.04864883422852,-82.92667388916016,95.8349380493164
3982,101.9795913696289,-61.4054183959961,-117.43099212646484,54.883033752441406
3983,112.88887786865234,-32.51469039916992,-101.79821014404295,74.62596130371094
3984,141.3794403076172,11.346856117248535,-66.49729156494139,121.35601043701172
3985,137.50115966796878,-30.97385215759277,-76.48282623291016,90.47191619873048
3986,105.84664916992188,-60.20491027832031,-118.4856414794922,41.59890747070313
3987,108.782470703125,-5.224640369415283,-108.7170181274414,67.70714569091797
3988,147.46800231933594,6.761739253997803,-72.6195068359375,108.38603973388672
3989,136.69708251953122,-15.812296867370605,-76.5351791381836,80.96509552001953
3990,96.6801528930664,-42.264610290527344,-117.2028579711914,40.60783386230469
3991,111.06381225585938,-64.25148010253906,-105.8634796142578,63.62691879272461
3992,137.88262939453122,-5.213420391082764,-75.32719421386719,102.70513153076172
3993,138.59321594238278,-19.77659034729004,-78.46497344970703,78.56034088134766
3994,102.2937469482422,-67.84552764892578,-114.62232208251952,45.78759384155274
3995,108.59173583984376,-49.55741500854492,-107.86432647705078,67.38177490234375
3996,145.60179138183594,5.392935752868652,-69.23115539550781,118.6595458984375
3997,138.65304565429688,-15.48318576812744,-75.6076889038086,86.18973541259766
3998,102.20024871826172,-61.3568000793457,-119.65996551513672,42.91161346435547
3999,104.73963928222656,-34.915706634521484,-102.96131896972656,69.36018371582031
4000,146.34976196289062,7.360123157501222,-72.84764099121094,112.1147232055664
4001,134.90567016601562,-2.075644493103028,-79.68791961669922,79.92166137695312
4002,99.90768432617188,-87.45008087158203,-117.09439849853516,39.01837539672852
4003,107.36505126953124,-53.8807373046875,-108.37669372558594,62.77796173095703
4004,143.58224487304688,4.4729204177856445,-69.41067504882811,110.7533950805664
4005,137.42636108398438,-6.417668342590332,-80.15914916992188,86.28697204589844
4006,106.5946273803711,-49.82668685913086,-120.50144958496094,35.40563201904297
4007,121.88333892822266,-35.098960876464844,-107.3669204711914,59.01188278198242
4008,154.50274658203125,12.96249294281006,-69.9903564453125,111.72576904296876
4009,133.29751586914062,-7.689234256744385,-77.41780090332031,85.94664001464844
4010,107.76522064208984,-83.17163848876953,-115.18331146240234,42.75453567504883
4011,107.14813232421876,-32.28281784057617,-101.83560943603516,70.16426086425781
4012,139.16168212890622,8.115582466125487,-63.78212356567383,118.34913635253906
4013,134.61021423339844,0.9948133826255798,-69.18254089355469,89.86231994628906
4014,111.4490203857422,-79.70101165771484,-108.59734344482422,40.46197891235352
4015,106.16079711914062,-36.778175354003906,-107.60626983642578,63.14821243286133
4016,149.1920928955078,13.026071548461914,-60.97719955444336,112.51114654541016
4017,139.02330017089844,-20.38245391845703,-64.81433868408203,84.11408996582031
4018,103.51295471191406,-51.40492630004883,-99.5617446899414,45.51458358764648
4019,114.69525146484376,-32.83258056640625,-98.23033905029295,64.78254699707031
4020,138.41743469238278,14.247148513793945,-66.90680694580078,111.82675170898438
4021,123.8580093383789,-5.9857096672058105,-69.78652954101561,90.2550048828125
4022,97.83578491210938,-40.28433227539063,-114.32874298095705,48.15121078491211
4023,105.94388580322266,-37.03435897827149,-110.63745880126952,63.89619064331055
4024,143.09605407714844,1.725963830947876,-79.7197036743164,103.00806427001952
4025,126.3076400756836,-10.653104782104492,-80.79679870605469,78.41822052001953
4026,98.4042510986328,-57.93291854858398,-118.94377899169922,38.113319396972656
4027,104.5900421142578,-23.716575622558594,-110.74217987060548,57.89739227294922
4028,146.86961364746094,-0.3010619580745697,-73.05146789550781,103.64010620117188
4029,142.54254150390625,-26.82069206237793,-77.05690002441406,87.04243469238281
4030,108.45709991455078,-67.06201934814453,-115.36469268798828,35.775882720947266
4031,110.6860809326172,-53.02243041992188,-108.39352416992188,62.65080261230469
4032,150.82643127441406,8.154851913452147,-67.59120941162111,114.13426971435548
4033,144.84632873535156,-8.184770584106445,-68.26065063476561,95.78631591796876
4034,101.00347900390624,-60.73410415649414,-109.23500061035156,42.86299514770508
4035,121.93943786621094,-54.29773712158203,-101.70284271240234,69.16571044921875
4036,132.50839233398438,9.497475624084473,-72.15389251708984,110.83567810058594
4037,136.49139404296878,-41.49980163574219,-73.28707885742188,90.5130615234375
4038,103.93556213378906,-71.96502685546875,-110.05403900146484,50.52978897094727
4039,112.03992462158205,-32.838191986083984,-100.44623565673828,65.45198822021484
4040,141.35325622558594,16.543447494506836,-68.48504638671875,106.31787872314452
4041,130.65715026855472,-19.396991729736328,-69.83141326904297,87.25186920166016
4042,103.61019134521484,-81.0118408203125,-115.1066436767578,35.52904891967773
4043,112.94497680664062,-56.2462272644043,-112.60839080810548,57.42242431640625
4044,150.13079833984375,-0.6114736199378967,-72.26234436035156,106.02616119384766
4045,149.6782684326172,-3.225663661956787,-73.96774291992188,84.37588500976562
4046,106.20194244384766,-66.80396270751953,-118.17335510253906,38.55836868286133
4047,134.88322448730472,-56.54167938232422,-100.59957122802734,69.09091186523439
4048,153.713623046875,3.494936466217041,-58.42471694946289,115.731201171875
4049,148.72459411621094,-30.33993911743164,-69.6556396484375,94.74288177490234
4050,109.25370025634766,-77.39910125732422,-111.01892852783205,44.42627334594727
4051,115.60031127929688,-30.33619880676269,-104.1674346923828,71.43956756591797
4052,146.6826171875,6.8533668518066415,-64.15050506591797,119.6618423461914
4053,138.02101135253906,-40.97621536254883,-69.34148406982422,91.62380981445312
4054,120.35372161865234,-65.21824645996094,-99.51126098632812,50.55970764160156
4055,113.09083557128906,-54.52960968017578,-93.66205596923828,67.42665863037111
4056,138.52963256835938,7.062800884246826,-57.97966766357422,113.84629821777344
4057,129.91290283203122,-5.540661811828613,-63.52220153808594,90.04557037353516
4058,106.44129180908205,-59.96368408203125,-104.81069946289062,41.209957122802734
4059,114.22776794433594,-34.307971954345696,-89.24149322509766,65.79979705810547
4060,143.61964416503906,-2.0737745761871342,-62.43762969970703,99.369140625
4061,139.42347717285156,-9.983662605285645,-71.87713623046875,78.32098388671875
4062,109.627685546875,-74.36229705810547,-113.56580352783205,36.20971298217773
4063,114.15296936035156,-33.612350463867195,-101.17925262451172,58.66407012939453
4064,140.24250793457028,10.054720878601074,-65.76239776611328,105.72697448730469
4065,148.95272827148438,-25.433189392089844,-67.28827667236328,86.3767318725586
4066,120.79502868652344,-42.82372283935547,-98.19481658935548,46.44581604003906
4067,122.14139556884766,-37.49436569213867,-100.4275360107422,65.48191070556639
4068,154.0165557861328,-0.652612566947937,-64.77507019042969,110.80575561523438
4069,130.40283203125,-8.790635108947754,-77.61040496826172,83.85977935791016
4070,108.55059814453124,-103.86263275146484,-115.73868560791016,41.07532119750977
4071,116.41560363769531,-67.33876800537111,-108.18408966064452,63.11081314086914
4072,154.30079650878906,-9.826586723327637,-66.71233367919922,110.7945327758789
4073,150.01112365722656,-29.55830001831055,-67.69219207763672,84.37214660644531
4074,122.92677307128906,-87.7960205078125,-113.73410034179688,31.38524055480957
4075,127.78490447998048,-47.85388946533203,-101.00721740722656,54.39684295654297
4076,158.291259765625,-20.466602325439453,-66.32712554931639,103.34091186523438
4077,153.5902099609375,-25.34343147277832,-60.89305114746094,85.51655578613281
4078,99.29434204101562,-76.35940551757812,-110.71974182128906,31.94622611999512
4079,114.69151306152344,-48.90480041503906,-98.2284698486328,58.51073455810547
4080,150.64317321777344,21.446456909179688,-71.49940490722656,104.29833221435548
4081,146.34976196289062,-28.31291198730469,-71.7499771118164,89.91841125488281
4082,115.63770294189452,-70.19605255126953,-110.77957916259766,43.09112548828125
4083,119.66931915283205,-41.55963897705078,-103.69994354248048,65.06304168701172
4084,150.3739013671875,-15.178383827209473,-74.356689453125,114.37361907958984
4085,161.15603637695312,-12.567934036254885,-70.91224670410156,97.08406066894531
4086,113.46482849121094,-98.43229675292969,-119.02979278564452,38.60698699951172
4087,115.4282684326172,-62.94064712524414,-111.72203063964844,62.41519165039063
4088,145.56439208984375,-6.845886707305907,-73.30577850341797,112.44009399414062
4089,139.34492492675778,-16.805240631103516,-72.50170135498047,90.84590911865234
4090,112.50366973876952,-68.16154479980469,-110.60379791259766,45.68661880493164
4091,110.61502075195312,-54.61562728881836,-106.23934173583984,63.462364196777344
4092,137.14213562011722,-2.477683782577514,-75.28792572021484,107.59318542480469
4093,138.28654479980472,12.85590648651123,-69.04603576660156,96.39218139648438
4094,102.6602554321289,-63.27349853515625,-109.8259048461914,40.73125076293945
4095,109.1452407836914,-58.374229431152344,-97.8245620727539,65.76614379882811
4096,143.11474609375,-19.86073875427246,-67.37055969238281,112.44757080078124
4097,147.83450317382812,-10.533428192138672,-62.37779235839844,95.30013275146484
4098,116.29966735839844,-79.03717803955078,-109.37337493896484,46.2700424194336
4099,119.3402099609375,-47.76787185668945,-108.22522735595705,65.68759918212889
4100,148.71337890625,-0.4730973541736603,-72.26234436035156,107.43236541748048
4101,144.58453369140625,6.019369125366211,-67.11624145507811,97.08406066894531
4102,118.05368041992188,-83.93270111083984,-114.47085571289062,41.16881942749024
4103,124.6770477294922,-44.66375350952149,-109.36589813232422,67.06014251708984
4104,136.59236145019528,-8.958930015563965,-78.39578247070312,109.82215881347656
4105,145.85235595703125,-17.568180084228516,-75.28792572021484,95.05329895019531
4106,116.74097442626952,-55.16165542602539,-117.69839477539062,38.56210708618164
4107,116.14259338378906,-61.97575378417969,-113.92857360839844,62.9649543762207
4108,140.88951110839844,0.29732203483581543,-74.96629333496094,111.00396728515624
4109,155.3367462158203,-20.71717643737793,-76.73152923583984,93.29928588867188
4110,106.14584350585938,-62.63771438598633,-120.51079559326172,36.8380126953125
4111,116.29592895507812,-24.59171295166016,-114.04824829101562,60.06653213500977
4112,133.07685852050778,-19.030481338500977,-82.73780822753906,98.93905639648438
4113,141.03163146972656,-24.43837547302246,-78.42195892333984,93.05992889404295
4114,108.8460464477539,-70.73833465576172,-116.4492645263672,41.99907684326172
4115,123.03897094726562,-47.57339859008789,-112.28302001953124,60.642478942871094
4116,144.28160095214844,-1.120100021362305,-76.5445327758789,100.45745086669922
4117,139.79371643066406,2.395406007766724,-75.36646270751953,88.65806579589844
4118,113.63311767578124,-85.29029083251953,-110.2672119140625,39.066993713378906
4119,114.72891235351562,-58.42284774780274,-105.0089111328125,60.21612930297852
4120,143.59719848632812,-23.724056243896484,-73.14496612548828,104.19734954833984
4121,154.11380004882812,-22.022401809692386,-62.59844589233398,94.48109436035156
4122,111.76690673828124,-72.45121002197266,-117.24586486816406,38.00486373901367
4123,121.0082015991211,-47.18818664550781,-106.14958190917969,61.62607192993164
4124,141.65618896484375,-10.780261993408203,-75.037353515625,107.6156234741211
4125,145.55316162109375,-23.7277946472168,-73.7919692993164,95.90225219726562
4126,109.8446044921875,-64.40668487548828,-119.58704376220705,39.13057327270508
4127,127.69140625,-39.72334671020508,-104.21604919433594,63.92237091064453
4128,141.73472595214844,6.868326187133789,-73.39553833007812,109.38085174560548
4129,141.9329376220703,-15.047487258911133,-68.88147735595703,86.47023010253906
4130,109.97924041748048,-91.33396911621094,-120.92218780517578,32.25289535522461
4131,106.8152847290039,-47.28916549682617,-109.14897918701172,58.63415145874024
4132,137.03741455078122,3.573474407196045,-80.36296844482422,103.27359771728516
4133,157.29270935058594,-1.7633628845214844,-70.3998794555664,95.86859893798828
4134,102.81732940673828,-76.13875579833984,-115.66388702392578,38.13949966430664
4135,112.8776626586914,-43.27625274658203,-105.62599182128906,61.14736557006836
4136,153.96046447753906,14.449103355407715,-70.6055679321289,107.81757354736328
4137,128.22247314453122,-5.7912349700927725,-72.76349639892578,88.62066650390625
4138,97.58521270751952,-54.78018569946289,-118.10977935791016,37.1484260559082
4139,112.01748657226562,-38.335845947265625,-105.8541259765625,55.46645736694336
4140,139.67030334472656,5.731396675109862,-80.295654296875,95.47216796875
4141,153.54159545898438,-5.907172203063965,-66.21492767333984,91.3994140625
4142,109.40328979492188,-44.73481369018555,-113.57328033447266,35.78710174560547
4143,125.87755584716795,-34.420169830322266,-98.92035675048828,73.1898422241211
4144,145.04827880859375,-8.614859580993652,-69.58084106445311,114.63167572021484
4145,151.61553955078125,-7.268495559692383,-63.91489028930664,103.0566864013672
4146,109.08914184570312,-57.86934280395508,-108.14669036865234,53.289833068847656
4147,115.08045959472656,-42.17298126220703,-109.21630096435548,63.89619064331055
4148,138.77272033691406,-15.324239730834961,-71.82103729248047,107.02098083496094
4149,141.4205780029297,-31.424509048461914,-65.02564239501953,95.36370849609376
4150,113.2591323852539,-70.49150085449219,-105.84664916992188,45.70905685424805
4151,118.00506591796876,-39.08382415771485,-100.59957122802734,57.69543838500977
4152,150.1607208251953,-4.837560653686523,-68.84781646728516,102.26382446289062
4153,157.30767822265625,-9.91634464263916,-59.49432754516602,87.69317626953125
4154,123.11376953125,-49.71261978149414,-107.49220275878906,25.83896827697754
4155,120.01338958740234,-28.428850173950195,-105.21086883544922,46.29248046875
4156,162.56222534179688,-9.265602111816406,-70.25402069091797,89.12555694580078
4157,149.5548553466797,13.342093467712402,-63.967247009277344,86.739501953125
4158,115.9481201171875,-71.74810791015625,-106.54975128173828,45.70531845092773
4159,107.02471923828124,-53.53105926513672,-100.34525299072266,63.98594665527344
4160,145.04454040527344,-0.8396075367927551,-55.18970489501953,113.3825454711914
4161,157.7489776611328,-0.18512505292892456,-52.945762634277344,107.17805480957031
4162,126.5694351196289,-48.00348663330078,-101.13811492919922,56.109718322753906
4163,115.38339233398438,-56.18638610839844,-98.77075958251952,72.56527709960938
4164,130.58235168457028,-15.492535591125488,-71.76119995117188,118.10977935791016
4165,149.59225463867188,-13.30095386505127,-63.81391143798828,104.62744140625
4166,99.6645965576172,-64.84799194335939,-104.3880844116211,51.33012771606445
4167,104.44044494628906,-42.015907287597656,-105.5324935913086,64.03083038330078
4168,142.8230438232422,-3.4201385974884038,-75.63947296142578,107.38748931884766
4169,143.888916015625,-6.191404342651367,-68.34293365478516,90.12036895751952
4170,114.77005004882812,-50.72239303588867,-118.71190643310548,39.35870742797852
4171,120.85486602783205,-31.955575942993164,-103.02302551269531,56.450050354003906
4172,142.53880310058594,-16.737922668457028,-71.39469146728516,101.5345458984375
4173,164.70144653320312,-9.09730625152588,-61.981361389160156,87.22942352294922
4174,127.3735122680664,-58.77439880371094,-106.36649322509766,33.23649215698242
4175,129.21728515625,-33.548770904541016,-100.1133804321289,59.19513702392578
4176,149.311767578125,6.531735420227051,-71.86217498779297,98.38928985595705
4177,153.7659912109375,-7.59386682510376,-67.11998748779297,90.88704681396484
4178,125.20063018798828,-65.43515777587889,-109.27239990234376,33.195350646972656
4179,110.0128936767578,-43.60162353515625,-105.61477661132812,50.08848190307617
4180,135.20860290527344,13.757222175598145,-71.05809783935547,105.25200653076172
4181,147.3258819580078,7.87809944152832,-59.15399932861328,102.57049560546876
4182,104.15995025634766,-47.2031478881836,-103.8009262084961,45.21538925170898
4183,119.83387756347656,-21.057506561279297,-95.1954116821289,69.22180938720703
4184,147.445556640625,-13.996575355529785,-74.89523315429688,104.43670654296876
4185,158.2127227783203,-11.517022132873535,-57.99836730957031,106.96488189697266
4186,110.30461120605469,-65.03872680664061,-105.71949005126952,46.70761108398438
4187,115.37591552734376,-39.386756896972656,-103.23619842529295,68.00260162353516
4188,144.67428588867188,12.863386154174805,-78.83708953857422,110.34201049804688
4189,152.77491760253906,-6.176445007324219,-64.54693603515625,102.6565170288086
4190,109.69500732421876,-61.11183547973633,-110.27842712402344,38.88373947143555
4191,103.53164672851562,-43.4819450378418,-114.36988067626952,60.14507293701172
4192,163.15313720703125,-5.35366678237915,-74.85409545898438,106.7928466796875
4193,140.321044921875,2.0588150024414062,-73.07390594482422,88.68424987792969
4194,101.42234802246094,-51.42923355102539,-108.86100769042969,40.23758316040039
4195,111.98756408691406,-30.209041595458984,-107.2341537475586,57.2915267944336
4196,138.68670654296878,-7.713543891906737,-75.76663208007812,92.2259292602539
4197,148.03271484375,-9.029988288879396,-68.47008514404297,97.12894439697266
4198,115.14404296875,-59.17082595825195,-110.64119720458984,42.15241241455078
4199,116.8943099975586,-33.27949905395508,-106.70682525634766,63.49975967407226
4200,141.2896728515625,3.981123447418213,-78.68749237060547,101.35128784179688
4201,151.66416931152344,19.87569808959961,-66.9853515625,108.14669036865234
4202,105.16598510742188,-56.3397216796875,-122.52660369873048,43.03503036499024
4203,118.782958984375,-50.52043914794922,-104.25344848632812,63.00983428955078
4204,143.4588165283203,0.4207387566566467,-75.75167083740234,105.95884704589844
4205,154.80567932128906,9.235682487487793,-65.93069458007811,98.47156524658205
4206,105.02387237548828,-60.173118591308594,-117.14488983154295,38.240478515625
4207,117.58993530273438,-44.5852165222168,-104.65736389160156,61.17354202270508
4208,149.61843872070312,15.683270454406738,-72.59519958496094,110.50656127929688
4209,151.53700256347656,-5.099353790283203,-61.93648147583008,108.83108520507812
4210,129.052734375,-79.7253189086914,-106.73674774169922,50.196937561035156
4211,95.73021697998048,-51.590049743652344,-109.287353515625,69.26668548583984
4212,135.01786804199222,19.916837692260746,-74.9775161743164,113.4423828125
4213,146.24879455566406,-27.69208908081055,-62.71064376831055,112.38399505615234
4214,127.04440307617188,-74.32864379882812,-104.78825378417969,56.73428344726562
4215,116.6512222290039,-65.67825317382811,-110.11761474609376,63.06593322753906
4216,148.78070068359375,5.780015468597412,-78.90814971923828,108.81613159179688
4217,165.92440795898438,24.823585510253906,-69.28164672851561,100.8314437866211
4218,110.80949401855469,-59.35782241821289,-115.33851623535156,43.00136947631836
4219,118.30425262451172,-51.47785186767578,-106.75918579101562,59.21383666992188
4220,141.05406188964844,6.546694755554199,-77.10926055908203,95.86111450195312
4221,153.19004821777344,-6.155875205993652,-64.07944488525389,94.29596710205078
4222,130.94511413574222,-59.580345153808594,-103.92060089111328,43.29495239257813
4223,114.5082550048828,-40.64523315429688,-101.42982482910156,58.96513366699219
4224,140.60902404785156,3.964293956756592,-71.11045837402344,108.26075744628906
4225,157.7452392578125,-6.851496696472168,-58.40975570678711,105.59420776367188
4226,100.8763198852539,-72.32218170166016,-112.05862426757812,44.58147811889648
4227,108.83856964111328,-41.49792861938477,-101.02591705322266,66.94982147216797
4228,134.61021423339844,-25.779130935668945,-72.05290985107422,110.6804656982422
4229,150.72544860839844,-8.54193115234375,-60.06279373168945,110.70664978027344
4230,127.19400024414062,-44.91246032714844,-96.12290954589844,61.94209289550781
4231,99.04376983642578,-17.899160385131836,-100.4088363647461,74.01448822021484
4232,132.41116333007812,-10.916768074035645,-79.36815643310547,114.79061889648438
4233,145.05201721191406,-0.7965986728668213,-66.70485687255861,107.9727783203125
4234,111.44528198242188,-82.41617584228516,-111.92398834228516,49.52188491821289
4235,120.85860443115234,-61.25208282470703,-103.44189453125,64.68344116210939
4236,155.31056213378906,-4.3345441818237305,-72.38202667236328,102.03382110595705
4237,162.05734252929688,-10.886848449707033,-63.76903533935547,94.16880798339844
4238,119.63565826416016,-67.02275085449219,-106.88633728027344,31.607765197753906
4239,135.48161315917972,-56.97363662719727,-102.58171844482422,49.07683563232422
4240,138.56703186035156,17.087602615356445,-67.5313720703125,89.17230224609375
4241,152.1840057373047,-3.661362171173096,-55.0139274597168,94.54653930664062
4242,118.96621704101562,-61.7794075012207,-104.2646713256836,37.08297729492188
4243,122.0740737915039,-43.943824768066406,-101.39990997314452,56.63517379760742
4244,148.20101928710938,-1.047171950340271,-71.76119995117188,92.16422271728516
4245,156.32408142089844,6.37278938293457,-62.2094955444336,94.8606948852539
4246,131.4649658203125,-69.92117309570311,-100.86135864257812,40.21701431274414
4247,116.84943389892578,-36.59865951538086,-101.2727508544922,54.772705078125
4248,132.35505676269528,21.324909210205078,-76.52583312988281,95.9639663696289
4249,144.74534606933594,-10.01919174194336,-64.99571990966797,96.19583892822266
4250,113.13571166992188,-71.19273376464844,-112.58969116210938,36.454673767089844
4251,130.17469787597656,-52.7550277709961,-98.3257064819336,66.62070465087889
4252,159.15518188476562,-11.840523719787598,-72.29226684570312,99.74126434326172
4253,151.57814025878906,2.7114274501800537,-64.70027160644531,98.46221923828124
4254,123.2596206665039,-69.04228973388672,-106.33657836914062,41.49605941772461
4255,134.64387512207028,-46.78614807128906,-98.55010223388672,60.37133407592773
4256,130.42901611328122,-4.78707218170166,-82.03844451904297,95.37306213378906
4257,161.74319458007812,1.7502732276916504,-60.23856735229492,100.24614715576172
4258,119.99842834472656,-63.06219482421875,-106.08226013183594,37.80851745605469
4259,122.7360382080078,-58.34991836547852,-97.04666137695312,57.12510299682617
4260,147.18002319335938,3.291111946105957,-70.02214813232422,101.95154571533205
4261,161.26821899414062,2.479553699493408,-55.92646408081055,104.46101379394531
4262,118.79044342041016,-71.43209075927734,-113.08709716796876,35.931087493896484
4263,123.86922454833984,-39.37740707397461,-107.65302276611328,51.33199691772461
4264,135.20486450195312,20.40489387512207,-88.265380859375,89.88288879394531
4265,152.04188537597656,-13.250465393066404,-67.09380340576172,101.01282501220705
4266,115.67510223388672,-49.71075057983398,-112.77294158935548,49.17781448364258
4267,140.35844421386722,-30.641000747680664,-107.09203338623048,70.04645538330078
4268,129.38931274414062,11.68718719482422,-76.78388977050781,111.1591796875
4269,144.50973510742188,35.39815139770508,-62.1795768737793,109.95867156982422
4270,115.85088348388672,-68.51870727539061,-104.6087417602539,55.5244255065918
4271,123.3007583618164,-40.04310989379883,-97.55902862548828,73.95838928222656
4272,139.53192138671878,11.316937446594238,-76.6268081665039,111.33495330810548
4273,141.18870544433594,-0.8938360810279846,-61.32687759399414,113.12262725830078
4274,103.59523010253906,-71.59290313720703,-102.17406463623048,48.32137680053711
4275,135.09266662597656,-38.12080001831055,-96.04437255859376,56.87452697753906
4276,128.30474853515622,16.620115280151367,-86.53380584716797,82.9603271484375
4277,145.59056091308594,-5.755705833435059,-60.82573318481445,93.70506286621094
4278,129.72590637207028,-53.779762268066406,-106.71430206298828,31.42076873779297
4279,113.88743591308594,-56.31915283203125,-105.64469146728516,44.63009643554688
4280,131.24430847167972,-13.123309135437012,-83.3249740600586,76.48282623291016
4281,155.29934692382812,-2.853543758392334,-63.847572326660156,90.58972930908205
4282,114.29508209228516,-47.41071319580078,-107.1369171142578,34.19577407836914
4283,145.00340270996094,-29.62374687194824,-93.46009826660156,63.58390808105469
4284,126.97708129882812,26.097021102905273,-80.13483428955078,95.642333984375
4285,146.1365966796875,-5.003986358642578,-69.76035308837889,101.29331970214844
4286,108.78620910644531,-51.80509567260742,-109.69874572753906,51.06646347045898
4287,105.35671997070312,-48.29332733154297,-105.30062103271484,71.23200225830078
4288,132.50465393066406,15.74497890472412,-75.67687225341797,108.24205780029295
4289,149.23696899414062,13.452420234680176,-61.77192687988281,111.1965789794922
4290,101.67292022705078,-59.22131729125977,-105.15850830078124,52.49884414672852
4291,117.58619689941406,-36.19101333618164,-97.8058624267578,65.38654327392578
4292,138.25288391113278,10.090250015258787,-68.39154815673828,103.18196868896484
4293,174.7430877685547,17.813142776489258,-38.2516975402832,117.344970703125
4294,104.6872787475586,-59.307334899902344,-97.39447784423828,41.46240234375
4295,113.45360565185548,-61.93274307250977,-90.06053161621094,61.39980697631836
4296,142.07505798339844,-10.280984878540039,-62.14591598510742,100.50420379638672
4297,149.64088439941406,4.274705886840819,-50.69434356689453,102.66960144042969
4298,107.3575668334961,-73.8106689453125,-108.0008316040039,29.446102142333984
4299,119.1419906616211,-34.27618408203125,-105.71949005126952,46.3915901184082
4300,140.01437377929688,19.477399826049805,-80.96509552001953,90.19703674316406
4301,162.23312377929688,32.944778442382805,-64.00838470458984,98.0321273803711
4302,104.55264282226562,-65.45572662353516,-115.80599975585938,41.88874816894531
4303,116.15755462646484,-54.07895278930664,-109.45191192626952,64.47774505615234
4304,131.89131164550778,-5.692127704620361,-84.90695190429688,104.3525619506836
4305,146.8097686767578,17.603708267211914,-66.76469421386719,110.3588409423828
4306,101.90479278564452,-57.42990493774414,-114.36614227294922,45.6286506652832
4307,106.28047943115234,-42.49274444580078,-109.38085174560548,69.29099273681639
4308,137.2281494140625,-12.416467666625975,-80.50508880615234,111.07315826416016
4309,160.44544982910156,22.734851837158203,-61.87664413452149,119.89558410644531
4310,98.39676666259766,-60.05531311035156,-109.07044219970705,57.0390853881836
4311,101.28771209716795,-30.457744598388672,-106.08226013183594,71.36289978027344
4312,124.99119567871094,16.324663162231445,-74.7568588256836,110.39997863769531
4313,147.09400939941406,6.892635822296143,-56.46500778198242,115.50494384765624
4314,115.09168243408205,-72.70365142822266,-98.0826187133789,53.90130996704102
4315,129.23597717285156,-30.37546730041504,-95.81623840332031,68.62155151367189
4316,133.031982421875,3.53794527053833,-73.08512115478516,106.14022827148438
4317,143.51866149902344,14.084463119506836,-56.41265106201172,112.25870513916016
4318,104.14873504638672,-53.70122528076172,-106.0299072265625,42.37867736816406
4319,121.67390441894531,-36.59492111206055,-101.07453918457031,52.1024169921875
4320,137.47123718261722,8.332496643066406,-79.110107421875,88.70855712890625
4321,159.0654296875,16.889389038085938,-60.15629196166992,99.54678344726562
4322,110.390625,-41.69988632202149,-112.41017150878906,37.24753189086914
4323,105.33428192138672,-27.024517059326172,-109.04800415039062,62.20388412475586
4324,126.30390167236328,15.453266143798828,-82.81260681152344,102.16845703125
4325,140.42950439453122,63.86627197265625,-67.1087646484375,113.73223114013672
4326,106.07478332519531,-94.96727752685548,-119.1644287109375,49.76498031616211
4327,113.2366943359375,-57.2616081237793,-122.84823608398438,56.48931884765625
4328,120.5855941772461,-9.06177806854248,-87.77171325683594,100.07411193847656
4329,143.77297973632812,26.51215171813965,-64.31880187988281,115.20948791503906
4330,108.50946044921876,-52.672752380371094,-103.1651382446289,58.14983367919922
4331,122.9005889892578,-39.43350601196289,-96.90081024169922,69.59018707275389
4332,142.13490295410156,-16.586456298828125,-70.52703094482422,102.24699401855469
4333,165.30731201171875,3.635182857513428,-40.398399353027344,113.31336212158205
4334,91.73600769042969,-36.38922500610352,-99.23076629638672,46.141014099121094
4335,106.34405517578124,-29.53025054931641,-92.4578094482422,63.43057250976562
4336,129.75956726074222,8.317537307739258,-65.26873779296875,94.32962799072266
4337,151.2228546142578,7.057191371917725,-43.28560256958008,108.52628326416016
4338,107.89611053466795,-54.26968765258789,-98.31822967529295,44.22244644165039
4339,107.24536895751952,-50.03238296508789,-96.06307220458984,56.6800537109375
4340,127.92327880859376,-1.6679953336715698,-74.4165267944336,93.51058959960938
4341,156.9374237060547,39.4970817565918,-48.521461486816406,106.93309020996094
4342,118.5959701538086,-59.116600036621094,-102.74626922607422,44.44684219360352
4343,88.50846862792969,-47.43315124511719,-108.12799072265624,55.19905471801758
4344,114.3998031616211,-7.606956481933594,-78.94554901123047,102.37789154052734
4345,140.47811889648438,-2.2738592624664307,-59.03432083129883,108.83670043945312
4346,94.43995666503906,-62.26933288574219,-110.0091552734375,48.27275848388672
4347,102.73505401611328,-30.55124282836914,-105.55119323730469,62.88080978393555
4348,128.45060729980472,-1.2379069328308103,-76.20793914794922,106.0242919921875
4349,156.16700744628906,38.16941833496094,-49.3143196105957,117.57684326171876
4350,113.04969787597656,-74.18465423583984,-102.07682800292969,46.79549789428711
4351,116.17251586914062,-48.1362533569336,-100.5322494506836,56.17516708374024
4352,138.43614196777344,-4.18120813369751,-67.25836181640625,93.5592041015625
4353,148.2047576904297,10.92424774169922,-48.85431289672852,108.90027618408205
4354,108.53563690185548,-47.74356460571289,-93.47879791259766,45.31075668334961
4355,110.19241333007812,-21.186532974243164,-90.1727294921875,59.3204231262207
4356,129.54264831542972,2.96574068069458,-72.39324188232422,90.7655029296875
4357,151.35374450683594,30.854175567626953,-48.37560653686523,108.6497039794922
4358,103.81587982177734,-39.3961067199707,-104.2235336303711,37.82347869873047
4359,105.97380828857422,-39.99449157714844,-101.14185333251952,49.27879333496094
4360,134.58778381347656,5.5874104499816895,-76.5856704711914,92.44845581054688
4361,150.00364685058594,15.2438325881958,-48.88797378540039,109.92127227783205
4362,115.80974578857422,-46.2625617980957,-102.4807357788086,48.99456024169922
4363,94.1482391357422,-45.10319519042969,-110.3270492553711,61.01833724975586
4364,131.47244262695312,-9.069257736206056,-78.27610778808594,104.74898529052734
4365,152.89833068847656,16.668733596801758,-61.54379272460938,114.50264739990234
4366,101.92349243164062,-56.13589859008789,-102.06935119628906,42.40859603881836
4367,107.12943267822266,-36.56500244140625,-99.6645965576172,60.0908432006836
4368,129.78948974609378,-4.992766380310059,-78.69871520996094,95.75453186035156
4369,165.86456298828125,36.50890350341797,-44.55342864990234,119.37574005126952
4370,97.17008209228516,-49.65839004516602,-104.95655059814452,41.825172424316406
4371,96.16404724121094,-45.1368522644043,-103.37457275390624,60.74158477783203
4372,122.7547378540039,7.348903179168701,-73.30204010009766,103.90750885009766
4373,150.58706665039062,28.64015388488769,-53.499267578125,122.85384368896484
4374,88.95726013183594,-48.57756042480469,-109.81094360351562,39.577491760253906
4375,100.56217193603516,-50.7766227722168,-102.87716674804688,52.506324768066406
4376,127.32489776611328,-5.392935752868652,-75.76663208007812,93.55172729492188
4377,165.76358032226562,25.16952705383301,-39.12683486938477,117.95083618164062
4378,103.81214141845705,-64.81246948242189,-106.02616119384766,37.520545959472656
4379,89.81743621826172,-1.443601369857788,-101.5308074951172,47.38266372680664
4380,118.78670501708984,-24.62350082397461,-77.10551452636719,102.37041473388672
4381,165.2960968017578,13.403800964355467,-43.902687072753906,128.86012268066406
4382,105.95136260986328,-86.20469665527344,-121.01942443847656,38.03291320800781
4383,89.5743408203125,-52.291282653808594,-114.55687713623048,51.45167541503906
4384,134.041748046875,8.886002540588379,-66.49916076660156,106.40202331542969
4385,164.7388458251953,23.624948501586914,-36.86045455932617,132.8206787109375
4386,92.8018798828125,-79.74962615966797,-122.99783325195312,31.8732967376709
4387,124.4825668334961,-37.86648559570313,-111.28820037841795,54.32017517089844
4388,141.57391357421875,-24.563663482666016,-82.10202026367188,104.53207397460938
4389,158.74378967285156,12.147194862365724,-39.84489440917969,133.02262878417972
4390,99.47386169433594,-76.01720428466797,-116.89057159423828,40.56108474731445
4391,90.87957000732422,-66.87315368652344,-121.2886962890625,54.27903747558594
4392,129.46784973144528,-19.66813468933105,-86.06631469726562,108.23831176757812
4393,155.12356567382812,20.251558303833008,-42.073875427246094,137.66758728027344
4394,89.41726684570312,-82.67422485351562,-115.77982330322266,38.283485412597656
4395,101.4747085571289,-62.23567581176758,-110.11013793945312,59.02123260498047
4396,133.85850524902344,10.535298347473145,-71.3647689819336,106.13275146484376
4397,163.84127807617188,23.08640289306641,-30.77189636230469,125.20249938964844
4398,98.11627197265624,-88.08586120605469,-115.6302261352539,33.44031524658203
4399,101.02217864990234,-46.18776321411133,-110.98152923583984,44.77221298217773
4400,155.5349578857422,-38.24421691894531,-75.5010986328125,94.84573364257812
4401,158.44834899902344,2.113043546676636,-40.39091873168945,117.49082946777344
4402,99.13726806640624,-75.93119049072266,-121.00072479248048,21.6259708404541
4403,107.94847106933594,-72.24364471435547,-121.00072479248048,37.42330932617188
4404,151.03211975097656,-7.405002117156982,-72.94674682617188,97.332763671875
4405,161.27944946289062,38.28909683227539,-41.15385818481445,117.96205139160156
4406,103.2062759399414,-88.62066650390625,-118.618408203125,17.224109649658207
4407,108.24392700195312,-49.94636535644531,-112.8739242553711,41.41752243041992
4408,130.58982849121094,4.132589340209962,-85.29963684082031,89.16856384277344
4409,172.53280639648438,31.254343032836914,-41.47175216674805,122.04976654052734
4410,94.43621063232422,-78.429443359375,-112.99359893798828,28.97487449645996
4411,109.39207458496094,-51.872413635253906,-106.6170654296875,51.92290115356445
4412,131.35650634765622,-18.834136962890625,-72.8906478881836,102.25447082519531
4413,167.5363006591797,7.734113216400146,-42.77323532104492,127.6259536743164
4414,92.99261474609376,-79.01286315917969,-115.05428314208984,39.15862274169922
4415,104.6685791015625,-49.894004821777344,-106.57966613769531,57.29713821411133
4416,124.9425811767578,-15.61408233642578,-80.44525146484375,94.1613311767578
4417,165.427001953125,23.64364814758301,-45.92597198486328,112.79724884033205
4418,100.18817901611328,-66.51786041259766,-109.02930450439452,32.400623321533196
4419,122.76595306396484,-45.8287353515625,-104.71345520019531,47.25176620483398
4420,129.48655700683594,-13.32526397705078,-90.76737213134766,72.59333038330078
4421,145.55690002441406,-4.308364868164063,-60.20116806030274,91.83885192871094
4422,115.1571273803711,-66.66371917724611,-111.35926055908205,25.5996150970459
4423,103.52230072021484,-42.19355010986328,-109.63142395019531,35.75344467163086
4424,129.66793823242188,-7.853789806365968,-85.07898712158203,84.18141174316406
4425,147.099609375,18.385347366333008,-61.48021697998047,97.81708526611328
4426,100.35834503173828,-33.995689392089844,-110.42054748535156,39.96831130981445
4427,112.56537628173828,-62.15339660644531,-108.61417388916016,56.4986686706543
4428,116.8849639892578,-21.17531394958496,-90.76737213134766,92.21097564697266
4429,150.05787658691406,3.6015236377716064,-56.39768981933594,120.2863998413086
4430,104.1580810546875,-75.7404556274414,-107.17431640625,52.60169219970703
4431,106.15145111083984,-49.27692031860352,-106.38519287109376,74.00888061523438
4432,115.0187530517578,-2.7338669300079346,-83.56806182861328,97.03170776367188
4433,143.3260498046875,10.64749526977539,-52.13046646118164,118.9774398803711
4434,103.55596160888672,-75.15702819824219,-105.25200653076172,47.05916213989258
4435,116.4586181640625,-55.47767639160156,-101.14559173583984,62.04119873046875
4436,116.50723266601562,-28.733652114868164,-86.94893646240234,96.91202545166016
4437,159.6133270263672,-1.0396921634674072,-53.30853271484375,121.2101593017578
4438,106.6039810180664,-79.96279907226562,-111.1722640991211,41.35955429077149
4439,101.15494537353516,-51.21044921875,-110.6299819946289,61.92526245117188
4440,139.86665344238278,10.871889114379883,-84.71247100830078,89.87727355957031
4441,166.93605041503906,-0.4861869812011719,-54.75213623046875,104.93411254882812
4442,91.34518432617188,-64.10936737060547,-108.37107849121094,35.94043731689453
4443,103.38392639160156,-62.40771102905274,-112.38399505615234,49.6957893371582
4444,126.85553741455078,-22.491758346557614,-84.82840728759766,87.50991821289062
4445,158.0911865234375,-11.466533660888672,-48.708457946777344,116.6325225830078
4446,101.28209686279295,-70.5195541381836,-102.08056640625,49.88278579711914
4447,102.35919189453124,-55.67214965820313,-103.57279205322266,64.356201171875
4448,132.48782348632812,-16.885648727416992,-76.27152252197266,103.94303894042969
4449,150.83203125,3.306071519851685,-52.16786575317383,132.91978454589844
4450,97.508544921875,-74.81295776367188,-101.90105438232422,66.90306854248047
4451,105.9420166015625,-58.07690811157226,-104.70597839355469,74.87279510498047
4452,118.96060943603516,-24.13357353210449,-91.23111724853516,106.9536590576172
4453,142.88475036621094,1.424901843070984,-56.31167221069336,131.55097961425778
4454,99.1353988647461,-71.44330596923828,-110.10265350341795,56.09101867675781
4455,94.45304107666016,-49.11236572265625,-115.6900634765625,62.04867935180664
4456,127.71571350097656,-2.19158148765564,-81.52607727050781,101.28771209716795
4457,167.885986328125,5.146102428436278,-43.12852478027344,119.7815170288086
4458,104.28150177001952,-89.71646118164062,-107.50342559814452,30.9102725982666
4459,105.82234191894531,-67.62860870361328,-107.51464080810548,44.50481033325195
4460,155.8472442626953,-24.055036544799805,-79.0914077758789,86.8442153930664
4461,152.90768432617188,10.868148803710938,-52.53063583374024,112.70936584472656
4462,93.1552963256836,-41.54280853271485,-102.15162658691406,46.883384704589844
4463,110.46355438232422,-66.27476501464844,-110.15501403808594,53.95553588867188
4464,121.49626159667969,-21.197751998901367,-92.16609191894531,95.1916732788086
4465,156.08285522460938,7.883708953857423,-55.68336868286133,116.16503143310548
4466,103.81027221679688,-69.34522247314453,-100.21061706542969,54.5614013671875
4467,103.84767150878906,-52.13046646118164,-100.13956451416016,58.82488632202149
4468,130.913330078125,-22.31972312927246,-82.95098114013672,98.15367126464844
4469,151.67724609375,0.8938360810279846,-52.41843795776367,114.71021270751952
4470,111.33495330810548,-65.53426361083984,-102.81359100341795,46.03442764282226
4471,95.41793823242188,-44.67310333251953,-103.09033966064452,54.09391403198242
4472,117.95457458496094,-12.857775688171387,-82.23291778564453,98.18733215332031
4473,153.00865173339844,4.536498546600342,-57.74779510498047,115.1253433227539
4474,97.90122985839844,-67.41543579101561,-112.2156982421875,36.38174819946289
4475,116.0771484375,-47.16013717651367,-98.43042755126952,57.22794723510742
4476,119.66744995117188,-12.76801872253418,-81.24559020996094,88.36261749267578
4477,160.6268310546875,11.402955055236815,-46.71883010864258,113.53961944580078
4478,106.09161376953124,-54.06025314331055,-92.66349792480469,51.14313125610352
4479,103.90003204345705,-70.37369537353516,-100.12834167480469,56.64826583862305
4480,100.23493194580078,-16.938007354736328,-81.46623992919922,94.27913665771484
4481,145.9290313720703,16.39198112487793,-56.34159469604492,123.9776840209961
4482,89.95768737792969,-24.832935333251953,-104.78825378417969,47.16387939453125
4483,89.2994613647461,-56.29297256469727,-114.3624038696289,52.88966369628906
4484,113.5078353881836,-10.31464385986328,-88.74034881591797,87.45008087158203
4485,154.19046020507812,23.44917297363281,-50.26051712036133,116.20990753173828
4486,91.19558715820312,-49.01512908935547,-102.69017028808594,42.97893142700195
4487,104.11320495605469,-46.24386215209961,-100.50607299804688,50.49987030029297
4488,121.93383026123048,-12.32671070098877,-81.68689727783203,89.18913269042969
4489,152.80670166015625,24.069995880126953,-43.67081069946289,117.60115051269531
4490,99.84597778320312,-54.5726203918457,-103.8009262084961,46.43459701538086
4491,99.8572006225586,-63.75033569335938,-116.62503814697266,61.00898742675781
4492,127.15473175048828,-11.870442390441895,-92.45406341552734,105.41655731201172
4493,135.71910095214844,23.093881607055664,-68.93009948730469,113.8238525390625
4494,87.68008422851562,-55.12238693237305,-122.3882293701172,34.42577743530273
4495,82.93041229248047,-32.24167633056641,-125.45120239257812,35.110179901123054
4496,126.99765014648438,-25.79783058166504,-97.8058624267578,85.04158782958984
4497,154.79632568359375,12.147194862365724,-71.05062103271484,114.49703979492188
4498,97.17195129394531,-47.17136001586914,-117.84424591064452,42.68721771240234
4499,104.4797134399414,-52.01078796386719,-117.53009796142578,48.66731643676758
4500,111.29006958007812,-26.867441177368164,-102.16284942626952,79.58506774902344
4501,159.0972137451172,23.66608619689941,-62.26559448242188,112.62334442138672
