,T7,F8,Cz,P4
12000,117.57123565673828,-62.46380996704102,-90.3428955078125,82.2665786743164
12001,157.9247589111328,23.381855010986328,-42.54697036743164,135.1151123046875
12002,128.03173828125,-51.79013442993164,-75.74980163574219,90.48313903808594
12003,96.41088104248048,-91.57893371582031,-111.46958923339844,55.197181701660156
12004,118.6558074951172,-59.9318962097168,-93.30115509033205,89.83613586425781
12005,175.70797729492188,2.1841015815734863,-31.40580940246582,148.94898986816406
12006,136.77561950683594,-45.74645614624024,-73.53204345703125,104.9079360961914
12007,103.87197875976562,-84.80970764160156,-117.4870834350586,54.49408340454102
12008,117.2122039794922,-58.8099250793457,-96.85779571533205,86.42908477783203
12009,169.12950134277344,17.719646453857422,-46.15971374511719,146.51806640625
12010,129.48281860351562,-36.17605209350586,-80.66403198242188,93.49749755859376
12011,93.37408447265624,-85.60256958007812,-119.14385986328124,46.45329666137695
12012,101.17925262451172,-52.22396469116211,-108.12611389160156,68.57106781005861
12013,158.72509765625,26.287755966186523,-46.821678161621094,125.4399871826172
12014,131.11715698242188,-36.32938766479492,-69.28725433349611,84.9780044555664
12015,100.86510467529295,-73.00284576416016,-112.60277557373048,38.304054260253906
12016,114.94208526611328,-44.91993713378906,-91.85381317138672,74.27815246582031
12017,161.3579864501953,5.572451114654541,-37.10167694091797,137.71807861328122
12018,135.80699157714844,-31.89012718200684,-72.5559310913086,96.09673309326172
12019,104.20857238769531,-77.43463134765625,-109.93248748779295,55.305641174316406
12020,114.07442474365234,-56.55850601196289,-90.41020965576172,84.13652801513672
12021,170.0831756591797,18.13851547241211,-40.30303192138672,146.70130920410156
12022,136.43528747558594,-38.89870071411133,-75.00556182861328,91.92674255371094
12023,97.71236419677734,-80.20589447021484,-111.77252197265624,53.96301651000977
12024,117.02520751953124,-54.733436584472656,-100.45184326171876,83.2875747680664
12025,170.12057495117188,5.131142616271973,-42.483394622802734,145.9645538330078
12026,143.68695068359375,-33.92089080810547,-76.60623931884766,95.39363098144531
12027,104.25719451904295,-86.13737487792969,-129.3463134765625,45.41360473632813
12028,121.07552337646484,-57.45234298706055,-109.6744384765625,80.40785217285156
12029,173.62110900878906,8.377375602722168,-52.39038848876953,139.47956848144528
12030,139.74510192871094,-39.0333366394043,-80.70890808105469,92.63732147216795
12031,89.18539428710938,-91.89308166503906,-131.36585998535156,43.49877548217773
12032,115.81348419189452,-59.64018630981445,-109.46500396728516,71.90705871582031
12033,179.3207244873047,33.591781616210945,-31.633943557739254,141.22984313964844
12034,143.0063018798828,-29.68732643127441,-70.13621520996094,89.33125305175781
12035,84.5965347290039,-90.66265106201172,-127.87278747558594,25.68189239501953
12036,110.99649047851562,-53.8096809387207,-98.45099639892578,67.63234710693361
12037,184.3359222412109,25.55473709106445,-21.192142486572266,144.1806182861328
12038,137.8153076171875,-33.07941436767578,-67.47340393066406,86.91527557373047
12039,89.01335906982422,-91.29095458984376,-124.809814453125,29.799522399902344
12040,115.2711944580078,-59.89823913574219,-100.2648468017578,67.29949951171875
12041,184.26112365722656,30.824254989624023,-21.869064331054688,153.73980712890625
12042,141.2223663330078,-39.7775764465332,-60.98841857910156,97.04666137695312
12043,92.162353515625,-96.3772201538086,-119.89558410644531,45.29393005371094
12044,118.4014892578125,-61.90282440185547,-91.73413848876952,83.76628112792969
12045,189.6690216064453,38.2816162109375,-24.56927299499512,161.6384735107422
12046,148.02523803710938,-38.98097610473633,-70.33442687988281,108.75629425048828
12047,95.94713592529295,-98.19481658935548,-132.64115905761722,50.36149215698242
12048,116.91675567626952,-60.48914337158203,-109.17703247070312,77.56178283691406
12049,174.07737731933594,16.691173553466793,-47.06476974487305,146.33480834960938
12050,144.5994873046875,-36.42288589477539,-74.79612731933594,104.04401397705078
12051,95.74891662597656,-75.93866729736328,-127.15098571777344,51.36378479003906
12052,116.9728546142578,-51.93973159790039,-103.11465454101562,76.21167755126953
12053,170.2963409423828,9.03933811187744,-45.47905349731445,143.48126220703125
12054,142.47523498535156,-30.970111846923828,-69.42189025878906,102.58545684814452
12055,104.66110229492188,-83.96075439453125,-114.12117767333984,56.89509963989258
12056,113.92108917236328,-56.0274429321289,-92.07072448730469,81.44754028320312
12057,168.1758270263672,13.310303688049315,-27.897783279418945,145.17918395996094
12058,130.28501892089844,-30.33245849609375,-65.02190399169922,95.85550689697266
12059,89.27328491210938,-80.60045623779297,-105.20338439941406,46.14849472045898
12060,114.05760192871094,-65.15840911865234,-81.75421142578125,78.05731964111328
12061,164.63226318359375,6.786048412322997,-36.015235900878906,137.181396484375
12062,137.81718444824222,-30.86352348327637,-63.85505294799805,98.67913055419922
12063,96.75682067871094,-97.48609924316406,-114.95330810546876,46.75809860229492
12064,119.1737823486328,-52.28567123413086,-98.01903533935548,70.7308578491211
12065,165.53732299804688,3.034928798675537,-45.11067199707031,121.0586929321289
12066,141.79269409179688,-30.88222312927246,-73.78822326660156,84.37775421142578
12067,91.1843719482422,-101.5476303100586,-135.54519653320312,19.42317008972168
12068,108.23831176757812,-59.65327453613281,-121.14283752441406,56.893226623535156
12069,182.7969665527344,26.3270263671875,-39.52326202392578,141.05593872070312
12070,145.2034912109375,-22.45623016357422,-75.02239227294922,93.50685119628906
12071,84.02619934082031,-97.62448120117188,-138.19677734375,30.10432434082031
12072,117.7451400756836,-71.21704864501953,-107.77643585205078,67.54446411132811
12073,194.52902221679688,34.745540618896484,-24.58984184265137,153.22930908203125
12074,149.53802490234375,-31.26369285583496,-64.88726043701172,106.27486419677734
12075,89.66970825195312,-96.05745697021484,-127.0481414794922,37.905757904052734
12076,111.80992126464844,-59.01375198364258,-95.69281768798828,77.79927062988281
12077,182.7184295654297,21.26320075988769,-26.11946105957031,153.6219940185547
12078,156.8570098876953,-28.683162689208984,-56.00874328613281,112.9094467163086
12079,86.33746337890625,-103.25676727294922,-130.15225219726562,33.369258880615234
12080,108.52254486083984,-67.77259826660156,-105.3716812133789,65.93630981445311
12081,186.7986602783203,12.422078132629395,-30.31936836242676,143.3223114013672
12082,147.55213928222656,-27.056306838989254,-61.637290954589844,96.15095520019531
12083,88.06903076171875,-88.13261413574219,-128.95549011230472,25.956775665283203
12084,111.0020980834961,-57.11762237548828,-104.1674346923828,62.47689819335938
12085,174.8608856201172,19.815860748291016,-37.881446838378906,138.39686584472656
12086,152.4962921142578,-17.227849960327152,-62.29925155639648,103.50733947753906
12087,96.68576049804688,-98.42855834960938,-118.56978607177734,41.75411224365234
12088,114.95891571044922,-67.97454833984375,-103.19879913330078,72.35023498535156
12089,166.87246704101562,8.091273307800293,-44.23927688598633,136.7176513671875
12090,145.5363311767578,-23.03217315673828,-65.27995300292969,113.612548828125
12091,93.18521881103516,-96.4277114868164,-128.7535400390625,50.5653190612793
12092,120.7819366455078,-63.33333587646485,-95.64794158935548,78.48741149902344
12093,169.32583618164062,17.160530090332028,-38.08714294433594,139.89656066894528
12094,146.8116455078125,-24.82732582092285,-56.9025764465332,109.93997192382812
12095,91.0871353149414,-75.91809844970703,-118.0387191772461,43.88959503173828
12096,106.71991729736328,-45.75580596923828,-92.92155456542969,74.91206359863281
12097,162.30978393554688,26.49532127380371,-41.0117416381836,133.34800720214844
12098,139.96014404296878,-18.13290405273437,-65.18645477294922,98.51083374023438
12099,91.61820220947266,-81.27363586425781,-122.515380859375,33.75072860717773
12100,108.694580078125,-46.11857604980469,-111.3106460571289,59.52611923217773
12101,164.1909637451172,12.710049629211426,-52.77372741699219,122.54717254638672
12102,145.326904296875,-28.54478645324707,-68.48878479003906,91.8463363647461
12103,96.25567626953124,-83.85042572021484,-124.13849639892578,32.53525924682617
12104,111.85853576660156,-44.532859802246094,-104.42922973632812,58.75195693969727
12105,160.82504272460938,18.880884170532227,-55.043846130371094,122.82392120361328
12106,134.41761779785156,-19.30349349975586,-77.98439025878906,93.7985610961914
12107,88.55522155761719,-73.88733673095703,-135.49282836914062,36.753868103027344
12108,107.65115356445312,-43.63154220581055,-108.79743194580078,73.75643920898438
12109,162.08912658691406,11.06075382232666,-53.499267578125,136.18284606933594
12110,144.05908203125,-17.362485885620114,-68.78424072265625,105.26883697509766
12111,91.41998291015624,-69.99784088134766,-117.04390716552734,46.481346130371094
12112,109.99232482910156,-45.56507110595703,-104.6910171508789,72.67560577392578
12113,157.18612670898438,4.9460177421569815,-49.13854598999024,122.24797821044922
12114,143.53549194335938,-34.652042388916016,-64.73392486572266,97.2916259765625
12115,94.29222869873048,-92.4334945678711,-116.89057159423828,37.7075424194336
12116,112.90570831298828,-47.58087539672852,-100.68932342529295,66.20183563232422
12117,161.8946533203125,9.647071838378906,-51.86493301391602,122.59953308105469
12118,145.68592834472656,-18.54055404663086,-71.61908721923828,89.9838638305664
12119,101.32698059082031,-63.445533752441406,-126.34130096435548,34.71187973022461
12120,111.63414001464844,-56.6912727355957,-106.91252136230469,61.29508972167969
12121,161.8161163330078,-1.9653173685073853,-55.98630142211914,123.54572296142578
12122,136.55683898925778,-22.22435569763184,-75.72549438476562,90.45134735107422
12123,87.14154052734375,-82.31707000732422,-133.60418701171878,34.87643814086914
12124,103.48863983154295,-50.08287048339844,-115.17395782470705,69.29473876953125
12125,152.8216552734375,7.14133882522583,-65.17523956298828,122.31529998779295
12126,143.52801513671875,-19.86073875427246,-81.25680541992188,98.18172454833984
12127,94.87564849853516,-85.69419860839844,-132.72157287597656,38.36950302124024
12128,110.0783462524414,-62.64145278930664,-112.2568359375,67.52202606201172
12129,163.5925750732422,0.5815544724464417,-61.0351676940918,130.4794921875
12130,152.56735229492188,-10.48854923248291,-73.4478988647461,104.90606689453124
12131,92.07447052001952,-76.30704498291016,-132.20919799804688,43.814796447753906
12132,112.26244354248048,-41.78777313232422,-109.17890167236328,79.18302917480469
12133,160.77642822265625,1.120100021362305,-57.022254943847656,138.83070373535156
12134,145.8355255126953,-23.02843475341797,-68.7169189453125,108.3916473388672
12135,90.96745300292969,-76.29582977294922,-129.50151062011722,43.964393615722656
12136,113.09644317626952,-52.37916946411133,-110.05777740478516,69.66498565673828
12137,158.48760986328125,4.467310428619385,-57.05591201782226,120.314453125
12138,152.05123901367188,-24.92082405090332,-66.65249633789061,99.6402816772461
12139,99.35231018066406,-81.77851867675781,-123.6597900390625,33.96016311645508
12140,110.58697509765624,-65.96248626708984,-109.1003646850586,63.73724365234375
12141,157.97149658203125,-12.926963806152346,-62.60592651367188,121.33918762207031
12142,150.0316925048828,-25.55660629272461,-78.39952087402344,98.14058685302734
12143,92.88228607177734,-85.75777435302734,-133.14418029785156,38.59015655517578
12144,108.1485595703125,-47.64445495605469,-122.7547378540039,64.98637390136719
12145,155.31617736816406,3.393959283828736,-66.08029174804689,123.72149658203124
12146,141.2578887939453,-41.0996322631836,-84.66011810302734,95.6049346923828
12147,100.07411193847656,-94.9803695678711,-134.74859619140622,44.615135192871094
12148,113.45921325683594,-46.802978515625,-107.48472595214844,76.0751724243164
12149,155.76123046875,-2.025155782699585,-59.5205078125,128.27670288085938
12150,148.15426635742188,-42.9995002746582,-71.82852172851562,109.59215545654295
12151,104.16930389404295,-95.2795639038086,-121.2251205444336,42.54697036743164
12152,118.69507598876952,-60.67052841186523,-105.11737060546876,66.72168731689453
12153,162.33596801757812,7.4218316078186035,-49.3031005859375,122.61074829101562
12154,156.7672576904297,-26.259708404541016,-58.66781234741211,91.47982025146484
12155,106.37958526611328,-84.93873596191406,-113.45360565185548,30.437175750732425
12156,122.9211654663086,-47.43876266479492,-102.37228393554688,52.80177688598633
12157,162.79971313476562,10.080900192260742,-58.7276496887207,115.06737518310548
12158,150.85447692871094,-23.29022789001465,-70.46345520019531,92.19414520263672
12159,93.57416534423828,-93.60408782958984,-130.07371520996094,35.62441635131836
12160,111.55560302734376,-68.23634338378906,-104.41053009033205,63.81204223632813
12161,157.26840209960938,-9.766748428344727,-65.70256042480469,123.16425323486328
12162,140.67073059082028,-24.62911033630371,-75.06352996826172,104.45353698730469
12163,94.06783294677734,-95.5039520263672,-122.65001678466795,47.33030319213867
12164,111.47706604003906,-68.51683807373047,-105.23704528808594,77.05876922607422
12165,162.4556427001953,-12.732489585876465,-42.93031311035156,143.6215057373047
12166,146.00009155273438,-31.390850067138672,-59.5317268371582,120.11997985839844
12167,96.33421325683594,-86.51697540283203,-118.4201889038086,50.09783172607422
12168,111.99317169189452,-63.06780242919922,-107.3014678955078,73.96961212158203
12169,160.32763671875,-8.285748481750487,-54.202369689941406,129.30891418457028
12170,145.89163208007812,-33.728286743164055,-61.91404342651367,104.42735290527344
12171,96.49877166748048,-91.49104309082031,-121.82350158691406,38.855690002441406
12172,115.05615234375,-55.64410018920898,-106.35527801513672,63.21365737915039
12173,161.67027282714844,-17.212888717651367,-57.97966766357422,114.55874633789062
12174,149.16778564453125,-25.50798797607422,-69.22928619384766,90.7430648803711
12175,106.89195251464844,-79.83377075195312,-118.0387191772461,36.9782600402832
12176,112.15399169921876,-52.28940963745117,-108.50946044921876,57.77958297729492
12177,158.30435180664062,-2.5001230239868164,-56.69314193725586,112.31106567382812
12178,153.50979614257812,-25.893198013305664,-63.30902481079102,99.99557495117188
12179,92.2689437866211,-74.15287017822266,-124.4040298461914,35.86751174926758
12180,104.4161376953125,-51.48533248901367,-106.23934173583984,68.24008178710939
12181,151.65855407714844,5.589280605316162,-60.20864868164063,119.5290756225586
12182,148.0832061767578,-5.286348819732666,-62.85649871826172,113.2273406982422
12183,87.24999237060547,-81.49054718017578,-119.7665557861328,54.05464553833008
12184,109.76419067382812,-67.33129119873047,-100.70428466796876,77.84040832519531
12185,154.08575439453125,-0.7311504483222961,-52.88592529296875,129.44354248046878
12186,149.97560119628906,-8.555021286010742,-62.14217758178711,111.71642303466795
12187,96.6296615600586,-99.26629638671876,-127.89710235595705,40.97621536254883
12188,119.74224853515624,-67.06575775146484,-111.44528198242188,67.85113525390625
12189,170.41041564941406,3.0386686325073238,-53.42446899414063,121.85154724121094
12190,151.9315643310547,-18.488195419311523,-65.12287902832031,100.71737670898438
12191,100.87071228027344,-67.94463348388672,-125.25672912597656,28.398929595947266
12192,113.13758087158205,-58.50138473510742,-103.39327239990234,52.59982299804688
12193,154.57192993164062,-1.987756848335266,-54.2322883605957,115.92755126953124
12194,147.1781463623047,-10.851319313049316,-57.863731384277344,104.78264617919922
12195,86.9695053100586,-80.72013092041016,-124.0188217163086,40.25067138671875
12196,102.86033630371094,-61.2763900756836,-115.14778137207031,67.03209686279297
12197,144.8668975830078,7.758422374725343,-64.04204559326172,121.01380920410156
12198,136.77375793457028,-14.378045082092285,-68.60846710205078,112.7037582397461
12199,92.75886535644531,-82.27967071533203,-121.47943115234376,54.88490295410156
12200,104.38247680664062,-41.76907348632813,-101.84495544433594,85.45484161376953
12201,147.79150390625,13.28599452972412,-52.79990768432617,136.48951721191406
12202,147.93734741210938,-13.955436706542967,-53.92561721801758,117.47960662841795
12203,86.41226196289062,-91.90243530273438,-120.59681701660156,40.23945236206055
12204,109.28548431396484,-62.65641403198242,-95.38614654541016,64.17107391357422
12205,155.29373168945312,0.12528665363788605,-54.52025985717773,113.4292984008789
12206,154.8262481689453,-21.857845306396484,-57.82259368896485,96.43892669677734
12207,93.44701385498048,-91.94357299804688,-127.85970306396484,23.13315200805664
12208,108.52628326416016,-78.67440795898438,-111.00396728515624,47.625755310058594
12209,155.9669189453125,-4.852519989013672,-61.4390754699707,100.61640167236328
12210,157.358154296875,-17.68411636352539,-58.75382995605469,93.03936004638672
12211,96.82039642333984,-82.27218627929688,-118.278076171875,23.80633354187012
12212,120.40420532226562,-43.17153549194336,-92.8878936767578,64.92279052734375
12213,156.49424743652344,18.90706443786621,-46.24386215209961,124.28996276855469
12214,150.9629364013672,-7.855659961700439,-52.07810592651367,112.7224578857422
12215,92.13056182861328,-82.6948013305664,-110.58509826660156,49.74253845214844
12216,107.5501708984375,-56.34720230102539,-97.94049835205078,74.14164733886719
12217,149.5230712890625,-3.988603353500366,-53.0878791809082,130.60665893554688
12218,154.79258728027344,-7.055321216583253,-50.0436019897461,126.75081634521484
12219,94.89434814453124,-80.99687957763672,-111.50138092041016,56.41452026367188
12220,110.34761810302734,-63.73724365234375,-92.5625228881836,82.37690734863281
12221,156.6326141357422,-23.55575942993164,-50.76166152954102,137.12156677246094
12222,161.947021484375,-28.91503715515137,-45.738975524902344,121.582275390625
12223,101.39429473876952,-99.52434539794922,-117.64977264404295,49.39846801757813
12224,113.87434387207031,-66.86753845214844,-103.5877456665039,71.09736633300781
12225,152.9600372314453,-5.80619478225708,-52.73258972167969,128.67312622070312
12226,156.23619079589844,-12.451996803283693,-57.32892608642578,117.54692840576172
12227,94.04539489746094,-92.54195404052734,-123.62987518310548,49.63034057617188
12228,112.849609375,-61.03703689575195,-106.39641571044922,65.26312255859375
12229,147.017333984375,4.766502380371094,-55.7656478881836,120.93527221679688
12230,154.32510375976562,-18.798606872558594,-59.55790710449219,112.88327026367188
12231,98.60059356689452,-99.31491088867188,-114.70272827148438,39.85798263549805
12232,112.1053695678711,-64.21221160888672,-104.61248016357422,62.38714218139648
12233,155.14039611816406,-17.24654769897461,-59.17269897460938,117.19911193847656
12234,150.93301391601562,-38.92675018310547,-62.64706420898438,110.53087615966795
12235,99.54678344726562,-91.49104309082031,-122.24237060546876,50.53165817260742
12236,108.54498291015624,-72.50357055664062,-111.46023559570312,68.90952301025389
12237,143.8870391845703,-13.955436706542967,-72.22869110107422,120.62112426757812
12238,151.6510772705078,-15.126025199890135,-69.77157592773439,115.74803161621094
12239,93.61530303955078,-96.62592315673828,-134.28858947753906,47.91372680664063
12240,103.46246337890624,-74.77368927001953,-120.0994110107422,72.8962631225586
12241,159.42259216308594,-10.402531623840332,-66.70485687255861,124.9369659423828
12242,155.2451171875,-11.838653564453125,-61.36427688598633,119.09524536132812
12243,99.00076293945312,-88.03911590576172,-127.0743179321289,43.79983901977539
12244,108.80677795410156,-75.15142059326172,-107.47350311279295,70.16613006591797
12245,145.35682678222656,-0.2748826444149017,-61.14362335205078,120.57998657226562
12246,153.60704040527344,-11.225309371948242,-54.72221755981445,116.8587875366211
12247,79.1269302368164,-96.0013656616211,-129.15744018554688,28.387710571289066
12248,108.29815673828124,-66.20932006835939,-105.1098861694336,56.68753433227539
12249,151.0078125,-2.432804822921753,-56.4799690246582,106.92561340332031
12250,167.01832580566406,2.0625548362731934,-48.07267379760742,102.94635772705078
12251,97.22056579589844,-94.9205322265625,-120.09566497802734,25.54164695739746
12252,104.00849151611328,-66.93486022949219,-118.4201889038086,43.69512176513672
12253,149.11167907714844,6.703770637512207,-63.94107055664063,111.79122161865234
12254,156.64010620117188,7.410611629486084,-48.30080795288086,119.9928207397461
12255,81.78226470947266,-84.8041000366211,-131.30415344238278,37.71501922607422
12256,99.10173797607422,-63.91302108764648,-114.49329376220705,65.00881195068361
12257,145.35308837890625,0.4020392596721649,-69.59579467773439,125.80836486816406
12258,152.26815795898438,-12.908265113830565,-67.16112518310547,123.66165924072266
12259,87.91382598876953,-91.7771453857422,-127.47823333740234,51.171180725097656
12260,103.33343505859376,-62.05989837646485,-106.88259887695312,74.75498962402344
12261,151.43603515625,6.043678283691406,-54.58758163452149,131.45187377929688
12262,157.53955078125,5.000246047973633,-47.7772216796875,121.63463592529295
12263,88.99465942382812,-70.3998794555664,-116.04161834716795,45.89044189453125
12264,109.6501235961914,-61.57745361328125,-101.90853118896484,68.70757293701172
12265,152.528076171875,-9.847156524658203,-61.54379272460938,117.60302734375
12266,163.2615966796875,-7.008572578430176,-47.4368896484375,114.43907165527344
12267,98.8642578125,-81.14834594726562,-110.02037811279295,40.871498107910156
12268,118.80914306640624,-54.2098503112793,-92.27081298828124,65.95126342773439
12269,151.91099548339844,-2.6478490829467773,-56.66322326660156,111.20779418945312
12270,166.36944580078125,-8.186640739440918,-48.02405548095703,114.80558013916016
12271,97.72732543945312,-80.28816986083984,-122.00301361083984,33.82926559448242
12272,112.1932601928711,-57.64681625366211,-110.29712677001952,53.67317581176758
12273,159.92559814453125,-1.099530577659607,-62.31047439575195,116.87000274658205
12274,159.1065673828125,6.395228862762451,-52.50819396972656,121.75057220458984
12275,93.06366729736328,-73.81440734863281,-117.2159423828125,55.80491638183594
12276,102.75749206542969,-56.04988098144531,-112.99359893798828,74.39969635009766
12277,147.9467010498047,3.896975755691528,-66.77591705322266,120.99137115478516
12278,150.7030029296875,-2.457114219665528,-58.38357925415039,126.04397583007812
12279,98.43416595458984,-75.84890747070312,-120.47339630126952,56.2686653137207
12280,109.2275161743164,-68.18959808349611,-110.7907943725586,67.92219543457031
12281,151.33131408691406,-11.877922058105467,-66.44306182861328,124.75371551513672
12282,162.3266143798828,-5.4527740478515625,-53.75358200073242,125.04542541503906
12283,95.34500885009766,-87.07234954833984,-126.04959106445312,49.05439758300781
12284,114.4820785522461,-53.7685432434082,-112.24562072753906,71.66209411621094
12285,149.5548553466797,7.0272722244262695,-64.23651885986328,116.95227813720705
12286,158.11549377441406,1.2940053939819336,-48.181129455566406,117.21781158447266
12287,97.22244262695312,-75.3963851928711,-109.97175598144531,42.61428833007813
12288,108.77499389648438,-46.25882339477539,-99.99370574951172,63.03414535522461
12289,143.0848388671875,-13.074689865112305,-70.09694671630861,106.87699127197266
12290,160.1275634765625,4.7197537422180185,-50.65320587158203,113.19367980957031
12291,102.4620361328125,-76.85120391845703,-123.99264526367188,41.78777313232422
12292,112.44009399414062,-65.90825653076172,-109.95680236816406,55.21775436401367
12293,156.7242431640625,6.9487342834472665,-66.85445404052734,111.55560302734376
12294,165.28488159179688,16.264825820922848,-50.35027313232422,128.32905578613278
12295,99.65337371826172,-78.47805786132812,-112.2568359375,57.91048049926758
12296,113.93605041503906,-62.77421951293945,-104.4853286743164,83.4764404296875
12297,149.42022705078125,6.335390567779541,-64.93962097167969,128.81524658203122
12298,159.11404418945312,6.275552272796631,-51.91728973388672,134.69436645507812
12299,100.1507797241211,-81.77664947509766,-118.88394165039062,53.9985466003418
12300,113.13571166992188,-52.02574920654297,-104.57508087158205,79.29148864746094
12301,153.01426696777344,-4.7197537422180185,-59.87579727172852,127.6670913696289
12302,163.4298858642578,6.51490592956543,-47.395751953125,126.83309936523438
12303,98.72213745117188,-88.23171997070312,-114.11182403564452,51.79948425292969
12304,116.97659301757812,-54.99148941040039,-104.27589416503906,73.17301177978516
12305,152.63653564453125,8.560630798339844,-52.13420486450195,122.35269927978516
12306,162.4612579345703,6.271812438964844,-46.56549453735352,130.17657470703122
12307,97.17755889892578,-80.22085571289062,-113.49848175048828,54.89986038208008
12308,103.41571044921876,-59.90571594238281,-105.31932067871094,69.96044158935547
12309,144.92112731933594,-2.150442361831665,-65.19767761230469,110.75526428222656
12310,165.8757781982422,5.13488245010376,-44.45619201660156,115.72185516357422
12311,111.27698516845705,-77.28129577636719,-116.63999938964844,38.8033332824707
12312,115.32355499267578,-66.23362731933594,-106.77040100097656,57.3906364440918
12313,152.9058074951172,-17.652328491210938,-60.92296981811523,108.13359832763672
12314,169.35763549804688,-3.2836322784423833,-48.899192810058594,115.05615234375
12315,98.73709869384766,-84.1701889038086,-123.76077270507812,45.79694366455078
12316,107.6604995727539,-56.08353805541992,-117.8143310546875,66.82640075683594
12317,147.20994567871094,-15.554244041442873,-71.08053588867188,112.03057098388672
12318,157.31141662597656,7.345163345336914,-54.50530242919922,123.0483169555664
12319,89.74637603759766,-69.49108123779297,-121.35975646972656,47.82770919799805
12320,105.31932067871094,-53.16267776489258,-103.05294036865234,78.5397720336914
12321,142.03018188476562,-19.23804473876953,-63.3239860534668,121.63463592529295
12322,162.62954711914062,-2.2663793563842773,-46.72631072998047,132.46539306640622
12323,99.3093032836914,-78.98294830322266,-114.72517395019531,55.2252311706543
12324,111.56495666503906,-59.61026382446289,-106.1308822631836,74.78865051269531
12325,148.85923767089844,-21.43336677551269,-70.04458618164061,117.29634857177734
12326,170.0345458984375,3.4855866432189937,-44.21683883666992,120.7594985961914
12327,105.11737060546876,-89.33499145507812,-114.49329376220705,42.40485382080078
12328,113.18433380126952,-57.934791564941406,-102.69391632080078,60.90988159179688
12329,151.17050170898438,-5.867903232574463,-68.99741363525389,105.20525360107422
12330,179.6086883544922,14.226579666137695,-43.81666946411133,119.04288482666016
12331,106.83772277832031,-85.0154037475586,-116.66617584228516,46.7842788696289
12332,114.545654296875,-64.17668151855469,-104.76207733154295,62.24502563476562
12333,152.5841827392578,-2.25141978263855,-58.55561447143555,105.35858917236328
12334,172.06532287597656,6.432628154754639,-40.28994369506836,121.758056640625
12335,108.101806640625,-77.49446868896484,-106.51982879638672,50.04547119140625
12336,114.97948455810548,-49.90896606445313,-98.03025817871094,72.08096313476562
12337,147.4866943359375,-22.60769462585449,-60.51906204223633,128.68809509277344
12338,164.80990600585938,-1.8437706232070925,-37.44387817382813,148.038330078125
12339,98.71092224121094,-88.64311218261719,-110.41680908203124,64.61611938476561
12340,109.205078125,-68.83285522460939,-104.6498794555664,81.54290771484375
12341,150.0186004638672,-21.568002700805664,-59.34099197387695,131.01431274414062
12342,174.33543395996094,10.367002487182617,-36.43784713745117,146.76303100585938
12343,109.61647033691406,-78.6126937866211,-110.32331085205078,60.37133407592773
12344,118.6632843017578,-75.58338165283203,-104.78825378417969,74.69141387939453
12345,151.0470733642578,-16.459299087524414,-63.18186950683594,116.43617248535156
12346,177.74249267578125,1.1631089448928833,-37.09232711791992,136.25390625
12347,108.78620910644531,-88.59822845458984,-112.54480743408205,50.77849197387695
12348,111.64349365234376,-54.393104553222656,-105.02387237548828,61.57184219360352
12349,151.682861328125,-9.985532760620117,-64.05326843261719,111.30876922607422
12350,179.73211669921875,10.939207077026367,-35.001724243164055,134.986083984375
12351,92.89537811279295,-86.85543823242188,-125.1033935546875,36.81744384765625
12352,109.17141723632812,-69.82767486572266,-118.20701599121094,56.3098030090332
12353,154.41673278808594,-20.509611129760746,-60.18621063232422,110.53461456298828
12354,190.7835235595703,25.539775848388672,-26.40369415283203,145.85423278808594
12355,91.2573013305664,-96.65023803710938,-123.02400970458984,43.048118591308594
12356,106.96488189697266,-62.79666137695313,-109.37711334228516,63.9092788696289
12357,154.4466552734375,-2.2140207290649414,-55.918983459472656,132.39059448242188
12358,191.6549072265625,28.909425735473636,-20.924739837646484,163.4355010986328
12359,86.99007415771484,-104.50402069091795,-130.50755310058594,48.7701644897461
12360,108.5244140625,-72.74105072021484,-112.5335922241211,72.51104736328125
12361,158.6353302001953,-1.0509119033813477,-47.66876602172852,133.86410522460938
12362,193.40892028808597,16.354581832885742,-16.309703826904293,166.0122833251953
12363,82.28901672363281,-101.00721740722656,-126.12064361572266,47.41258239746094
12364,98.33319091796876,-63.79521179199219,-113.88743591308594,70.32695007324219
12365,158.92330932617188,-19.249265670776367,-50.959877014160156,135.68917846679688
12366,190.9106750488281,25.438798904418945,-14.21161937713623,158.5100555419922
12367,81.15209197998047,-109.1639404296875,-129.33695983886722,39.50269317626953
12368,101.47096252441406,-74.09489440917969,-110.13257598876952,57.0503044128418
12369,162.25555419921875,11.900362014770508,-48.82439422607422,125.65876770019531
12370,194.1569061279297,41.94297790527344,-23.209819793701172,148.30386352539062
12371,83.14545440673828,-103.94677734375,-139.49827575683594,24.47577476501465
12372,99.61597442626952,-67.53511047363281,-119.5234603881836,55.30751037597656
12373,156.95611572265625,11.212220191955566,-59.1502571105957,125.01924896240234
12374,190.8994598388672,31.54979515075684,-13.759092330932615,157.369384765625
12375,80.3966293334961,-96.36600494384766,-132.23912048339844,39.42415618896485
12376,98.62116241455078,-67.13120269775389,-115.10289764404295,61.14549255371094
12377,157.2403564453125,5.202200889587402,-55.645973205566406,132.34196472167972
12378,195.1928558349609,28.13526725769043,-14.626749038696287,164.89405822753906
12379,86.49266815185547,-110.5290069580078,-128.7535400390625,47.37892150878906
12380,104.09263610839844,-73.70594787597656,-109.43321228027344,68.68513488769531
12381,156.85888671875,-10.284725189208984,-50.48865127563477,133.52751159667972
12382,191.51654052734372,29.26097679138184,-17.858022689819336,167.71768188476562
12383,83.49700927734375,-98.58002471923828,-128.86947631835938,45.29205703735352
12384,100.23680114746094,-72.61763763427734,-116.20990753173828,65.74931335449219
12385,156.95611572265625,-15.89083480834961,-59.24749374389648,126.02902221679688
12386,199.57228088378903,29.30959510803223,-22.09532928466797,150.26356506347656
12387,89.7725601196289,-109.05921936035156,-129.77827453613278,36.65288925170898
12388,102.61163330078124,-75.35150146484375,-115.98178100585938,55.34117126464844
12389,155.09739685058594,-13.714213371276855,-67.94276428222656,119.07280731201172
12390,201.73394775390625,18.17217445373535,-22.768510818481445,154.0221710205078
12391,84.92938995361328,-113.73410034179688,-139.49452209472656,23.46600151062012
12392,107.05463409423828,-85.36695861816406,-122.35830688476562,52.63722229003906
12393,154.03900146484375,-7.640615463256836,-64.61051177978516,117.92839813232422
12394,197.8033142089844,31.351581573486328,-20.288957595825195,157.5750732421875
12395,83.4072494506836,-107.82505798339844,-133.52565002441406,30.732627868652344
12396,105.1098861694336,-67.24713897705078,-116.68487548828124,66.54965209960939
12397,152.77865600585938,2.9732203483581543,-57.523399353027344,139.71705627441406
12398,191.77084350585938,22.65631484985352,-17.398014068603516,171.96246337890625
12399,80.31060791015625,-109.71744537353516,-128.20002746582028,49.1329345703125
12400,94.20059967041016,-70.87484741210938,-111.76316833496094,71.1123275756836
12401,147.7896270751953,-11.156121253967283,-53.33845138549805,135.77145385742188
12402,195.9221343994141,29.616268157958984,-12.218253135681152,165.04739379882812
12403,84.30108642578125,-108.7637710571289,-128.75727844238278,33.365516662597656
12404,107.09951782226562,-68.38407135009766,-113.0609130859375,60.25165939331055
12405,164.0245361328125,-9.615283012390137,-54.43050384521485,119.96664428710938
12406,198.17355346679688,33.68901824951172,-15.531804084777832,154.3101348876953
12407,86.78811645507812,-98.11627197265624,-127.59042358398438,23.58568000793457
12408,99.4102783203125,-76.57445526123047,-112.73180389404295,46.90021514892578
12409,158.21646118164062,-10.153828620910645,-57.18307113647461,109.2742691040039
12410,194.43739318847656,49.18716430664063,-10.92424774169922,149.19769287109375
12411,88.87872314453125,-95.4497299194336,-127.8933563232422,24.386016845703125
12412,104.54141998291016,-63.44740295410156,-107.20049285888672,46.41776657104492
12413,160.69227600097656,6.548564910888673,-53.4169921875,120.0376968383789
12414,199.7256164550781,53.099098205566406,-12.528664588928224,161.3074951171875
12415,90.03809356689453,-99.7468719482422,-130.19338989257812,37.66266250610352
12416,101.74398040771484,-85.44923400878906,-114.71768951416016,67.57064056396484
12417,152.6253204345703,-4.738453388214111,-55.97134399414063,130.54681396484378
12418,189.7849578857422,30.38668632507324,-18.79673767089844,165.51487731933594
12419,73.47407531738281,-104.29084777832031,-137.46002197265622,42.2776985168457
12420,88.2055435180664,-88.2055435180664,-117.60115051269531,66.50476837158203
12421,155.17593383789062,-8.792505264282228,-64.19164276123047,128.81150817871094
12422,186.00765991210938,38.22551727294922,-19.81772994995117,165.14837646484375
12423,78.8931884765625,-95.04581451416016,-133.49946594238278,38.36576461791992
12424,94.7690658569336,-58.585533142089844,-112.09602355957031,55.9395523071289
12425,151.66416931152344,5.273259162902832,-53.20007705688477,117.12057495117188
12426,195.0619659423828,42.61241912841797,-7.057191371917725,153.69679260253906
12427,79.70475006103516,-104.70223999023438,-132.80384826660156,23.215429306030273
12428,103.8196258544922,-62.57600784301758,-114.97200775146484,47.90250778198242
12429,154.42420959472656,2.109303474426269,-60.305885314941406,113.75840759277344
12430,205.099853515625,36.770694732666016,-16.133928298950195,155.48072814941406
12431,94.3913345336914,-99.91143035888672,-135.94535827636722,24.741308212280273
12432,113.02351379394531,-67.74080657958984,-124.66956329345705,47.15078735351562
12433,165.34471130371094,-6.814097881317139,-58.3985366821289,117.49830627441406
12434,202.56419372558597,36.03767776489258,-15.516844749450685,162.029296875
12435,86.91527557373047,-95.554443359375,-132.8973388671875,29.96220779418945
12436,98.1200180053711,-67.55381011962889,-118.12847900390624,61.85981369018555
12437,144.79022216796875,-9.708780288696287,-66.16631317138672,122.16570281982422
12438,193.24810791015625,41.81582260131836,-13.13826847076416,166.75653076171875
12439,73.32821655273438,-80.93891143798828,-130.63470458984378,40.91637420654297
12440,90.19890594482422,-62.92755508422852,-120.79129028320312,68.69261169433594
12441,141.5851287841797,2.752566337585449,-64.68904876708984,131.67626953125
12442,194.37008666992188,49.38537979125977,-13.403800964355467,175.53407287597656
12443,77.91333770751953,-88.7927017211914,-134.052978515625,42.86486434936523
12444,94.15572357177734,-72.15763092041016,-119.37012481689452,59.72807312011719
12445,142.98385620117188,-18.609743118286133,-67.69219207763672,118.0892105102539
12446,200.21180725097656,31.4974365234375,-9.069257736206056,159.9461669921875
12447,84.88450622558594,-116.4567413330078,-140.21632385253906,25.54538726806641
12448,103.5054702758789,-85.6549301147461,-120.31258392333984,47.50233840942383
12449,155.26568603515625,-20.902301788330078,-63.68301773071289,112.11285400390624
12450,206.85386657714844,47.23493576049805,-13.85258960723877,158.4165496826172
12451,90.16150665283205,-88.99092102050781,-131.45375061035156,23.192989349365234
12452,110.48786163330078,-62.40771102905274,-116.99903106689452,48.36625671386719
12453,155.25820922851562,-1.361323595046997,-70.96086120605469,109.04239654541016
12454,208.55926513671875,45.25278854370117,-12.723139762878418,157.04026794433594
12455,90.26996612548828,-96.73625183105469,-134.14646911621094,32.42306137084961
12456,102.00202941894531,-71.2413558959961,-119.15321350097656,57.45795440673828
12457,149.29306030273438,-3.4070489406585693,-67.62860870361328,122.5808334350586
12458,197.02166748046875,42.35810852050781,-19.95984649658203,171.36782836914062
12459,76.19298553466797,-86.9638900756836,-135.32080078125,40.17213439941406
12460,90.24565887451172,-71.74063110351562,-125.72982788085938,61.749488830566406
12461,142.8660430908203,-23.89235115051269,-66.97599792480469,132.72904968261722
12462,199.73870849609372,40.13099670410156,-16.95109748840332,175.11708068847656
12463,88.74595642089844,-106.93682861328124,-132.91043090820312,43.562355041503906
12464,97.09341430664062,-60.12824249267578,-122.93985748291016,62.01128005981445
12465,153.77532958984375,-5.2713890075683585,-71.8341293334961,117.74327087402344
12466,201.2533721923828,49.7836799621582,-16.666864395141598,168.53111267089844
12467,91.07217407226562,-92.2278060913086,-133.63223266601562,37.268104553222656
12468,100.88567352294922,-72.00242614746094,-123.05953979492188,50.25303649902344
12469,146.06739807128906,-13.43185043334961,-67.14055633544922,108.62165069580078
12470,201.5488128662109,46.35792922973633,-12.971842765808105,158.74005126953125
12471,94.71483612060548,-97.69927978515624,-125.9542236328125,30.076274871826172
12472,107.8306655883789,-80.00955200195312,-112.4457015991211,50.425071716308594
12473,151.5500946044922,-16.962316513061527,-71.20582580566406,111.10121154785156
12474,197.27784729003903,50.46434020996094,-9.47877597808838,165.04177856445312
12475,82.79203796386719,-89.60987091064453,-133.35174560546878,38.22925567626953
12476,99.00823974609376,-84.6806869506836,-125.16510009765624,60.53401947021485
12477,145.92153930664062,-21.81296730041504,-72.98975372314453,124.94631958007812
12478,194.5888671875,41.83639144897461,-16.408811569213867,167.87289428710938
12479,81.12030029296875,-110.2802963256836,-131.07040405273438,41.33711242675781
12480,95.22346496582031,-86.37860107421875,-126.74333953857422,53.64886474609375
12481,142.9819793701172,-16.393852233886722,-72.23056030273438,119.28784942626952
12482,201.86297607421875,37.83095932006836,-12.62029266357422,174.07363891601562
12483,90.97867584228516,-100.20874786376952,-127.45391845703124,44.785301208496094
12484,99.46076965332031,-80.56305694580078,-121.28682708740234,52.11924743652344
12485,152.6197052001953,-8.244609832763674,-66.69176483154297,109.73240661621094
12486,211.4109344482422,46.13727569580078,-11.217829704284668,162.63702392578125
12487,96.93634033203124,-97.53472137451172,-133.61354064941406,23.6623477935791
12488,108.7357177734375,-75.34589385986328,-124.39842224121094,46.36727905273438
12489,151.19480895996094,-15.488795280456545,-73.4048843383789,105.4950942993164
12490,206.9342803955078,42.42355346679688,-8.59242057800293,154.37185668945312
12491,93.7162857055664,-89.24336242675781,-128.98727416992188,28.916906356811523
12492,104.32637786865234,-80.43215942382812,-120.89787292480469,45.05083465576172
12493,153.87631225585938,-0.6825317144393921,-77.05876922607422,112.60090637207031
12494,201.8442687988281,40.65832138061523,-14.793174743652346,166.86685180664062
12495,90.9076156616211,-96.43144989013672,-132.08016967773438,44.602046966552734
12496,101.1025848388672,-72.85511779785156,-124.9294891357422,65.58662414550781
12497,144.75096130371094,-9.157145500183104,-68.99928283691406,124.03378295898438
12498,204.19293212890625,50.07538986206055,-9.46381664276123,179.21226501464844
12499,88.92546844482422,-104.1543426513672,-135.67048645019528,43.266902923583984
12500,94.21369171142578,-89.14612579345703,-133.05628967285156,51.81257247924805
12501,142.0731964111328,-22.882577896118164,-82.00665283203125,110.59632110595705
12502,207.6523284912109,36.8959846496582,-15.993681907653807,162.22189331054688
12503,95.6236343383789,-110.13070678710938,-131.31349182128906,31.542316436767575
12504,102.74813842773438,-97.25796508789062,-126.4591064453125,37.559814453125
12505,161.4271697998047,-14.535120964050293,-75.81712341308594,94.8102035522461
12506,219.1375732421875,45.277099609375,-15.324239730834961,151.9820556640625
12507,103.6943359375,-99.09052276611328,-127.97750854492188,23.84934234619141
12508,102.6284637451172,-77.67584991455078,-125.47551727294922,37.686973571777344
12509,149.71380615234375,-16.584587097167972,-70.22222900390625,94.8550796508789
12510,206.2461395263672,30.908403396606445,-4.796421527862549,158.48573303222656
12511,93.1964340209961,-98.35749816894531,-116.49601745605469,36.40792465209961
12512,100.79965209960938,-78.50611114501953,-111.88845825195312,55.64223098754883
12513,148.554443359375,-9.564794540405273,-62.95934677124024,120.1854248046875
12514,201.40670776367188,51.59753036499024,-9.497475624084473,176.94589233398438
12515,88.52156066894531,-94.70361328125,-130.29998779296878,56.1396369934082
12516,92.3736572265625,-83.341796875,-126.36560821533205,67.90536499023439
12517,133.01889038085938,-33.37673568725586,-83.92896270751953,114.94208526611328
12518,199.1103973388672,39.34187698364258,-21.876544952392575,182.0246734619141
12519,80.32743835449219,-100.99038696289062,-130.78617858886722,47.53038787841797
12520,88.1139144897461,-74.5866928100586,-122.52847290039062,58.46211624145508
12521,142.7426300048828,-30.627910614013672,-78.43131256103516,105.3679428100586
12522,212.11029052734372,41.72793197631836,-8.536321640014647,168.36282348632812
12523,103.81027221679688,-83.1959457397461,-123.0707550048828,38.498531341552734
12524,103.64571380615234,-85.0658950805664,-114.52508544921876,46.6515121459961
12525,145.89163208007812,-25.975475311279297,-77.38040161132812,91.72478485107422
12526,207.28208923339844,56.45191955566406,-8.861693382263184,159.0915985107422
12527,95.20476531982422,-94.1351547241211,-122.76408386230469,31.168325424194336
12528,101.61121368408205,-83.31188201904297,-119.53655242919922,46.56923294067383
12529,143.6215057373047,-12.0219087600708,-71.21330261230469,104.21979522705078
12530,196.8664703369141,46.55614471435547,-2.3355674743652344,165.17642211914062
12531,86.94706726074219,-84.40019226074219,-114.293212890625,43.599754333496094
12532,94.73353576660156,-61.71022033691406,-110.84502410888672,55.81426620483398
12533,141.6804962158203,-6.520515441894531,-60.62938690185547,111.84545135498048
12534,205.2139129638672,41.55963897705078,-2.159792184829712,175.6892852783203
12535,87.68008422851562,-92.74391174316406,-116.41747283935548,48.49154281616211
12536,96.13225555419922,-74.44831848144531,-119.34581756591795,58.76504898071289
12537,143.0343475341797,-24.973182678222656,-74.20148468017578,110.6075439453125
12538,207.9814453125,44.955467224121094,-0.7124509215354919,183.08306884765625
12539,101.25965881347656,-82.59008026123047,-113.96410369873048,46.01947021484375
12540,98.49961853027344,-92.72146606445312,-113.83694458007812,54.50904083251953
12541,144.6088409423828,-27.35923767089844,-69.19750213623047,110.37566375732422
12542,215.93247985839844,41.18564987182617,-1.961577534675598,176.0109100341797
12543,99.0157241821289,-91.98097229003906,-119.1513442993164,40.71628952026367
12544,97.03357696533205,-78.84269714355469,-121.9450454711914,43.506256103515625
12545,139.24955749511722,-23.79137420654297,-60.15816116333008,104.8667984008789
12546,210.66294860839844,39.92904281616211,-0.4207387566566467,171.97555541992188
12547,102.00389862060548,-96.0873794555664,-111.17413330078124,46.87964630126953
12548,98.43603515625,-82.53398132324219,-113.7509307861328,52.90088653564453
12549,148.15426635742188,-26.61499786376953,-75.94053649902344,108.19530487060548
12550,206.77345275878903,54.79888534545898,-1.3706732988357544,169.29031372070312
12551,93.64148712158205,-77.22706604003906,-119.11394500732422,41.71484375
12552,100.33216857910156,-70.23345184326172,-124.0880126953125,50.47369003295898
12553,139.82551574707028,-20.373104095458984,-72.28665924072266,112.38399505615234
12554,202.4837951660156,46.32801055908203,-12.040607452392578,170.62171936035156
12555,110.39997863769531,-81.55413055419922,-119.70484924316406,49.20586395263672
12556,104.84622192382812,-77.58235168457031,-119.62631225585938,49.20586395263672
12557,138.74467468261722,-16.891258239746097,-76.37810516357422,104.53394317626952
12558,212.6338806152344,50.79719161987305,-8.072573661804201,177.09548950195312
12559,90.97867584228516,-95.39550018310548,-129.11817932128906,48.20357131958008
12560,94.6662139892578,-86.45339965820312,-125.26608276367188,61.09874725341797
12561,133.61727905273438,-34.293014526367195,-81.27737426757812,106.05982208251952
12562,197.80517578125,36.10312271118164,-13.424370765686035,171.96060180664062
12563,92.03707122802734,-75.26361846923828,-130.32991027832028,52.100547790527344
12564,93.60034942626952,-70.53638458251953,-134.10720825195312,47.86697769165039
12565,139.50761413574222,-21.45767593383789,-84.58345031738281,99.47760009765624
12566,202.21826171875,59.59343719482422,-4.856260299682617,172.40939331054688
12567,94.87564849853516,-79.94223022460938,-124.5704574584961,43.603492736816406
12568,91.29656982421876,-74.9270248413086,-127.54741668701172,50.62328720092773
12569,133.90898132324222,-15.724409103393555,-77.79927062988281,107.35009002685548
12570,197.39378356933597,54.48847198486328,-4.059661388397217,176.46717834472656
12571,87.97927856445312,-76.7969741821289,-118.61280059814452,51.38622665405274
12572,87.18267822265625,-87.33975219726562,-122.91368103027344,50.80279922485352
12573,135.52836608886722,-16.304094314575195,-76.12753295898438,102.92578887939452
12574,205.3971710205078,52.40534973144531,-9.299261093139648,170.0420379638672
12575,102.32179260253906,-77.01014709472656,-122.27041625976562,46.33736038208008
12576,101.64112854003906,-80.22272491455078,-125.78218841552734,49.02634811401367
12577,142.5631103515625,-33.04388427734375,-76.87925720214844,102.49195861816406
12578,212.0953369140625,64.1448974609375,-0.8508272171020508,182.8549346923828
12579,98.42107391357422,-77.31681823730469,-114.30817413330078,55.75442886352539
12580,100.07037353515624,-80.99687957763672,-121.04747009277344,59.40457153320313
12581,141.08212280273438,-18.260061264038086,-74.04814910888672,113.02725982666016
12582,205.5131072998047,43.79983901977539,-5.607979774475098,171.9942626953125
12583,104.4198760986328,-90.49996948242188,-112.78229522705078,52.56055450439453
12584,97.45244598388672,-88.32708740234375,-117.2252960205078,54.50904083251953
12585,139.552490234375,-34.891395568847656,-71.04126739501953,100.5733871459961
12586,209.49610900878903,45.78572463989258,0.4543978571891785,176.33628845214844
12587,100.97917175292969,-83.17724609375,-108.76190185546876,51.9846076965332
12588,99.28125762939452,-87.3547134399414,-112.91693115234376,52.77372741699219
12589,135.09078979492188,-21.17718315124512,-72.33153533935547,102.08431243896484
12590,201.13368225097656,56.41452026367188,-5.4920430183410645,171.8745880126953
12591,98.78759002685548,-79.95719146728516,-108.70954132080078,47.20127868652344
12592,94.54653930664062,-82.72845458984375,-115.19078826904295,43.67829132080078
12593,136.53065490722656,-26.27092742919922,-71.07866668701172,95.46842956542969
12594,206.1114959716797,51.32451629638672,4.777722358703613,173.8043670654297
12595,100.44436645507812,-78.88384246826172,-101.69722747802734,43.17714309692383
12596,98.94092559814452,-81.68128204345703,-118.63897705078124,39.8374137878418
12597,139.18598937988278,-22.205656051635746,-80.54061889648438,92.843017578125
12598,205.93197631835938,48.17177963256836,-4.669265270233153,166.88555908203125
12599,96.63340759277344,-78.73050689697266,-118.03311157226562,48.31576919555664
12600,97.72545623779295,-79.10823059082031,-122.26667785644531,46.34857940673828
12601,136.16789245605472,-27.841684341430664,-83.940185546875,97.7983856201172
12602,202.36412048339844,45.17986297607422,-6.486856460571289,173.37802124023438
12603,100.19378662109376,-79.45230102539062,-112.09789276123048,62.04119873046875
12604,82.88927459716797,-82.44048309326172,-133.44149780273438,47.02924346923828
12605,128.0784912109375,-23.06957244873047,-91.33396911621094,99.72443389892578
12606,201.9676818847656,56.88200759887695,-6.647672176361084,178.36705017089844
12607,95.5039520263672,-72.24177551269531,-117.52074432373048,48.06519317626953
12608,85.78021240234375,-76.57257843017578,-129.68290710449222,46.09052658081055
12609,134.07728576660156,-17.418584823608402,-78.18447875976562,109.01060485839844
12610,200.1351318359375,73.7826156616211,-5.29382848739624,179.76577758789062
12611,98.2527847290039,-83.39789581298828,-118.81848907470705,57.46356201171875
12612,90.66826629638672,-85.5707778930664,-122.01610565185548,54.049034118652344
12613,129.36874389648438,-13.517868041992188,-77.48511505126953,102.14414978027344
12614,206.537841796875,63.19121932983398,3.7230703830718994,177.5966339111328
12615,104.24036407470705,-73.67790222167969,-105.5194091796875,54.07895278930664
12616,93.30863189697266,-80.02825164794922,-121.5224380493164,45.96337127685547
12617,132.61123657226562,-31.974275588989254,-83.54375457763672,99.82167053222656
12618,209.20065307617188,40.460105895996094,-8.214690208435059,170.36740112304688
12619,113.98654174804688,-82.90797424316406,-105.89339447021484,51.22541046142578
12620,96.17713928222656,-94.18376922607422,-118.36970520019531,50.45125198364258
12621,134.50736999511722,-34.19951629638672,-76.88673400878906,99.93386840820312
12622,211.7886657714844,44.32716369628906,-3.41265869140625,177.5143585205078
12623,102.8939971923828,-73.083251953125,-113.447998046875,58.97822189331055
12624,88.31212615966797,-93.69758605957031,-129.42485046386722,51.76769638061523
12625,132.70100402832028,-21.046287536621094,-86.73763275146484,102.73131561279295
12626,203.5908050537109,60.29653549194336,-5.593020439147949,179.45535278320312
12627,98.59685516357422,-72.9822769165039,-123.8523941040039,53.58154678344727
12628,88.18122863769531,-76.36688995361328,-132.36814880371094,53.64512634277344
12629,127.17716979980469,-30.852304458618164,-98.91474151611328,101.81877899169922
12630,207.3419189453125,44.45431900024414,-14.752035140991213,181.3028717041016
12631,104.5769500732422,-84.10099792480469,-117.01586151123048,64.70401000976561
12632,90.58972930908205,-80.4471206665039,-137.49929809570312,56.61460494995117
12633,126.38430786132812,-35.96100616455078,-82.96781158447266,109.2499542236328
12634,201.0364532470703,51.91542053222656,-7.055321216583253,180.61099243164062
12635,92.32129669189452,-77.1148681640625,-111.13673400878906,62.79666137695313
12636,91.59575653076172,-65.79045104980469,-123.14181518554688,53.55536651611328
12637,128.00743103027344,-44.94424819946289,-81.31477355957031,99.59353637695312
12638,212.71615600585938,45.19482040405274,3.913805246353149,182.9409484863281
12639,116.45487213134766,-78.29667663574219,-100.6612777709961,60.23482894897461
12640,100.48924255371094,-90.29801177978516,-116.06966400146484,50.44377136230469
12641,135.94349670410156,-36.00588607788086,-75.62638854980469,93.75929260253906
12642,210.6554718017578,48.61682891845703,1.6025471687316897,168.96493530273438
12643,110.20924377441406,-78.4013900756836,-106.29356384277344,50.42132949829102
12644,94.39694213867188,-83.10618591308594,-130.83479309082028,42.840553283691406
12645,126.97521209716795,-35.66181564331055,-95.3394012451172,89.61174011230469
12646,200.83824157714844,52.5250244140625,-19.348371505737305,165.27366638183594
12647,100.9455108642578,-68.00820922851561,-119.35704040527344,56.86517715454102
12648,92.3100814819336,-81.052978515625,-133.64720153808594,52.11176681518555
12649,127.91392517089844,-38.0403938293457,-100.01427459716795,98.03025817871094
12650,206.63134765625,52.49884414672852,-13.540307998657227,183.92454528808597
12651,112.03430938720705,-83.10244750976562,-109.96240997314452,68.89643859863281
12652,93.4806671142578,-91.31153106689452,-130.10551452636722,58.45463562011719
12653,132.91790771484378,-26.54019927978516,-83.66717529296875,101.24657440185548
12654,217.84356689453125,46.11857604980469,6.11660623550415,184.3471527099609
12655,117.8049774169922,-90.67574310302734,-103.11465454101562,62.893898010253906
12656,108.98629760742188,-91.0833969116211,-120.07135772705078,42.52640151977539
12657,141.46359252929688,-24.33365821838379,-70.45036315917969,97.4019546508789
12658,204.10690307617188,47.89502716064453,2.421585321426392,166.50035095214844
12659,111.45836639404295,-86.37486267089844,-94.621337890625,51.913551330566406
12660,94.40068817138672,-105.4595718383789,-120.56876373291016,36.56126022338867
12661,125.4399871826172,-54.05838394165039,-84.13092041015625,80.68273162841797
12662,208.0992584228516,41.02483367919922,-5.4434242248535165,162.2312469482422
12663,109.76980590820312,-80.95574188232422,-110.6617660522461,41.30532455444336
12664,93.53115844726562,-92.94960021972656,-138.90924072265622,26.89175033569336
12665,132.81132507324222,-41.12955093383789,-95.97891998291016,77.18592834472656
12666,210.2609100341797,50.13896942138672,-10.062200546264648,169.15380859375
12667,111.0114517211914,-80.6079330444336,-111.3012924194336,56.80720901489258
12668,99.53369903564452,-90.63460540771484,-126.04397583007812,50.404502868652344
12669,134.10159301757812,-45.41173553466797,-89.3031997680664,99.37100982666016
12670,206.5097961425781,37.6776237487793,-9.269342422485352,181.28977966308597
12671,107.2154541015625,-95.51517486572266,-108.50758361816406,59.2979850769043
12672,99.63841247558594,-85.39500427246094,-122.1395263671875,48.99456024169922
12673,137.34782409667972,-42.69282913208008,-79.36628723144531,90.7879409790039
12674,214.87594604492188,47.93990707397461,-4.68796443939209,174.4532470703125
12675,121.78610229492188,-82.919189453125,-101.4503936767578,62.05802917480469
12676,91.46673583984376,-92.2913818359375,-122.77904510498048,44.71985244750977
12677,125.4212875366211,-27.24704170227051,-84.90507507324219,95.05516815185548
12678,208.40966796875,45.56133270263672,-0.6713120341300964,179.97708129882812
12679,105.63721466064452,-73.13187408447266,-110.1755828857422,57.14754104614258
12680,92.97391510009766,-91.62567901611328,-129.98957824707028,33.417877197265625
12681,118.36408996582031,-33.260799407958984,-93.06554412841795,80.73509216308594
12682,191.98776245117188,60.35637664794922,-13.18127727508545,161.72262573242188
12683,99.791748046875,-64.73580169677734,-117.43473052978516,45.359375
12684,86.28697204589844,-74.32490539550781,-138.28840637207028,29.105772018432614
12685,125.35770416259766,-17.583139419555664,-94.1800308227539,80.25263977050781
12686,207.44851684570312,55.37482833862305,-10.365132331848145,163.0876922607422
12687,113.87247467041016,-65.27808380126953,-103.44750213623048,68.63277435302734
12688,92.5849609375,-82.5564193725586,-130.62535095214844,53.2356071472168
12689,129.35566711425778,-37.10167694091797,-93.64148712158205,104.36003875732422
12690,209.5578155517578,47.9174690246582,-15.133504867553713,182.8829803466797
12691,110.56639862060548,-72.20063781738281,-103.9336929321289,72.19316101074219
12692,95.56566619873048,-90.91510009765624,-128.45620727539062,49.13667678833008
12693,132.71034240722656,-32.47542190551758,-84.99857330322266,94.6811752319336
12694,197.70980834960938,35.03725433349609,-7.6350059509277335,174.72251892089844
12695,106.9386978149414,-86.72267150878906,-100.93428802490234,65.65207672119139
12696,87.80162811279297,-92.25398254394531,-123.17547607421876,40.04124069213867
12697,122.4929428100586,-50.09035110473633,-85.84379577636719,86.79373168945312
12698,209.56529235839844,50.70369338989258,3.005009651184082,172.3738555908203
12699,110.14005279541016,-66.25419616699219,-97.81521606445312,55.935813903808594
12700,84.8919906616211,-92.83740997314452,-128.7479248046875,31.02433967590332
12701,129.96900939941406,-33.78064727783203,-93.353515625,75.92183685302734
12702,208.7462615966797,62.3721809387207,-0.4506579339504242,163.2185821533203
12703,117.35806274414062,-66.69176483154297,-96.33795166015624,54.90734100341797
12704,104.89297485351562,-80.45459747314453,-121.26812744140624,40.99865341186523
12705,134.22874450683594,-42.92844009399414,-85.89614868164062,89.7220687866211
12706,214.4795227050781,62.761131286621094,0.9144055247306824,180.2463531494141
12707,115.08419799804688,-65.91386413574219,-95.9452667236328,77.44771575927734
12708,95.03459930419922,-91.9473114013672,-121.2606430053711,59.03619003295898
12709,124.43395233154295,-49.73505783081055,-90.31671142578124,96.24445343017578
12710,209.31097412109372,45.789466857910156,-2.410365581512451,182.56134033203125
12711,117.76944732666016,-77.11112976074219,-91.80145263671876,71.41899871826172
12712,86.08876037597656,-97.71797943115234,-125.29973602294922,44.32716369628906
12713,123.43914031982422,-44.9068489074707,-85.25662994384766,90.83281707763672
12714,202.44078063964844,52.012657165527344,-7.799561500549316,174.28494262695312
12715,113.0609130859375,-62.27868270874024,-102.73318481445312,65.20702362060547
12716,82.97341918945312,-104.25906372070312,-139.12240600585938,35.28782653808594
12717,119.7628173828125,-54.70538711547852,-96.9288558959961,79.78889465332031
12718,204.8717193603516,49.77619934082031,-11.63295841217041,169.37820434570312
12719,106.26177978515624,-70.52142333984375,-107.00040435791016,56.20134735107422
12720,90.08670806884766,-83.5400161743164,-138.27719116210938,35.05221176147461
12721,119.4187469482422,-38.93796920776367,-93.96685791015624,80.75379180908203
12722,211.40158081054688,55.50946426391602,-6.284902095794678,170.3767547607422
12723,117.93026733398438,-61.32126998901367,-97.7104949951172,59.83279037475586
12724,95.35248565673828,-85.9896469116211,-129.32386779785156,34.91757583618164
12725,128.88442993164062,-36.469635009765625,-87.70252227783203,89.363037109375
12726,216.41305541992188,57.14006042480469,0.22252404689788816,179.60308837890625
12727,116.29592895507812,-75.31597900390625,-90.96745300292969,77.1373062133789
12728,87.33040618896484,-93.9593734741211,-115.80786895751952,51.13378143310547
12729,127.9157943725586,-39.2334213256836,-82.9416275024414,102.75936126708984
12730,210.72091674804688,54.04716491699219,4.482270240783691,184.7192687988281
12731,113.93231201171876,-64.25708770751953,-91.77901458740234,80.5293960571289
12732,82.47227478027344,-89.6809310913086,-126.68724060058594,43.60536193847656
12733,120.83616638183594,-38.601375579833984,-89.35929870605469,88.22985076904297
12734,200.0547332763672,51.31703567504883,-14.00031566619873,167.5045166015625
12735,111.0338897705078,-62.68633270263672,-107.84562683105469,61.9495735168457
12736,81.85519409179688,-99.6589813232422,-148.04954528808594,30.07814598083496
12737,120.27892303466795,-47.31908416748047,-101.7234115600586,76.60623931884766
12738,206.65565490722656,45.03774642944336,-20.331966400146484,169.12014770507812
12739,121.34479522705078,-66.40379333496094,-108.58612823486328,61.41850662231445
12740,87.29300689697266,-94.9990692138672,-145.52137756347656,27.789325714111328
12741,125.92243194580078,-38.84073257446289,-103.94864654541016,73.59935760498047
12742,212.9012908935547,57.91796112060547,-16.92117691040039,162.38458251953125
12743,127.84100341796876,-51.70598602294922,-93.435791015625,69.42189025878906
12744,98.2022933959961,-100.57525634765624,-131.81465148925778,39.678466796875
12745,136.26325988769528,-49.78741836547852,-87.72870635986328,85.89614868164062
12746,205.57481384277344,53.20194625854492,-1.8493804931640625,175.7210693359375
12747,118.4014892578125,-64.93027496337889,-92.13430786132812,67.52950286865234
12748,92.6073989868164,-84.81906127929688,-120.8193359375,40.50872802734375
12749,129.28086853027344,-53.76667022705078,-79.53832244873047,85.32020568847656
12750,206.36019897460938,61.01459884643555,2.406625509262085,174.81227111816406
12751,120.06948852539062,-51.05524444580078,-85.4885025024414,80.17410278320312
12752,81.4400634765625,-89.2209243774414,-125.0155029296875,38.63129806518555
12753,118.19953918457031,-42.92470169067383,-93.93319702148438,85.07337188720703
12754,203.31591796875,54.55205154418945,-12.006948471069336,168.28614807128906
12755,120.5893325805664,-52.5474624633789,-103.6494598388672,67.72397613525389
12756,88.429931640625,-99.5991439819336,-141.6393585205078,32.32582473754883
12757,122.29473114013672,-42.99575805664063,-103.3914031982422,78.12464141845703
12758,205.75433349609372,56.87452697753906,-24.995620727539066,160.1668243408203
12759,113.360107421875,-62.17396545410156,-106.97048950195312,64.39920806884766
12760,84.192626953125,-94.46800231933594,-142.099365234375,32.64745712280273
12761,120.2078628540039,-46.64590072631836,-102.87529754638672,82.10015106201172
12762,196.8870391845703,45.81938552856445,-11.374905586242676,174.86837768554688
12763,117.5375747680664,-59.43635940551758,-92.97952270507812,84.19449615478516
12764,87.19202423095703,-85.125732421875,-125.47925567626952,46.38410949707031
12765,118.51368713378906,-37.77486038208008,-90.72810363769531,90.53736877441406
12766,202.0293884277344,47.206886291503906,-6.101646900177003,171.57725524902344
12767,126.64423370361328,-63.18000030517578,-87.12657928466797,73.92473602294922
12768,91.93048095703124,-99.12043762207031,-128.95361328125,34.36033248901367
12769,120.30136108398438,-49.48074722290039,-98.3948974609375,79.40742492675781
12770,200.5035095214844,44.70115280151367,-6.617753028869629,167.72515869140625
12771,120.15550231933594,-54.600669860839844,-94.62507629394531,71.90892791748047
12772,91.94918060302734,-100.5827407836914,-134.43630981445312,35.07465362548828
12773,122.8968505859375,-59.821571350097656,-102.23951721191406,80.01702880859375
12774,214.64781188964844,35.37758255004883,-15.941323280334473,170.98635864257812
12775,125.93739318847656,-66.35143280029297,-93.3983917236328,81.66258239746094
12776,91.4218521118164,-100.52664184570312,-144.65745544433594,34.52862548828125
12777,125.8663330078125,-43.33609008789063,-100.43314361572266,87.91195678710938
12778,205.9039306640625,32.699813842773445,-6.041808605194093,179.00096130371094
12779,134.72615051269528,-66.74412536621094,-83.68961334228516,82.42926788330078
12780,88.0671615600586,-111.83983612060548,-126.81439971923828,44.01301193237305
12781,119.36638641357422,-56.6276969909668,-95.27207946777344,88.74969482421875
12782,211.6484222412109,51.96403884887695,3.517375946044922,189.2333221435547
12783,124.50501251220705,-53.67317581176758,-91.6144561767578,87.76610565185547
12784,88.04472351074219,-104.48345184326172,-128.36271667480472,39.82806396484375
12785,125.0248565673828,-52.18095397949219,-84.47499084472656,85.77647399902344
12786,213.5782012939453,51.53021240234375,-0.08414775133132935,176.43539428710938
12787,124.97998046875,-56.7398910522461,-82.57138061523438,79.93101501464844
12788,83.13797760009766,-104.7527313232422,-129.10321044921878,29.73407554626465
12789,114.51199340820312,-50.85702896118164,-92.81122589111328,80.03572845458984
12790,198.0800628662109,43.0181999206543,-13.495429039001465,166.36758422851562
12791,127.18277740478516,-58.8978157043457,-88.9591293334961,75.46556854248047
12792,90.01190948486328,-102.17967987060548,-131.09284973144528,27.84542465209961
12793,121.13162231445312,-49.77993774414063,-95.72087097167969,70.83183288574219
12794,206.99224853515625,55.71889877319336,-7.6686649322509775,164.92398071289062
12795,126.41609954833984,-53.67691421508789,-87.24999237060547,72.81771850585938
12796,88.54586791992188,-111.83609771728516,-138.81947326660156,33.48893356323242
12797,122.00301361083984,-58.72578048706055,-96.28559112548828,81.78226470947266
12798,209.6662750244141,38.97162628173828,-2.5263023376464844,176.49896240234375
12799,132.74774169921878,-56.852088928222656,-84.785400390625,86.47583770751953
12800,85.82696533203125,-93.46196746826172,-131.1302490234375,39.79440689086914
12801,119.29158782958984,-51.49655151367188,-94.50540161132812,84.17205810546875
12802,200.5259552001953,40.28807067871094,-9.175844192504883,170.9302520751953
12803,123.39800262451172,-39.71212768554688,-78.05358123779297,83.7008285522461
12804,78.28732299804688,-104.62557220458984,-134.82151794433594,27.808025360107425
12805,120.95958709716795,-43.20519256591797,-88.02041625976562,78.73424530029297
12806,213.69039916992188,51.80322265625,-4.2990150451660165,171.0985565185547
12807,136.74943542480472,-58.30316925048828,-81.3297348022461,77.33551788330078
12808,94.8326416015625,-111.33121490478516,-130.6552734375,32.258506774902344
12809,126.39739990234376,-56.848350524902344,-97.5272445678711,79.32514953613281
12810,212.3290863037109,38.00673294067383,-7.268495559692383,168.8583526611328
12811,134.12777709960938,-58.08251571655274,-85.61566162109375,82.41056823730469
12812,87.61837768554688,-84.45629119873047,-134.810302734375,35.62441635131836
12813,120.6267318725586,-47.86137008666992,-99.80484008789062,83.38294219970703
12814,205.4327087402344,39.31943893432617,-8.869173049926758,171.36782836914062
12815,127.58668518066406,-65.00881195068361,-83.10992431640625,86.72267150878906
12816,78.43318176269531,-114.08003997802734,-137.76107788085938,40.65458297729492
12817,118.48377227783205,-59.60465621948242,-98.37993621826172,84.75548553466797
12818,204.99513244628903,44.27106475830078,-7.646225452423097,179.17300415039062
12819,129.31826782226562,-47.64071655273438,-88.75343322753906,87.94561767578125
12820,79.15872192382812,-93.29741668701172,-135.59568786621094,34.681961059570305
12821,115.75364685058594,-47.39014053344727,-96.5099868774414,75.62265014648438
12822,200.7914886474609,48.47097396850586,-2.7170372009277344,165.23439025878906
12823,126.83870697021484,-41.92988967895508,-76.24346923828125,76.59502410888672
12824,85.34825897216797,-96.36038970947266,-126.32820892333984,23.342586517333984
12825,116.3707275390625,-43.70634078979492,-91.5471420288086,71.40029907226562
12826,202.11541748046875,50.35214233398438,-1.643686056137085,158.15101623535156
12827,137.91255187988278,-57.4729118347168,-71.58355712890625,76.54266357421875
12828,89.98947143554688,-94.6437759399414,-128.51231384277344,22.23557472229004
12829,117.07756805419922,-47.71177291870117,-94.67369842529295,73.18797302246094
12830,201.09068298339844,55.86101531982422,-6.9356446266174325,166.76400756835938
12831,121.07178497314452,-48.84870147705078,-87.87081909179688,77.37291717529297
12832,83.4932632446289,-102.80423736572266,-144.8145294189453,29.49846076965332
12833,115.36095428466795,-47.64445495605469,-108.72076416015624,77.02136993408203
12834,197.2498016357422,56.41078186035156,-17.665416717529297,167.44093322753906
12835,127.6540069580078,-35.72165298461914,-94.77093505859376,86.6329116821289
12836,76.222900390625,-93.4170913696289,-150.51414489746094,33.40665817260742
12837,118.39401245117188,-54.26408004760742,-104.10198211669922,89.1760482788086
12838,202.2276153564453,51.7620849609375,-16.285394668579098,176.89540100097656
12839,133.08807373046878,-46.481346130371094,-78.78660583496094,93.67888641357422
12840,85.89054107666016,-104.62183380126952,-141.08212280273438,36.64915084838867
12841,120.9446258544922,-45.00034713745117,-94.89434814453124,77.97504425048828
12842,205.9525451660156,45.31449890136719,-4.515929222106934,169.26226806640625
12843,132.01472473144528,-43.302433013916016,-74.71011352539062,80.56305694580078
12844,74.68954467773438,-101.97398376464844,-131.66505432128906,19.98041534423828
12845,114.77005004882812,-49.08805847167969,-95.19354248046876,67.09193420410156
12846,199.74806213378903,56.42573928833008,-6.326040744781494,160.3800048828125
12847,133.16661071777344,-38.4218635559082,-76.5351791381836,72.38763427734375
12848,80.98379516601562,-93.92945861816406,-136.1304931640625,26.360685348510746
12849,127.28375244140624,-44.35708236694336,-96.43144989013672,75.80590057373047
12850,203.9068298339844,39.37927627563477,-14.318206787109375,163.82070922851562
12851,130.57485961914062,-47.85763168334961,-80.98566436767578,84.01872253417969
12852,85.87557983398438,-102.24699401855469,-144.3021697998047,28.68690299987793
12853,115.43201446533205,-55.52816390991211,-105.81859588623048,78.33407592773438
12854,191.96533203125,55.97321319580078,-13.282254219055176,177.96127319335938
12855,123.48401641845705,-44.12894821166992,-78.59212493896484,96.73438262939452
12856,76.23786163330078,-95.63111114501952,-136.22398376464844,40.30677032470703
12857,106.93122100830078,-46.95631408691406,-98.72026824951172,95.2833023071289
12858,192.3916778564453,52.1846923828125,-14.374305725097654,185.1381378173828
12859,119.25045013427734,-44.98912811279297,-84.4637680053711,103.16700744628906
12860,70.54573059082031,-100.47054290771484,-142.07693481445312,46.29435348510742
12861,106.14958190917969,-50.92434692382813,-107.25846099853516,80.49573516845703
12862,197.2273712158203,50.87385940551758,-14.275197982788086,165.8795166015625
12863,127.74375915527344,-25.730512619018555,-78.30228424072266,86.76567840576172
12864,67.99512481689453,-83.04074096679688,-133.99687194824222,25.23684501647949
12865,107.40992736816406,-31.70313262939453,-86.42534637451172,75.24304962158203
12866,190.19261169433597,64.44221496582031,3.1789150238037114,167.57369995117188
12867,128.91435241699222,-17.41671371459961,-59.0679817199707,89.00213623046875
12868,79.37937927246094,-94.69800567626952,-125.90373229980469,25.70433235168457
12869,118.9363021850586,-50.26425552368164,-92.11373901367188,66.36078643798828
12870,203.71609497070312,45.75767517089844,-5.478953361511231,153.2872772216797
12871,138.86622619628906,-48.25592803955078,-73.88545989990234,76.73152923583984
12872,93.21700286865234,-103.34091186523438,-131.24057006835938,30.330589294433594
12873,116.77837371826172,-53.69374465942383,-98.6436004638672,70.14556121826172
12874,194.4224395751953,39.773834228515625,-23.05648231506348,160.40805053710938
12875,135.43673706054688,-47.08160018920898,-85.6773681640625,91.51161193847656
12876,79.19985961914062,-105.33802032470705,-145.59056091308594,36.17231369018555
12877,106.84519958496094,-57.01103591918945,-113.27783203125,88.14569854736328
12878,191.60629272460938,38.46861267089844,-27.671520233154297,178.56900024414062
12879,129.95777893066406,-50.60084533691406,-92.69342041015624,94.45865631103516
12880,73.75082397460938,-110.99649047851562,-139.89469909667972,32.297775268554695
12881,112.20447540283205,-59.93937683105469,-104.57881927490234,71.985595703125
12882,192.2607727050781,44.284156799316406,-14.963339805603027,161.97506713867188
12883,128.54409790039062,-54.9615707397461,-75.33280181884766,84.58531951904297
12884,72.22494506835938,-92.38674926757812,-139.2177734375,20.34131622314453
12885,104.53394317626952,-61.027687072753906,-104.12255096435548,63.34268569946289
12886,192.552490234375,26.47475242614746,-12.345409393310547,157.77890014648438
12887,134.64013671875,-45.80255508422852,-75.96110534667969,83.20529174804688
12888,86.10371398925781,-110.19241333007812,-135.15998840332028,25.7641716003418
12889,114.67655181884766,-61.28948211669922,-106.57218933105469,62.91259765625
12890,202.91949462890625,30.259531021118164,-26.60190773010254,150.43746948242188
12891,154.6934814453125,-42.48526382446289,-74.87279510498047,83.48204803466797
12892,98.41920471191406,-112.3765106201172,-142.98385620117188,19.413820266723636
12893,119.42996215820312,-66.09525299072266,-105.27444458007812,68.53740692138672
12894,202.19769287109372,33.44592666625977,-23.24347877502441,161.7394561767578
12895,142.33311462402344,-35.435550689697266,-80.08995819091797,100.88005828857422
12896,75.1794662475586,-111.19844818115234,-142.15733337402344,44.48611068725586
12897,109.57158660888672,-61.26704025268555,-109.70622253417969,88.05968475341797
12898,187.48492431640625,32.63436889648437,-23.74088478088379,177.38719177246094
12899,130.35047912597656,-39.68033981323242,-78.66505432128906,106.73300170898438
12900,74.82418060302734,-103.53913116455078,-141.5103302001953,34.44073867797852
12901,106.99105834960938,-58.61545181274414,-105.76437377929688,75.76663208007812
12902,188.0982666015625,40.40587997436523,-20.105701446533203,163.57574462890625
12903,130.36917114257812,-43.26316452026367,-71.48445129394531,95.96957397460938
12904,76.41363525390625,-107.54082489013672,-134.62892150878906,33.008358001708984
12905,111.75942993164062,-48.91789245605469,-98.91661071777344,79.00912475585938
12906,199.7181396484375,49.26944351196289,-16.84450912475586,167.9252471923828
12907,141.27471923828125,-37.46631622314453,-70.78882598876953,93.41148376464844
12908,84.75361633300781,-118.75678253173828,-137.51612854003906,26.37003517150879
12909,118.7193832397461,-67.30323791503906,-102.25260162353516,69.96604919433594
12910,199.23568725585938,38.55836868286133,-15.43830680847168,163.71038818359375
12911,145.9645538330078,-40.551734924316406,-67.81934356689453,90.2774429321289
12912,78.74359130859375,-110.39810943603516,-134.41200256347656,29.36943435668945
12913,111.83796691894531,-57.19802856445313,-92.42414855957031,74.42027282714844
12914,200.7914886474609,52.717628479003906,-0.6956213712692261,175.26292419433594
12915,143.30921936035156,-32.421192169189446,-58.14422607421875,108.00457000732422
12916,72.1277084350586,-111.1124267578125,-126.59561157226562,43.68951034545898
12917,112.69066619873048,-58.91464233398438,-93.84905242919922,86.3355941772461
12918,193.7268218994141,30.21091270446777,-20.599369049072266,166.87432861328125
12919,143.90760803222656,-37.69819259643555,-66.55152130126953,97.03170776367188
12920,80.58362579345703,-113.16189575195312,-130.97129821777344,35.917999267578125
12921,112.24187469482422,-67.77072906494139,-101.75894165039062,70.63175201416016
12922,196.9281768798828,36.449066162109375,-9.207633972167967,164.20779418945312
12923,151.4248046875,-28.711212158203125,-58.55561447143555,96.47071838378906
12924,89.92963409423828,-106.22064208984376,-130.25323486328122,22.790950775146484
12925,122.69490051269531,-63.697975158691406,-103.77100372314452,61.19598388671875
12926,200.08090209960938,47.373313903808594,-16.96418571472168,150.3776397705078
12927,147.13514709472656,-35.85441970825195,-69.01611328125,91.75470733642578
12928,86.57494354248047,-111.12738800048828,-135.1151123046875,25.360261917114254
12929,114.67281341552734,-59.62896347045898,-97.60765075683594,71.97811126708984
12930,203.63006591796875,38.24421691894531,-12.154674530029295,162.39767456054688
12931,149.3491668701172,-34.205123901367195,-58.91090393066406,101.6392593383789
12932,83.58676147460938,-105.58485412597656,-135.91169738769528,31.572235107421875
12933,108.01579284667969,-53.03926086425781,-94.82142639160156,75.08971405029297
12934,191.01165771484372,36.98387145996094,-13.13826847076416,166.93417358398438
12935,148.3319091796875,-35.74596405029297,-63.93732833862305,105.6933135986328
12936,85.53899383544922,-119.49354553222656,-135.47039794921878,32.058422088623054
12937,118.5997085571289,-69.33400726318361,-98.36685180664062,81.05859375
12938,202.7212829589844,35.386932373046875,-17.644847869873047,167.4053955078125
12939,154.1511993408203,-31.029949188232425,-61.3754997253418,106.40015411376952
12940,81.11469268798828,-107.79139709472656,-136.68960571289062,29.829442977905273
12941,115.2861557006836,-68.98619079589844,-105.63347625732422,71.16655731201172
12942,199.91635131835938,36.886634826660156,-20.487171173095703,161.9862823486328
12943,159.7760009765625,-25.543516159057614,-65.81849670410156,99.3317413330078
12944,82.35260009765625,-114.1006088256836,-142.89035034179688,13.729172706604006
12945,117.54131317138672,-65.6651611328125,-100.7940444946289,67.91658020019531
12946,203.50665283203125,37.634613037109375,-18.938854217529297,159.0579376220703
12947,150.6992645263672,-44.0634994506836,-70.46345520019531,100.40509033203124
12948,79.2110824584961,-114.89720916748048,-144.02354431152344,30.71579742431641
12949,109.07044219970705,-71.985595703125,-110.81697845458984,73.54513549804688
12950,192.8479461669922,35.065303802490234,-21.897113800048828,160.43797302246094
12951,144.88746643066406,-33.202831268310554,-66.21492767333984,104.79947662353516
12952,79.58506774902344,-98.2060317993164,-135.60128784179688,34.68383407592773
12953,112.04740142822266,-59.542945861816406,-106.20941925048828,74.2519760131836
12954,193.71185302734372,24.73943901062012,-24.8067569732666,165.4195098876953
12955,150.9984588623047,-29.81074333190918,-64.79002380371094,109.21630096435548
12956,77.3673095703125,-111.33682250976562,-139.0943603515625,25.304162979125977
12957,115.5292510986328,-65.94565582275389,-108.86848449707031,63.91489028930664
12958,190.9555511474609,21.040678024291992,-27.566802978515625,154.0950927734375
12959,148.65354919433594,-25.805309295654297,-66.99656677246094,97.00178527832031
12960,79.48035430908203,-109.35093688964844,-133.03572082519528,19.858869552612305
12961,117.78814697265624,-63.16691207885742,-97.9030990600586,67.56503295898439
12962,197.84071350097656,31.12344741821289,-16.01799201965332,149.3903045654297
12963,150.19064331054688,-42.59371948242188,-62.26933288574219,97.7011489868164
12964,82.53211212158203,-108.45709991455078,-140.6202392578125,22.39826011657715
12965,116.3669891357422,-60.94915008544922,-106.6357650756836,66.01297760009766
12966,194.8712310791016,29.01040458679199,-28.31478309631348,153.43313598632812
12967,152.12791442871094,-35.042861938476555,-61.16980361938477,95.07573699951172
12968,88.6244125366211,-116.83447265625,-139.52070617675778,19.862607955932614
12969,120.56689453125,-58.56309509277344,-101.46722412109376,74.18839263916016
12970,191.3295440673828,35.96661758422852,-24.69081878662109,163.28402709960938
12971,158.7662353515625,-21.900854110717773,-57.41868591308594,116.2884521484375
12972,85.553955078125,-112.6420440673828,-139.08688354492188,32.222976684570305
12973,111.06381225585938,-73.8331069946289,-102.91830444335938,71.88087463378906
12974,191.6175079345703,23.37063407897949,-15.501885414123535,163.81509399414062
12975,154.91787719726562,-29.55642890930176,-56.96241760253906,116.7334976196289
12976,78.67627716064453,-94.8102035522461,-129.72216796875,34.437000274658196
12977,111.90902709960938,-68.29804992675781,-93.95750427246094,72.8495101928711
12978,188.12071228027344,32.623146057128906,-17.024024963378903,157.8312530517578
12979,156.765380859375,-24.57488250732422,-51.57696151733398,109.45938873291016
12980,87.10974884033203,-118.87645721435548,-136.51756286621094,22.70867347717285
12981,129.77078247070312,-59.62522506713867,-92.36431121826172,71.9257583618164
12982,204.28456115722656,31.198246002197266,-17.192319869995114,156.8140106201172
12983,161.33554077148438,-31.36654090881348,-53.29357528686523,103.93930053710938
12984,87.73431396484375,-116.46422576904295,-135.08892822265622,21.306209564208984
12985,121.92447662353516,-65.05555725097656,-95.54322052001952,65.80728149414061
12986,197.57891845703125,27.26012992858887,-23.613727569580078,151.8100128173828
12987,165.28488159179688,-17.891681671142578,-54.583839416503906,108.2214813232422
12988,85.4006118774414,-105.24078369140624,-138.84378051757812,31.347841262817386
12989,113.51718139648438,-54.79701232910156,-100.82022094726562,74.87279510498047
12990,190.95181274414062,31.411418914794922,-26.437353134155273,164.54063415527344
12991,151.06951904296875,-25.99978446960449,-64.06448364257811,113.99214935302734
12992,79.110107421875,-107.70537567138672,-143.06239318847656,36.42288589477539
12993,104.6872787475586,-59.45318984985352,-107.65302276611328,79.955322265625
12994,184.2012939453125,28.131526947021484,-35.2298583984375,159.41323852539062
12995,153.75851440429688,-28.378360748291016,-66.24485015869139,109.44817352294922
12996,80.06752014160156,-115.62274932861328,-143.537353515625,24.55992317199707
12997,111.48268127441406,-65.57540893554689,-109.15646362304688,60.44052505493164
12998,188.139404296875,27.27882957458496,-26.63556671142578,150.99472045898438
12999,158.642822265625,-15.860916137695312,-52.26136016845703,101.91227722167969
13000,83.1304931640625,-98.07887268066406,-135.7845458984375,15.49814510345459
13001,119.08963775634766,-59.05675888061523,-103.183837890625,66.14761352539061
13002,195.5406646728516,26.945980072021484,-30.21465110778809,148.631103515625
13003,169.87747192382812,-24.993751525878906,-54.5501823425293,103.01554107666016
13004,88.8301010131836,-108.74880981445312,-140.76235961914062,22.297283172607425
13005,109.91191864013672,-66.47298431396484,-110.83567810058594,60.46296310424805
13006,187.58590698242188,37.4887580871582,-26.77394294738769,152.35604858398438
13007,155.2133331298828,-6.462547302246094,-57.48974227905274,115.2038803100586
13008,75.00743103027344,-95.60306549072266,-142.80807495117188,25.468719482421875
13009,107.41740417480469,-60.3432846069336,-105.77932739257812,71.57046508789062
13010,178.66998291015625,31.115966796875,-25.31164360046387,154.9477996826172
13011,156.53724670410156,-1.2154674530029297,-45.37620544433594,121.47569274902344
13012,73.2758560180664,-94.64564514160156,-135.91169738769528,29.7546443939209
13013,107.90733337402344,-54.69977569580078,-104.02531433105469,70.85240173339844
13014,180.4987945556641,29.313335418701172,-25.44627952575684,158.65029907226562
13015,146.02439880371094,-16.859468460083008,-58.90342330932617,116.62503814697266
13016,70.42979431152344,-99.49629974365234,-139.04200744628906,27.37606811523437
13017,107.5782241821289,-63.33894729614258,-115.95559692382812,63.78399276733398
13018,184.2835693359375,35.65620803833008,-23.82690238952637,146.90701293945312
13019,160.9615478515625,-15.490665435791016,-53.64886474609375,104.06645965576172
13020,79.64865112304688,-103.42693328857422,-148.4216766357422,19.02113151550293
13021,114.72891235351562,-59.29237365722656,-109.05548095703124,62.1795768737793
13022,190.345947265625,25.67815399169922,-30.65596008300781,146.64895629882812
13023,160.52772521972656,-7.965986728668213,-56.42387008666992,113.84629821777344
13024,74.72694396972656,-103.77100372314452,-153.94549560546875,17.858022689819336
13025,110.85811614990234,-65.07425689697266,-118.9176025390625,59.27741241455078
13026,178.32217407226562,47.45185089111328,-39.42976379394531,144.1357421875
13027,149.40151977539062,-10.52781867980957,-63.544639587402344,111.26950073242188
13028,72.21746826171875,-97.59268951416016,-145.50828552246094,21.511903762817386
13029,102.69017028808594,-60.55646133422852,-107.3388671875,64.72270965576172
13030,176.72149658203125,29.45171165466309,-35.3121337890625,144.72665405273438
13031,155.64715576171875,-5.370496273040772,-48.8692741394043,117.45903778076172
13032,70.5008544921875,-114.47459411621094,-142.12741088867188,23.28835678100586
13033,104.08889770507812,-58.80244827270508,-110.23355102539062,64.91344451904297
13034,179.85552978515625,34.87082672119141,-34.051788330078125,144.7378692626953
13035,157.71531677246094,-0.09723740071058272,-59.842140197753906,109.35093688964844
13036,70.4185791015625,-120.5481948852539,-153.61639404296875,15.23261260986328
13037,107.52212524414062,-77.2251968383789,-125.41006469726562,53.862037658691406
13038,181.1383209228516,21.874675750732425,-42.4067268371582,137.45628356933594
13039,164.03948974609375,-6.9487342834472665,-56.24435424804688,113.1207504272461
13040,81.821533203125,-113.58450317382812,-146.3796844482422,22.704933166503906
13041,112.79164123535156,-60.73971557617188,-111.4340591430664,61.177284240722656
13042,182.2041931152344,21.702638626098636,-39.37366485595703,139.651611328125
13043,158.2875213623047,-4.069011211395264,-55.73199081420898,117.64603424072266
13044,68.69821929931639,-113.0571746826172,-153.6687469482422,21.736297607421875
13045,98.52018737792969,-73.04398345947266,-118.7418212890625,66.87315368652344
13046,171.9157257080078,28.26616477966309,-34.197647094726555,150.68431091308594
13047,163.9684295654297,-8.358675956726074,-46.80858612060547,126.71903228759766
13048,69.71173858642578,-104.79199981689452,-143.3765411376953,30.66343879699707
13049,101.75145721435548,-65.68012237548828,-114.040771484375,75.54972076416016
13050,176.1754608154297,23.890480041503906,-37.33542251586914,155.46389770507812
13051,157.65548706054688,-10.677413940429688,-55.21962356567383,115.84339904785156
13052,71.73876190185547,-112.85896301269531,-143.94500732421875,16.840768814086914
13053,105.10614776611328,-65.93443298339844,-109.9306182861328,54.69603729248047
13054,175.7266845703125,26.63930702209473,-32.37631225585937,139.96949768066406
13055,166.48538208007812,-8.070704460144043,-46.07182693481445,115.85462188720705
13056,77.10177612304688,-105.7120132446289,-139.25143432617188,24.256990432739254
13057,104.42548370361328,-57.66925811767578,-112.35033416748048,62.5610466003418
13058,172.22613525390625,24.87781524658203,-44.38887405395508,145.50828552246094
13059,161.36920166015625,-2.1841015815734863,-61.599891662597656,114.205322265625
13060,75.22434997558594,-111.66593170166016,-149.89144897460938,13.631935119628904
13061,107.1556167602539,-67.71463012695311,-116.63999938964844,56.22939682006836
13062,181.8526306152344,25.79783058166504,-30.962631225585934,142.71832275390625
13063,169.15380859375,-0.6563524603843689,-37.76737976074219,132.79075622558594
13064,75.85078430175781,-109.68565368652344,-139.13362121582028,30.60173225402832
13065,111.76129913330078,-61.41476821899414,-108.6721420288086,71.63591003417969
13066,175.8482208251953,14.445363998413086,-36.66785049438477,153.4574432373047
13067,167.545654296875,-4.579507350921631,-42.6255111694336,128.20564270019528
13068,87.64268493652344,-102.14228057861328,-128.40011596679688,31.24873352050781
13069,114.5924072265625,-67.83991241455078,-107.44171905517578,67.86235809326172
13070,184.6295166015625,18.51811408996582,-29.64057731628418,144.8893280029297
13071,174.60284423828125,0.951804518699646,-41.01735305786133,123.93841552734376
13072,82.26844787597656,-110.1606216430664,-140.15461730957028,17.957130432128906
13073,113.14132690429688,-54.43985366821289,-109.72679138183594,59.07733154296875
13074,177.75930786132812,40.47132873535156,-38.657474517822266,141.20553588867188
13075,170.53756713867188,0.869526743888855,-48.40365600585938,121.1821060180664
13076,80.5892333984375,-97.45244598388672,-140.8352813720703,22.96111488342285
13077,105.20899200439452,-52.37168884277344,-117.70026397705078,57.121360778808594
13078,169.98780822753906,44.61887741088867,-40.47506713867188,138.94664001464844
13079,169.29217529296875,3.8876259326934814,-44.9068489074707,125.70738983154295
13080,76.36314392089844,-100.08159637451172,-140.84649658203125,25.38457107543945
13081,107.7072525024414,-53.44504165649414,-113.19741821289062,65.10978698730469
13082,175.65748596191406,18.54803466796875,-45.92784118652344,141.26536560058594
13083,173.6865692138672,6.0679874420166025,-44.69741439819336,130.93202209472656
13084,74.9307632446289,-98.2939224243164,-142.33872985839844,32.76713180541992
13085,103.2305908203125,-63.92424011230469,-118.71751403808594,69.57148742675781
13086,177.83786010742188,8.33062744140625,-45.2583999633789,149.7698974609375
13087,171.05368041992188,-10.28659439086914,-41.02857208251953,131.86326599121094
13088,80.83232879638672,-112.20260620117188,-143.2475128173828,24.01950836181641
13089,107.63245391845705,-65.34540557861328,-111.61170196533205,58.65098190307617
13090,175.77716064453125,7.335813999176025,-42.49461364746094,129.33883666992188
13091,176.61489868164062,2.3916659355163574,-43.410888671875,119.49915313720705
13092,84.99483489990234,-114.02020263671876,-145.81683349609375,14.781954765319824
13093,115.90885162353516,-63.21365737915039,-111.59674835205078,55.5468635559082
13094,183.11859130859372,14.306986808776855,-35.269126892089844,133.49386596679688
13095,174.0156707763672,11.864832878112793,-40.7293815612793,127.27814483642578
13096,73.03463745117188,-107.4716339111328,-146.99864196777344,15.649611473083494
13097,100.7622528076172,-72.40259552001953,-113.9341812133789,56.97924423217773
13098,170.33935546875,15.129765510559082,-45.09384536743164,134.23062133789062
13099,166.51718139648438,6.763608932495117,-46.821678161621094,123.13807678222656
13100,74.39221954345703,-112.7448959350586,-138.00044250488278,22.239315032958984
13101,99.44580841064452,-68.49440002441406,-112.67757415771484,64.06635284423828
13102,172.40003967285156,17.265247344970707,-42.43477630615234,145.0651092529297
13103,166.32644653320312,9.452596664428713,-43.78487777709961,136.74383544921878
13104,77.07746887207031,-92.19788360595705,-142.00213623046875,32.841930389404304
13105,100.46680450439452,-85.91484832763672,-122.0048828125,55.99191284179688
13106,173.28265380859375,13.40567111968994,-44.09154891967773,141.0447235107422
13107,176.9888916015625,-9.946264266967773,-43.41462707519531,127.9027099609375
13108,83.7008285522461,-112.43822479248048,-145.8729248046875,16.049779891967773
13109,110.06338500976562,-66.20558166503906,-116.6418685913086,60.33019638061523
13110,175.2535858154297,15.372859001159668,-51.16370010375977,132.48408508300778
13111,181.21871948242188,10.683024406433104,-40.50872802734375,125.98787689208984
13112,88.50659942626953,-114.07630157470705,-134.15956115722656,16.449949264526367
13113,109.86143493652344,-70.23345184326172,-114.6148452758789,48.38495635986328
13114,178.41754150390625,23.23412895202637,-40.20579528808594,129.12191772460938
13115,172.68800354003906,5.398545742034912,-42.71152877807617,113.43303680419922
13116,79.43734741210938,-107.64740753173828,-141.95350646972656,16.30783462524414
13117,103.3951416015625,-69.98661804199219,-120.396728515625,46.58606338500977
13118,166.83132934570312,14.88293170928955,-45.03774642944336,127.03878784179688
13119,172.0036163330078,-2.5001230239868164,-40.54986572265625,124.52183532714844
13120,78.21065521240234,-106.23746490478516,-142.4920654296875,20.44790267944336
13121,99.12417602539062,-73.47220611572266,-124.11792755126952,56.92688751220703
13122,170.53009033203125,14.748295783996582,-50.47182083129883,129.61558532714844
13123,175.8594512939453,16.29287338256836,-40.57604598999024,131.51919555664062
13124,77.37291717529297,-88.99279022216797,-142.73141479492188,27.48639488220215
13125,115.4338836669922,-63.77838516235352,-115.84526824951172,64.43660736083984
13126,174.48690795898438,12.291181564331055,-43.92699432373047,136.65406799316406
13127,181.18505859375,-6.868326187133789,-40.89393615722656,130.00827026367188
13128,82.67610168457031,-100.07037353515624,-147.1557159423828,23.383724212646484
13129,105.27257537841795,-78.3826904296875,-117.37863159179688,60.0422248840332
13130,171.20701599121094,11.558160781860352,-47.40136337280274,136.81863403320312
13131,183.06997680664062,8.64103889465332,-39.59619140625,135.068359375
13132,84.14962005615234,-115.18331146240234,-145.12869262695312,21.02010726928711
13133,106.11405181884766,-75.99663543701172,-118.7698745727539,52.9476318359375
13134,167.55313110351562,2.8628933429718018,-45.58003234863281,121.12975311279295
13135,178.7279510498047,13.469249725341795,-36.52199172973633,125.96170043945312
13136,74.95320129394531,-105.983154296875,-135.91357421875,23.56698036193848
13137,101.0464859008789,-55.67776107788086,-106.29356384277344,68.21390533447266
13138,162.04051208496094,17.081993103027347,-37.6776237487793,144.3620147705078
13139,172.17190551757812,14.389265060424805,-22.99477577209473,144.17127990722656
13140,69.36953735351561,-114.92151641845705,-132.94783020019528,31.529226303100586
13141,99.4757308959961,-71.68827056884766,-113.92296600341795,62.98926544189453
13142,166.1693572998047,12.72500991821289,-48.28397750854492,131.93806457519528
13143,175.49667358398438,8.098752975463867,-39.9776611328125,127.83164978027344
13144,73.46846771240234,-111.7650375366211,-145.51763916015625,14.295767784118652
13145,109.53231811523438,-80.54061889648438,-112.81594848632812,52.51754379272461
13146,171.15838623046875,6.494336128234862,-45.45661544799805,130.737548828125
13147,185.3550567626953,5.125533103942871,-36.72020721435547,134.45875549316406
13148,81.53169250488281,-103.82149505615234,-142.58929443359375,25.54538726806641
13149,105.9195785522461,-81.49054718017578,-114.50264739990234,61.47460556030274
13150,169.58763122558594,-9.27308177947998,-50.10530853271485,137.66011047363278
13151,183.54119873046875,5.9857096672058105,-34.19203567504883,130.64779663085938
13152,77.836669921875,-110.69168853759766,-140.36405944824222,14.90537166595459
13153,95.93030548095705,-82.70601654052734,-121.5186996459961,42.18420028686523
13154,160.95220947265625,6.281161785125732,-49.05813598632813,119.39817810058594
13155,172.0821533203125,14.624878883361815,-31.0692195892334,133.36669921875
13156,68.58041381835939,-98.75019073486328,-144.4854278564453,29.36382484436035
13157,95.39176177978516,-53.11219024658203,-115.47502136230469,62.342262268066406
13158,156.00057983398438,18.813566207885746,-44.57025909423828,137.85458374023438
13159,169.67364501953125,22.15703773498535,-38.49665832519531,140.8352813720703
13160,76.52770233154297,-112.21382904052734,-139.02517700195312,27.026386260986328
13161,105.42217254638672,-79.5046615600586,-116.58203125,50.64385604858398
13162,171.59222412109375,3.251842975616455,-48.91228103637695,127.5399398803711
13163,182.95030212402344,4.841300487518311,-39.01650619506836,128.6656494140625
13164,86.09436798095703,-122.09464263916016,-143.0231170654297,22.02988052368164
13165,111.6865005493164,-74.69889068603516,-115.00753021240234,55.36360931396485
13166,177.63963317871094,7.3919124603271475,-46.83663558959961,136.078125
13167,181.97418212890625,7.55646800994873,-32.88681030273437,140.18453979492188
13168,76.25469207763672,-104.24410247802734,-139.97135925292972,26.663616180419922
13169,101.8730010986328,-68.50187683105469,-119.17752075195312,60.0721435546875
13170,173.3499755859375,9.216983795166016,-51.892982482910156,126.7994384765625
13171,186.865966796875,9.456336975097656,-36.42849731445313,128.10092163085938
13172,75.3533706665039,-120.43038940429688,-149.4370574951172,10.159438133239746
13173,106.0055923461914,-68.0418701171875,-117.98075103759766,57.24103927612305
13174,165.5597686767578,7.5078492164611825,-55.31499099731445,130.71885681152344
13175,177.1646728515625,11.674098014831545,-33.97886276245117,145.0277099609375
13176,76.10883331298828,-101.98894500732422,-143.22882080078125,28.24933433532715
13177,97.5459442138672,-68.46821594238281,-117.2402572631836,73.71903991699219
13178,163.0876922607422,9.643332481384276,-46.09613800048828,146.28805541992188
13179,183.33924865722656,16.906217575073242,-28.978614807128906,148.86859130859375
13180,80.85850524902344,-124.01321411132812,-139.92648315429688,33.09624481201172
13181,111.0432357788086,-80.80614471435547,-107.55765533447266,65.50621795654297
13182,167.90841674804688,-6.165225028991699,-46.51500701904297,137.76107788085938
13183,188.97528076171875,8.345586776733397,-25.982954025268555,147.21180725097656
13184,89.38922119140625,-121.91513061523438,-133.61354064941406,32.17248916625977
13185,107.6100082397461,-81.7934799194336,-111.2190170288086,62.32730102539063
13186,172.91989135742188,0.5254559516906738,-40.73685836791992,136.35488891601562
13187,181.34588623046875,4.426171779632568,-22.250534057617188,148.1617431640625
13188,81.69624328613281,-118.71751403808594,-139.43281555175778,32.553958892822266
13189,100.35460662841795,-85.97843170166016,-121.69073486328124,58.5350456237793
13190,164.2807159423828,0.3908195495605469,-54.51465225219727,132.41676330566406
13191,186.8285675048828,10.855059623718262,-33.17104339599609,142.944580078125
13192,83.99254608154297,-113.24604034423828,-142.33123779296875,15.21578311920166
13193,108.55994415283205,-76.68103790283203,-112.74115753173828,53.35902404785156
13194,165.39146423339844,-3.506156206130981,-53.12714767456055,130.34860229492188
13195,184.7641448974609,15.365379333496096,-30.46709442138672,145.7046356201172
13196,81.30729675292969,-109.51361846923828,-138.037841796875,30.25765991210937
13197,107.00788879394531,-61.384849548339844,-114.11743927001952,65.15840911865234
13198,162.17889404296875,20.324485778808594,-55.475807189941406,133.4078369140625
13199,188.4853515625,13.652504920959473,-25.68002319335937,147.5297088623047
13200,88.43180084228516,-105.77371978759766,-137.71246337890622,32.7708740234375
13201,111.10681915283205,-79.8449935913086,-108.21961212158205,63.79334259033203
13202,168.3347625732422,-1.060261607170105,-48.78512573242188,134.58964538574222
13203,192.6029815673828,12.425817489624025,-21.25946044921875,148.60679626464844
13204,85.4436264038086,-114.28199005126952,-133.20588684082028,25.945556640625
13205,106.39828491210938,-76.36688995361328,-113.76214599609376,56.76980972290039
13206,160.7652130126953,-5.334967136383057,-55.75255966186523,126.4404067993164
13207,186.2339324951172,16.001161575317386,-31.473127365112305,143.38963317871094
13208,71.31053924560547,-107.8306655883789,-144.71356201171875,22.613304138183594
13209,101.7907257080078,-75.79842376708984,-124.41338348388672,58.64350128173828
13210,155.86219787597656,1.9578375816345213,-65.53987884521484,123.4073486328125
13211,174.58787536621094,21.79052734375,-43.201454162597656,135.38624572753906
13212,65.66329193115234,-95.33566284179688,-148.41232299804688,17.018415451049805
13213,93.7387237548828,-62.17396545410156,-124.31614685058594,52.1547737121582
13214,154.2390899658203,9.22446346282959,-59.08855056762695,124.34606170654295
13215,177.55361938476562,27.49761390686035,-30.02204704284668,147.04351806640625
13216,74.35482025146484,-93.83222198486328,-138.43800354003906,33.118682861328125
13217,90.63460540771484,-69.51912689208984,-117.7900161743164,57.30087661743164
13218,163.98526000976562,0.9368449449539183,-49.09927749633789,129.01719665527344
13219,191.17059326171875,30.45961570739746,-26.794513702392575,143.17271423339844
13220,83.69709014892578,-105.39225006103516,-141.0858612060547,25.41448974609375
13221,106.65259552001952,-64.07383728027344,-109.74175262451172,53.17950820922852
13222,169.24729919433594,4.097060203552246,-49.33863067626953,123.59808349609376
13223,199.73870849609372,21.17718315124512,-18.675189971923828,149.6838836669922
13224,85.93729400634766,-104.56199645996094,-129.80258178710938,30.06318664550781
13225,101.17364501953124,-77.23454284667969,-112.13155364990234,51.27589797973633
13226,162.14523315429688,-5.3274874687194815,-56.930625915527344,121.8178939819336
13227,189.48390197753903,30.74758720397949,-31.88825607299805,150.82455444335938
13228,79.24286651611328,-98.6753921508789,-137.83587646484378,27.35175895690918
13229,100.12647247314452,-64.17855072021484,-123.23157501220705,51.71346664428711
13230,148.4571990966797,5.245209693908691,-63.47171020507813,117.39359283447266
13231,177.9238739013672,25.09285926818848,-35.90491104125977,139.62728881835938
13232,71.8154296875,-115.32916259765624,-146.93505859375,16.532228469848633
13233,98.98954010009766,-67.45096588134766,-118.9119873046875,52.22209167480469
13234,152.6945037841797,3.521115779876709,-63.4530143737793,130.46827697753906
13235,181.33091735839844,29.54707908630371,-38.31714630126953,156.35586547851562
13236,75.94053649902344,-97.9124526977539,-156.36334228515625,32.131351470947266
13237,92.6130142211914,-70.75703430175781,-131.47056579589844,59.97490692138672
13238,158.1996307373047,5.851073265075684,-63.74472427368164,124.82476806640624
13239,190.9013214111328,22.661924362182614,-27.52005386352539,149.21640014648438
13240,82.53024291992188,-101.7832489013672,-138.98777770996094,25.268634796142575
13241,109.715576171875,-71.35542297363281,-111.32746887207031,54.522132873535156
13242,169.03787231445312,7.4442710876464835,-44.65627670288086,126.61992645263672
13243,196.68695068359372,34.648303985595696,-6.943124294281006,155.89959716796875
13244,83.2408218383789,-93.8583984375,-119.08028411865234,30.852304458618164
13245,104.61808776855469,-67.80999755859375,-103.66067504882812,56.12281036376953
13246,158.18467712402344,-2.1261332035064697,-50.408241271972656,118.60905456542969
13247,192.5992431640625,24.30747985839844,-16.61076545715332,145.4465789794922
13248,87.0517807006836,-113.35823822021484,-135.18803405761722,18.663970947265625
13249,103.3727035522461,-75.07288360595703,-124.21142578125,48.10820388793945
13250,159.07852172851562,-4.04470157623291,-65.38279724121094,112.29610443115234
13251,188.21234130859372,29.113250732421875,-27.744447708129886,141.5570831298828
13252,69.62758636474611,-104.0795440673828,-142.06944274902344,15.73936939239502
13253,94.2361297607422,-66.65436553955078,-124.15532684326172,43.97561264038086
13254,153.61451721191406,0.6675721406936646,-66.97225952148439,119.68614959716795
13255,190.7031097412109,28.78039932250977,-25.90441703796387,147.81019592285156
13256,90.64582824707031,-93.06554412841795,-132.36814880371094,36.6154899597168
13257,108.530029296875,-78.18821716308594,-118.7511749267578,63.98781967163086
13258,164.3966522216797,-9.47503662109375,-64.47026824951172,129.45103454589844
13259,194.506591796875,14.232189178466795,-24.344879150390625,164.7033233642578
13260,83.1136703491211,-131.5528564453125,-145.59243774414062,35.747833251953125
13261,105.14167785644531,-103.89254760742188,-125.7971420288086,60.1431999206543
13262,163.9815216064453,-11.958330154418945,-57.37567520141602,129.58192443847656
13263,190.63204956054688,21.59231185913086,-23.88113021850586,153.65565490722656
13264,85.37630462646484,-119.76468658447266,-137.42262268066406,32.41745376586914
13265,105.63908386230469,-82.60504150390625,-117.80684661865234,62.50868606567383
13266,157.13377380371094,-10.937337875366213,-55.4066162109375,127.23887634277344
13267,199.072998046875,26.005393981933594,-17.431673049926758,156.5634307861328
13268,88.09521484375,-110.6206283569336,-138.94476318359378,27.091835021972656
13269,107.31829833984376,-68.0418701171875,-113.3227081298828,53.72740173339844
13270,150.84326171875,-6.468156814575195,-59.05302047729492,113.83133697509766
13271,189.8915557861328,39.5662727355957,-12.221993446350098,148.27955627441406
13272,84.57596588134766,-99.4757308959961,-124.06744384765624,27.14419364929199
13273,105.1566390991211,-74.28376007080078,-110.80201721191406,52.35111999511719
13274,154.646728515625,-13.020462036132812,-54.22854995727539,116.84569549560548
13275,193.89324951171875,26.65987777709961,-8.16046142578125,159.41323852539062
13276,87.7361831665039,-117.17667388916016,-125.1632308959961,38.20681762695313
13277,103.09220886230469,-91.01981353759766,-111.0899887084961,62.35161209106445
13278,165.92626953125,-12.889565467834473,-46.3036994934082,135.23478698730472
13279,203.43746948242188,30.523193359375,-7.08711051940918,165.5391845703125
13280,93.1403350830078,-119.54402923583984,-126.57317352294922,38.85755920410156
13281,113.05156707763672,-95.12622833251952,-106.41511535644531,64.23651885986328
13282,166.57327270507812,-26.44296264648437,-50.365234375,121.49813079833984
13283,199.11415100097656,12.926963806152346,-12.285571098327635,162.7492218017578
13284,76.65486145019531,-115.52738189697266,-129.86802673339844,39.085693359375
13285,104.36751556396484,-78.75294494628906,-111.00022888183594,61.65972900390625
13286,153.0423126220703,3.7043709754943848,-59.34473419189453,123.80938720703124
13287,193.9268951416016,34.61464309692383,-20.042123794555664,155.52748107910156
13288,85.85127258300781,-101.24470520019531,-135.88552856445312,27.01329803466797
13289,110.98714447021484,-83.02017211914062,-110.32331085205078,51.98834991455078
13290,164.00022888183594,-6.610273361206055,-56.12093734741211,112.45879364013672
13291,193.9942169189453,37.45696640014648,-17.513952255249027,150.52349853515625
13292,78.90628051757812,-103.3764419555664,-140.01811218261722,21.95321273803711
13293,97.07845306396484,-67.85861206054689,-119.09711456298828,46.6328125
13294,157.26840209960938,4.97219705581665,-62.71812057495117,116.4717025756836
13295,204.41357421875,34.906356811523445,-15.30741024017334,155.86781311035156
13296,103.189453125,-110.36257934570312,-133.62287902832028,21.855976104736328
13297,116.75406646728516,-97.2056121826172,-122.78465270996094,47.47428894042969
13298,167.85606384277344,-4.3513736724853525,-64.84612274169922,116.37820434570312
13299,205.41587829589844,34.24813461303711,-8.194120407104492,161.26821899414062
13300,90.25313568115234,-108.57864379882812,-127.7288055419922,36.7744369506836
13301,103.52977752685548,-76.66233825683594,-106.66194915771484,66.88063049316406
13302,155.4246368408203,-22.063539505004886,-57.56827926635742,125.35022735595705
13303,198.49331665039062,34.93627548217773,-12.094836235046387,161.9040069580078
13304,86.42347717285156,-114.56996154785156,-132.5570068359375,37.5074577331543
13305,106.66755676269531,-79.99832916259766,-121.49813079833984,62.2094955444336
13306,159.46372985839844,-10.63066577911377,-63.95602798461914,119.22052764892578
13307,201.9976043701172,35.605716705322266,-21.822317123413086,159.27859497070312
13308,82.45918273925781,-100.36956787109376,-142.3218994140625,30.07253646850586
13309,110.62811279296876,-64.14863586425781,-123.14368438720705,50.0959587097168
13310,148.79379272460938,-7.133859157562256,-73.90042114257812,111.72203063964844
13311,200.1538391113281,44.495460510253906,-19.290403366088867,159.72738647460938
13312,88.16627502441406,-91.69673919677734,-138.42864990234378,29.90797996520996
13313,102.26195526123048,-67.23030853271484,-128.80589294433594,49.6957893371582
13314,152.0662078857422,-12.362238883972168,-71.87713623046875,115.76486206054688
13315,201.89288330078125,26.521499633789066,-26.88240051269531,160.61000061035156
13316,91.47234344482422,-114.2558135986328,-142.78564453125,32.71664428710937
13317,105.9644546508789,-77.73568725585938,-122.21993255615234,59.08293914794922
13318,155.7088623046875,-11.677837371826172,-66.25232696533203,121.50186920166016
13319,197.81265258789062,35.325225830078125,-11.646048545837402,163.11573791503906
13320,84.2206802368164,-89.82304382324219,-129.13874816894528,37.08484649658203
13321,96.41275024414062,-75.44313049316406,-122.19749450683594,56.68566513061523
13322,151.76327514648438,-11.647918701171875,-61.04638671875,123.03523254394531
13323,196.7617492675781,34.05739974975586,-12.74557876586914,167.0201873779297
13324,84.54230499267578,-97.62448120117188,-127.42587280273438,36.62858200073242
13325,103.5896224975586,-68.91700744628906,-106.34031677246094,52.60169219970703
13326,148.99200439453125,1.7110042572021484,-60.642478942871094,115.1664810180664
13327,196.1895446777344,55.63288116455078,-8.302577972412111,155.77804565429688
13328,89.86418914794922,-101.56259155273438,-128.55157470703122,26.78890419006348
13329,104.1356430053711,-68.35601806640625,-110.80575561523438,47.39949035644531
13330,161.79742431640625,-7.257276058197021,-61.977622985839844,110.3494873046875
13331,200.12391662597656,35.62815856933594,-10.812050819396973,154.7907257080078
13332,87.04430389404297,-111.45088958740234,-125.72795867919922,33.049495697021484
13333,96.85405731201172,-89.41539764404297,-124.3441925048828,49.03382873535156
13334,152.17465209960938,-10.17813777923584,-64.80872344970703,116.86065673828124
13335,199.31610107421875,35.53839874267578,-13.628195762634276,160.9578094482422
13336,94.46052551269531,-99.47199249267578,-125.51478576660156,36.4041862487793
13337,107.09016418457031,-81.75982666015625,-114.45589447021484,53.0056037902832
13338,157.9602813720703,-16.580846786499027,-57.39250564575195,117.76570892333984
13339,203.6394195556641,34.09853744506836,-11.68344783782959,163.87867736816406
13340,94.84947204589844,-102.37041473388672,-128.09156799316406,39.04081726074219
13341,106.06169128417969,-84.53108978271484,-123.37181854248048,56.38273239135742
13342,149.3959197998047,-19.583986282348636,-71.49566650390625,113.81637573242188
13343,198.89349365234372,28.16705703735352,-19.305362701416016,162.91378784179688
13344,83.94766235351562,-83.40911865234375,-135.39933776855472,34.638954162597656
13345,99.13166046142578,-83.62977600097656,-125.45868682861328,44.99473571777344
13346,150.4991912841797,-11.445963859558105,-69.05351257324219,107.15935516357422
13347,201.58995056152344,38.51910018920898,-16.997844696044922,152.3074188232422
13348,92.98326110839844,-97.2317886352539,-131.13211059570312,28.273643493652344
13349,97.74041748046876,-74.8896255493164,-126.53203582763672,38.47608947753906
13350,154.45973205566406,-31.192636489868164,-66.85819244384766,105.67835235595705
13351,211.1753234863281,30.033266067504886,-7.068410873413086,165.8907470703125
13352,91.7902374267578,-104.25531768798828,-127.02570343017578,35.861900329589844
13353,109.52484130859376,-76.0938720703125,-111.65471649169922,53.08414077758789
13354,147.5596160888672,-12.79980754852295,-64.22530364990234,111.16478729248048
13355,205.2999420166016,43.03689956665039,-9.56666374206543,171.15652465820312
13356,97.3103256225586,-111.5593490600586,-123.34190368652344,40.42457962036133
13357,103.10717010498048,-86.30754089355469,-119.23922729492188,54.542701721191406
13358,150.7048797607422,-24.73008918762207,-71.3236312866211,110.91047668457031
13359,208.60226440429688,36.33125686645508,-13.231765747070312,164.3087615966797
13360,91.1058349609375,-101.69348907470705,-132.91230773925778,33.857315063476555
13361,101.61121368408205,-84.59466552734375,-127.82978057861328,44.4038314819336
13362,149.9456787109375,-22.88631820678711,-77.47203063964844,101.66169738769531
13363,206.8706970214844,34.857738494873054,-22.005571365356445,157.71531677246094
13364,92.28390502929688,-92.2876434326172,-140.31730651855472,28.808448791503906
13365,100.60891723632812,-83.40538024902344,-134.32972717285156,48.11381149291992
13366,161.0644073486328,-26.514020919799805,-85.12760162353516,106.11965942382812
13367,218.1801605224609,38.623817443847656,-13.08965015411377,171.75865173339844
13368,97.24674987792969,-110.33639526367188,-127.78864288330078,44.65066528320313
13369,102.26569366455078,-71.16468811035156,-125.63446044921876,49.433998107910156
13370,148.554443359375,-9.650812149047852,-69.42375946044922,115.48811340332031
13371,201.5600433349609,40.00384140014648,-7.865009784698486,168.87144470214844
13372,88.24481201171875,-89.5612564086914,-120.45469665527344,38.89870071411133
13373,101.0876235961914,-74.5044174194336,-119.96476745605469,47.40323257446289
13374,145.15859985351562,-12.807287216186525,-65.38841247558594,110.09143829345705
13375,205.1241607666016,40.16839599609375,-7.565817832946777,169.03599548339844
13376,93.16278076171876,-88.30838775634766,-121.87960052490234,40.58539581298828
13377,96.22201538085938,-87.58284759521484,-113.61067962646484,52.42965698242188
13378,150.27479553222656,-16.902477264404293,-64.21034240722656,118.91011810302734
13379,201.39547729492188,44.876930236816406,-5.187241077423097,171.23880004882812
13380,89.20596313476562,-93.0730209350586,-118.9998779296875,38.681785583496094
13381,98.57067108154295,-64.05139923095703,-121.04186248779295,48.66731643676758
13382,139.46273803710938,-26.96654891967773,-74.74564361572266,101.6168212890625
13383,200.8943328857422,54.51465225219727,-14.783824920654295,160.5464324951172
13384,95.78070831298828,-101.68226623535156,-122.1301727294922,34.10788726806641
13385,107.98773956298828,-70.43914794921875,-120.36119842529295,45.36124801635742
13386,156.9093780517578,-12.395898818969727,-59.37839126586914,111.25454711914062
13387,203.8712921142578,56.56411743164063,3.829657554626465,169.5857696533203
13388,94.61012268066406,-85.66801452636719,-114.8485870361328,40.46945571899414
13389,101.0053482055664,-76.53144073486328,-105.63721466064452,55.387916564941406
13390,143.56167602539062,-23.17428970336914,-62.05989837646485,113.9023895263672
13391,203.1831512451172,47.49860000610352,1.8699499368667605,177.3722381591797
13392,91.01981353759766,-93.53302764892578,-117.42537689208984,47.47055053710938
13393,96.28185272216795,-85.08085632324219,-111.95016479492188,57.55706024169922
13394,142.9483184814453,-6.737429618835449,-64.91718292236328,113.81263732910156
13395,206.9155731201172,49.1030158996582,2.1055636405944824,166.0104217529297
13396,92.22406005859376,-92.68407440185548,-120.8660888671875,41.797122955322266
13397,96.96625518798828,-71.65835571289062,-121.77862548828124,55.63849258422852
13398,137.62271118164062,1.3070950508117676,-77.89089965820312,114.26142120361328
13399,198.2689208984375,40.12351608276367,-14.278938293457033,174.7842254638672
13400,87.36219024658203,-95.30947875976562,-130.58609008789062,47.62388610839844
13401,93.00944519042969,-72.43999481201172,-129.83810424804688,51.89111328125
13402,143.10540771484375,-14.389265060424805,-69.64815521240234,107.4585418701172
13403,207.48403930664062,59.17082595825195,0.5348057150840759,169.4025115966797
13404,95.24590301513672,-84.45629119873047,-121.84593963623048,36.16857147216797
13405,111.86227416992188,-71.08240509033203,-118.54734802246094,50.90377807617188
13406,148.9209442138672,-14.70341682434082,-73.49651336669922,110.14379119873048
13407,205.5355529785156,58.80805587768555,-7.236706256866455,172.3233642578125
13408,90.15963745117188,-89.14238739013672,-123.96646118164062,50.85515975952149
13409,92.91220092773438,-79.28775024414062,-119.9273681640625,59.18017578125
13410,139.10745239257812,-7.646225452423097,-69.78652954101561,112.5597686767578
13411,200.5465240478516,47.51729965209961,-11.664748191833494,170.59927368164062
13412,87.08170318603516,-94.34458923339844,-132.81880187988278,42.115013122558594
13413,91.53591918945312,-77.59357452392578,-124.32549285888672,50.84394073486328
13414,136.4296875,-6.595313549041747,-81.140869140625,107.22293090820312
13415,197.9996490478516,64.71710205078125,-15.707579612731935,157.5320587158203
13416,84.49369049072266,-83.7419662475586,-139.70396423339844,26.11572074890137
13417,90.45509338378906,-73.89107513427734,-132.41864013671878,35.712303161621094
13418,134.49989318847656,-8.816814422607422,-89.2115707397461,97.55155181884766
13419,203.79649353027344,63.53903198242188,-14.406094551086426,165.498046875
13420,97.1906509399414,-71.50127410888672,-130.88902282714844,39.49334335327149
13421,94.1388931274414,-78.52107238769531,-133.46954345703122,45.37994766235352
13422,145.03892517089844,-13.659984588623047,-74.0574951171875,106.94618225097656
13423,209.6382293701172,57.18494033813477,-5.924001693725586,169.88494873046875
13424,91.41998291015624,-86.65908813476562,-128.57402038574222,40.22262573242188
13425,102.2133331298828,-66.46363067626953,-120.85860443115234,50.82524108886719
13426,138.55393981933594,-10.140738487243652,-76.37249755859375,110.22981262207031
13427,204.4996032714844,46.64590072631836,-12.180853843688965,180.2743988037109
13428,96.56608581542969,-91.45738220214844,-125.62323760986328,56.719322204589844
13429,94.1762924194336,-85.65679931640625,-125.4437255859375,65.10044097900389
13430,133.06002807617188,-24.6365909576416,-77.21771240234375,118.9811782836914
13431,189.39414978027344,43.13039779663086,-15.18773365020752,183.02696228027344
13432,82.0515365600586,-98.7389678955078,-123.58499145507812,54.662376403808594
13433,87.86708068847656,-86.04200744628906,-129.4342041015625,51.06085586547852
13434,129.73899841308594,-20.62367820739746,-80.22085571289062,101.317626953125
13435,196.76548767089844,37.28493118286133,-14.578129768371582,160.00039672851562
13436,89.5612564086914,-89.3443374633789,-121.5504913330078,33.24023056030273
13437,92.63919067382812,-77.84788513183594,-125.06599426269531,37.77299118041992
13438,145.21470642089844,-18.529335021972656,-76.1817626953125,91.67242431640624
13439,208.1833953857422,52.43152618408203,-7.038491725921631,158.13792419433594
13440,89.07880401611328,-92.98326110839844,-131.21812438964844,21.2688102722168
13441,98.86612701416016,-75.7535400390625,-133.57052612304688,32.380054473876946
13442,139.72079467773438,-33.56747055053711,-83.92335510253906,86.0775375366211
13443,210.1019744873047,43.08551788330078,-10.453020095825195,159.74234008789062
13444,97.99846649169922,-88.17375183105469,-121.25877380371094,34.377159118652344
13445,104.3563003540039,-71.16094970703125,-120.6080322265625,47.38079071044922
13446,135.12071228027344,-33.122425079345696,-74.46141052246094,106.31787872314452
13447,202.5548553466797,39.05016708374024,-7.195567607879639,173.33314514160156
13448,92.45967864990234,-99.84971618652344,-117.75823211669922,50.41385269165039
13449,87.42577362060547,-86.13176727294922,-125.70925903320312,54.08643341064453
13450,126.1150360107422,-27.07500648498535,-81.6046142578125,106.5385284423828
13451,191.59320068359372,48.94594192504883,-14.709026336669922,179.159912109375
13452,78.89879608154297,-91.77153778076172,-127.3099365234375,46.40467834472656
13453,86.30754089355469,-90.7842025756836,-130.01388549804688,48.77577590942383
13454,127.27814483642578,-42.2851791381836,-92.83553314208984,89.79499816894531
13455,203.9498291015625,39.42041397094727,-18.119815826416016,161.5749053955078
13456,98.89230346679688,-85.73907470703125,-126.67041015625,32.16313934326172
13457,92.49707794189452,-79.63555908203125,-132.62806701660156,31.0748291015625
13458,142.6566162109375,-13.570226669311525,-76.92974090576172,89.63418579101562
13459,212.9891662597656,74.9083251953125,-7.363862991333008,152.75994873046875
13460,104.62557220458984,-82.12259674072266,-120.29014587402344,34.79228973388672
13461,96.76055908203124,-81.92437744140625,-119.87501525878906,41.95793914794922
13462,140.55853271484378,-19.11275863647461,-70.52703094482422,100.5359878540039
13463,208.3180389404297,62.54047775268555,-3.874536275863648,176.93092346191406
13464,98.10692596435548,-81.47559356689453,-118.18831634521484,51.04215621948242
13465,99.84784698486328,-80.6584243774414,-121.34292602539062,48.459754943847656
13466,139.38607788085938,-12.487525939941404,-79.20921325683594,102.87529754638672
13467,204.77447509765625,55.10742568969727,-9.755529403686523,171.7305908203125
13468,92.41666412353516,-76.72779083251953,-118.60905456542969,42.71152877807617
13469,90.05305480957031,-76.73900604248047,-129.49591064453122,43.49690628051758
13470,135.99772644042972,-23.58006858825684,-80.02825164794922,93.74993896484376
13471,201.56190490722656,64.27017974853516,-8.480222702026367,164.83047485351562
13472,88.2429428100586,-76.09200286865234,-120.46405029296876,33.43657684326172
13473,88.7927017211914,-73.46285247802734,-130.64031982421878,37.26623153686523
13474,134.10159301757812,-14.263978004455565,-85.2267074584961,93.38343048095705
13475,201.8910217285156,56.57720565795898,-14.557560920715332,158.1734619140625
13476,102.55927276611328,-79.01660919189453,-125.00054931640624,31.39833068847656
13477,104.1636962890625,-87.32666015625,-131.22000122070312,26.663616180419922
13478,151.1256103515625,-25.73425102233887,-87.33601379394531,84.34783172607422
13479,217.51258850097656,58.24146270751953,-8.001516342163086,162.09288024902344
13480,105.8354263305664,-84.92565155029297,-123.80004119873048,42.12436294555664
13481,102.18154907226562,-91.51535034179688,-128.4898681640625,45.46035385131836
13482,139.6927490234375,-27.73883819580078,-79.99085235595703,106.65259552001952
13483,208.3049468994141,59.43822860717773,-3.334120750427246,179.97708129882812
13484,98.91661071777344,-90.64769744873048,-119.40939331054688,54.58945083618164
13485,92.23715209960938,-78.72489166259766,-124.03565216064452,55.94329452514648
