,T7,F8,Cz,P4
2000,-60.666786193847656,-130.81422424316406,21.278160095214844,137.25059509277344
2001,-73.75643920898438,-132.22416687011722,14.63235855102539,128.60394287109378
2002,-78.63327026367188,-114.11930847167969,15.14472484588623,141.342041015625
2003,-62.951866149902344,-119.7852554321289,21.128564834594727,146.3460235595703
2004,-58.2657699584961,-124.93135833740234,19.490488052368164,138.5894775390625
2005,-70.05393981933594,-131.77163696289062,14.426664352416992,136.70082092285156
2006,-82.75089263916016,-121.11292266845705,10.675544738769533,134.97299194335938
2007,-62.7312126159668,-130.64591979980472,23.11445236206055,140.20137023925778
2008,-71.25070190429688,-144.10208129882812,8.872912406921387,133.50694274902344
2009,-74.53807830810547,-127.4931869506836,4.493489742279053,134.79721069335938
2010,-76.49591064453125,-134.83274841308594,4.042831897735597,131.48179626464844
2011,-66.19248962402344,-137.68254089355472,7.247926235198975,133.62849426269528
2012,-59.28115463256836,-137.97052001953122,6.526125431060791,130.32991027832028
2013,-63.47358322143555,-145.89537048339844,3.949334383010864,130.66648864746094
2014,-65.78484344482422,-120.46778869628906,11.836783409118652,134.63827514648438
2015,-59.1913948059082,-129.047119140625,15.453266143798828,130.89836120605472
2016,-60.18246841430664,-133.90898132324222,20.700345993041992,120.99510955810548
2017,-63.67179489135742,-131.90066528320312,17.528911590576172,124.26378631591795
2018,-67.07884216308594,-116.97097778320312,18.42648696899414,134.07728576660156
2019,-63.54090118408203,-122.36017608642578,29.694805145263672,132.82815551757812
2020,-59.27741241455078,-122.40131378173828,26.590688705444336,134.60087585449222
2021,-67.96146392822266,-122.37139892578124,23.333236694335934,132.30082702636722
2022,-62.5834846496582,-101.59625244140624,26.76646423339844,145.1137237548828
2023,-67.83430480957031,-118.4258041381836,19.72797203063965,132.20359802246094
2024,-58.34243774414063,-135.57698059082028,16.062870025634766,132.34196472167972
2025,-69.91742706298828,-130.80113220214844,5.688387870788574,133.52377319335938
2026,-71.48445129394531,-118.71003723144531,2.445894479751587,138.00791931152344
2027,-49.10488510131836,-134.57469177246094,7.7939515113830575,140.15461730957028
2028,-73.30577850341797,-134.03240966796878,9.259992599487305,135.18055725097656
2029,-64.03830718994139,-137.33099365234378,3.795998573303223,136.078125
2030,-62.44884872436523,-125.66250610351562,6.978653430938722,139.1822509765625
2031,-70.53825378417969,-119.98908233642578,7.483539581298827,136.60919189453122
2032,-62.67698287963867,-128.53474426269528,11.58994960784912,135.43861389160156
2033,-67.35559844970703,-137.27864074707028,10.662454605102539,135.55079650878906
2034,-59.1577377319336,-113.42181396484376,12.70818042755127,139.57119750976562
2035,-84.26742553710938,-131.61268615722656,10.254805564880373,128.86012268066406
2036,-65.17149353027344,-130.48698425292972,22.5889949798584,131.923095703125
2037,-71.57046508789062,-123.58686065673828,14.589349746704102,132.57383728027344
2038,-61.92526245117188,-111.80243682861328,21.11921501159668,136.89717102050778
2039,-77.7300796508789,-107.3893585205078,22.267364501953125,132.73466491699222
2040,-73.58627319335938,-129.52581787109378,21.257591247558594,132.85433959960938
2041,-71.43956756591797,-127.9214096069336,20.29269790649414,136.52317810058594
2042,-82.2665786743164,-120.68843841552734,17.323217391967773,136.94952392578122
2043,-80.01142120361328,-121.9824447631836,20.99205780029297,142.21530151367188
2044,-67.89040374755861,-137.56660461425778,19.780330657958984,135.47601318359378
2045,-67.80438995361328,-150.72357177734375,9.368449211120604,132.31205749511722
2046,-78.68749237060547,-137.09164428710938,6.746779441833496,132.87303161621094
2047,-60.84817123413086,-143.7150115966797,11.2944974899292,140.60340881347656
2048,-67.46779632568361,-160.49220275878906,1.252866506576538,128.54597473144528
2049,-59.86457824707031,-141.24667358398438,8.972020149230957,130.94325256347656
2050,-64.67783355712889,-118.05929565429688,9.843416213989258,145.9178009033203
2051,-53.0654411315918,-117.93213653564452,22.60395622253418,150.76097106933594
2052,-61.46151733398438,-137.02432250976562,18.03753662109375,134.66818237304688
2053,-71.56672668457031,-128.93865966796878,9.559184074401855,129.46224975585938
2054,-63.55585861206055,-133.19467163085938,9.364709854125977,136.07064819335938
2055,-70.5008544921875,-124.21891021728516,13.385102272033693,128.95361328125
2056,-72.150146484375,-135.70039367675778,13.863809585571287,126.07389831542969
2057,-71.97063446044922,-139.39167785644528,5.965140342712402,127.73815155029295
2058,-69.09465026855469,-116.2005615234375,13.673073768615724,136.92709350585938
2059,-71.10298156738281,-125.31843566894531,15.397168159484865,129.82875061035156
2060,-65.55296325683594,-116.5221939086914,18.53494453430176,137.77230834960938
2061,-72.44186401367188,-127.97750854492188,8.773805618286133,134.73924255371094
2062,-78.44065856933594,-122.1806640625,12.251912117004395,139.43281555175778
2063,-67.38925933837889,-114.56248474121094,25.87636756896973,142.79873657226562
2064,-68.60098266601561,-126.55634307861328,21.0331974029541,142.97824096679688
2065,-68.05121612548828,-134.44378662109378,22.08036994934082,136.36236572265622
2066,-72.66251373291016,-118.62027740478516,14.892281532287598,142.80995178222656
2067,-61.89160537719727,-126.40674591064452,18.003877639770508,146.43765258789062
2068,-74.52872467041016,-130.38226318359378,20.947179794311523,134.5223388671875
2069,-71.69762420654297,-127.93262481689452,17.102561950683597,142.68280029296875
2070,-81.17826843261719,-121.50747680664062,14.551950454711914,142.69027709960938
2071,-71.91827392578125,-127.33798217773438,20.296436309814453,139.76193237304688
2072,-64.63668823242189,-129.78761291503906,23.284616470336914,137.2337646484375
2073,-64.12432098388672,-129.19297790527344,20.535791397094727,138.09767150878906
2074,-77.4495849609375,-126.69097900390624,13.336483001708984,137.81344604492188
2075,-69.89498901367189,-123.54572296142578,23.29583740234375,145.98138427734375
2076,-65.72874450683594,-139.90779113769528,15.845955848693848,136.06690979003906
2077,-69.36018371582031,-135.40869140625,9.993012428283693,135.68917846679688
2078,-75.68435668945312,-125.82332611083984,6.690680980682372,141.56829833984375
2079,-76.563232421875,-127.47635650634766,8.373636245727539,139.54501342773438
2080,-67.407958984375,-134.89631652832028,14.136821746826172,138.78581237792972
2081,-82.59194946289062,-140.24063110351562,7.01605224609375,135.58071899414062
2082,-77.50194549560547,-116.499755859375,7.7079339027404785,142.0544891357422
2083,-72.41567993164062,-123.35872650146484,11.986379623413086,140.34161376953122
2084,-62.89015579223633,-140.03120422363278,19.29414367675781,135.99958801269528
2085,-71.79859924316406,-132.52896118164062,2.827364444732666,130.98065185546878
2086,-70.5232925415039,-126.48902893066406,10.404401779174805,135.30023193359378
2087,-64.06448364257811,-128.97232055664062,16.489219665527347,144.305908203125
2088,-60.2423095703125,-125.08282470703124,11.522631645202635,133.46768188476562
2089,-69.66685485839844,-125.98413848876952,12.883955001831055,134.6046142578125
2090,-68.55984497070311,-117.4459457397461,10.666194915771484,144.21615600585938
2091,-65.41458892822266,-125.7597427368164,19.5372371673584,142.42848205566406
2092,-73.05520629882812,-136.28009033203122,11.978899955749512,131.73985290527344
2093,-81.29420471191406,-135.70039367675778,2.804924964904785,130.06437683105472
2094,-70.87110137939453,-123.35498809814452,5.826764106750487,142.68653869628906
2095,-62.47502899169922,-129.12939453125,9.865856170654297,144.31712341308594
2096,-63.95228958129883,-143.37841796875,11.021485328674316,136.171630859375
2097,-75.718017578125,-136.38479614257812,6.537344932556152,134.83648681640622
2098,-69.54718017578125,-129.19671630859378,13.501038551330565,144.84071350097656
2099,-74.77555847167969,-132.84686279296878,15.32985019683838,138.9241943359375
2100,-68.64960479736328,-137.92938232421878,18.01883888244629,132.34196472167972
2101,-73.14496612548828,-137.9967041015625,15.468226432800293,137.85084533691406
2102,-77.84601593017578,-136.47830200195312,16.65377426147461,148.202880859375
2103,-75.9237060546875,-122.37887573242188,10.497899055480957,136.87472534179688
2104,-60.74345397949219,-133.13856506347656,24.02137756347656,130.41592407226562
2105,-75.83020782470703,-139.71331787109378,18.897714614868164,128.04483032226562
2106,-63.32772445678711,-117.4646453857422,18.516244888305664,139.06257629394528
2107,-70.81126403808594,-119.90679931640624,20.053342819213867,133.96882629394528
2108,-64.08318328857422,-131.01805114746094,21.227672576904297,129.92973327636722
2109,-74.49506378173828,-124.61907958984376,13.931127548217773,128.73670959472656
2110,-71.14785766601562,-121.8852081298828,16.784671783447266,140.82406616210938
2111,-73.63863372802734,-121.0175552368164,17.510211944580078,140.09478759765622
2112,-70.04458618164061,-136.44837951660156,13.51973819732666,128.72174072265622
2113,-81.81779479980469,-137.94807434082028,5.247079849243164,133.01515197753906
2114,-78.71741485595703,-123.0894546508789,8.23151969909668,131.90814208984378
2115,-79.02408599853516,-119.6786651611328,15.266271591186525,136.50447082519528
2116,-64.78254699707031,-132.33074951171878,9.555444717407227,131.13772583007812
2117,-85.40435791015625,-139.92274475097656,4.805771350860597,122.39383697509766
2118,-73.17861938476562,-120.2546157836914,14.570650100708008,133.07499694824222
2119,-74.74189758300781,-134.09971618652344,14.398614883422852,129.53330993652344
2120,-67.067626953125,-122.00114440917969,20.08700180053711,129.37248229980472
2121,-72.98040771484375,-120.6772232055664,18.7855167388916,129.01719665527344
2122,-80.08621978759766,-120.38925170898438,12.652081489562988,128.98727416992188
2123,-77.39723205566406,-120.10128021240234,21.915813446044922,127.67083740234376
2124,-67.50519561767578,-132.37188720703122,27.11427497863769,129.12191772460938
2125,-76.41363525390625,-121.00259399414062,21.803617477416992,133.93516540527344
2126,-73.78448486328125,-107.7857894897461,26.50093078613281,137.73490905761722
2127,-76.3238754272461,-115.8415298461914,26.29523658752441,133.93890380859378
2128,-64.38985443115234,-135.77145385742188,28.056730270385746,132.14375305175778
2129,-75.95736694335938,-125.9579620361328,15.610342025756836,127.19586944580078
2130,-76.37249755859375,-117.28887176513672,15.692620277404785,133.16848754882812
2131,-66.29346466064453,-123.0034408569336,17.341917037963867,136.87472534179688
2132,-80.70703887939453,-137.49554443359378,11.49271297454834,131.82212829589844
2133,-71.85469818115234,-127.24822235107422,11.530111312866213,139.38046264648438
2134,-88.58326721191406,-124.54801940917969,-0.2094343900680542,132.24473571777344
2135,-77.28129577636719,-120.4341278076172,13.759092330932615,134.98234558105472
2136,-75.037353515625,-131.65756225585938,9.832197189331056,130.92828369140622
2137,-76.67169189453125,-142.3200225830078,1.4735206365585327,127.67831420898438
2138,-83.01081848144531,-120.0376968383789,5.699607372283936,133.81175231933594
2139,-74.06124114990234,-123.13433837890624,14.039584159851074,133.87907409667972
2140,-68.43643188476561,-127.77928924560548,11.765725135803224,126.38430786132812
2141,-92.33812713623048,-118.68011474609376,6.627102851867676,130.23640441894528
2142,-77.69641876220703,-120.72958374023438,11.406694412231445,137.17765808105472
2143,-76.36502075195312,-120.86421966552734,13.07843017578125,136.52317810058594
2144,-76.59689331054688,-126.96399688720705,14.933420181274414,135.3974609375
2145,-85.00044250488281,-129.16679382324222,8.209080696105957,129.5108642578125
2146,-83.85603332519531,-119.76842498779295,8.60176944732666,140.22941589355472
2147,-78.96424865722656,-118.43701934814452,13.515998840332033,133.12361145019528
2148,-71.59290313720703,-128.68809509277344,17.484031677246097,136.83732604980472
2149,-78.3284683227539,-125.32592010498048,10.89806842803955,133.47142028808594
2150,-79.02034759521484,-113.47417449951172,13.815190315246582,145.0651092529297
2151,-77.41218566894531,-116.50723266601562,12.835336685180664,139.23460388183594
2152,-74.3155517578125,-126.49650573730469,22.31224250793457,133.95013427734378
2153,-77.99935150146484,-129.62680053710938,6.686941146850586,133.0675048828125
2154,-84.33848571777344,-120.00029754638672,-2.4346749782562256,136.11178588867188
2155,-83.08561706542969,-128.33279418945312,4.199907779693604,127.83164978027344
2156,-73.19731903076172,-135.21047973632812,10.853189468383787,134.27175903320312
2157,-73.80692291259766,-139.60111999511722,12.106056213378904,133.69955444335938
2158,-76.75396728515625,-124.94070434570312,8.616729736328125,133.99501037597656
2159,-68.30927276611328,-126.74707794189452,15.019437789916992,134.95989990234378
2160,-59.84587860107422,-139.61981201171878,16.46303939819336,132.58880615234378
2161,-67.55381011962889,-138.625,8.111843109130861,128.16450500488278
2162,-78.36212158203125,-122.76408386230469,9.914474487304688,136.06317138671878
2163,-71.43956756591797,-122.1395263671875,12.300531387329102,135.64056396484378
2164,-76.35379791259766,-133.86036682128906,8.238999366760254,124.29744720458984
2165,-71.61160278320312,-131.51919555664062,12.274352073669435,133.38166809082028
2166,-69.28912353515625,-122.24797821044922,6.585963726043701,137.03929138183594
2167,-70.34751892089844,-140.05738830566406,7.240446090698242,132.85807800292972
2168,-71.15907287597656,-145.35682678222656,11.511411666870115,130.84226989746094
2169,-76.34257507324219,-146.02999877929688,-0.05983839929103851,124.2712631225586
2170,-74.17717742919922,-130.33364868164062,5.445294380187988,137.04676818847656
2171,-63.94107055664063,-132.96279907226562,14.177960395812988,140.78292846679688
2172,-71.15533447265625,-139.51509094238278,6.556044578552246,128.97979736328122
2173,-60.76589584350586,-126.14495849609376,20.707826614379886,139.66468811035156
2174,-74.19587707519531,-117.53944396972656,16.549057006835938,138.27719116210938
2175,-69.77157592773439,-120.0189971923828,18.082416534423828,135.68544006347656
2176,-71.02069854736328,-132.60749816894528,17.278337478637695,131.57154846191406
2177,-73.79570770263672,-131.35838317871094,17.11378288269043,133.53126525878906
2178,-67.38925933837889,-118.27620697021484,16.190027236938473,142.68653869628906
2179,-59.98051452636719,-128.52726745605472,17.5999698638916,137.97425842285156
2180,-67.067626953125,-138.78207397460938,14.09194278717041,136.0369873046875
2181,-79.05026245117188,-134.43630981445312,4.932928085327148,129.53704833984378
2182,-82.25910186767578,-123.0894546508789,4.738453388214111,140.8764190673828
2183,-69.49855804443361,-129.56697082519528,13.19810676574707,140.86146545410156
2184,-69.44245910644531,-136.77375793457028,7.906148433685303,133.04507446289062
2185,-74.53246307373047,-130.572998046875,8.126802444458008,133.52751159667972
2186,-72.22869110107422,-119.9142837524414,6.361569881439209,138.77833557128906
2187,-70.3998794555664,-129.1705322265625,1.783932328224182,133.20588684082028
2188,-69.99596405029297,-143.77110290527344,3.661362171173096,127.93262481689452
2189,-67.80064392089844,-133.10116577148438,3.190134763717652,134.15208435058594
2190,-78.03301239013672,-126.1150360107422,5.336837291717528,136.17910766601562
2191,-69.04603576660156,-129.79884338378906,6.447587490081787,132.62246704101562
2192,-70.93468475341797,-132.4803466796875,13.474859237670898,129.6754150390625
2193,-74.19961547851562,-134.69436645507812,9.31235122680664,133.20962524414062
2194,-82.87618255615234,-114.54378509521484,5.2882184982299805,132.83563232421878
2195,-78.28358459472656,-129.03590393066406,10.931727409362793,137.12530517578122
2196,-69.09465026855469,-135.76771545410156,12.008818626403807,129.52957153320312
2197,-68.56732940673828,-132.19612121582028,8.556891441345215,123.89727783203124
2198,-79.9964599609375,-118.05929565429688,13.919907569885256,136.84480285644528
2199,-67.77072906494139,-132.47660827636722,12.308011054992676,134.82525634765622
2200,-79.14002227783203,-129.69038391113278,5.703347206115723,130.80113220214844
2201,-76.6455078125,-133.47142028808594,-2.599230527877808,127.10237121582031
2202,-83.68025970458984,-127.79051208496094,1.522139310836792,128.09718322753906
2203,-75.41508483886719,-127.23326873779295,9.52926540374756,136.67277526855472
2204,-73.68724822998047,-139.35801696777344,7.180607795715332,128.79653930664062
2205,-77.54682922363281,-135.04591369628906,4.054051399230957,133.99874877929688
2206,-82.31893920898438,-124.98558807373048,1.791412115097046,131.75106811523438
2207,-71.05062103271484,-133.81922912597656,11.548810958862305,135.92478942871094
2208,-64.73018646240234,-136.60171508789062,8.41103458404541,124.84346771240234
2209,-76.78014373779297,-140.8352813720703,1.682955026626587,121.66455841064452
2210,-77.33739471435547,-132.68603515625,3.713720560073853,129.2640380859375
2211,-74.39595794677734,-131.39578247070312,13.04664134979248,129.09573364257812
2212,-65.48751831054689,-131.21626281738278,15.832866668701172,132.12506103515622
2213,-78.17325592041016,-133.94638061523438,12.844686508178713,132.32327270507812
2214,-82.64991760253906,-129.53330993652344,7.466710090637207,132.62620544433594
2215,-77.40657806396484,-123.93467712402344,8.697136878967285,131.71366882324222
2216,-66.04850006103516,-141.48976135253906,6.56913423538208,127.2183074951172
2217,-79.49718475341797,-133.87533569335938,1.247256636619568,127.4801025390625
2218,-81.15769958496094,-123.08197784423828,5.828634262084961,138.43052673339844
2219,-70.46158599853516,-136.09309387207028,6.299861431121826,136.17910766601562
2220,-66.74412536621094,-135.23664855957028,3.2555828094482417,136.46708679199222
2221,-81.4344482421875,-134.35403442382812,-6.389618873596191,124.4881820678711
2222,-85.38004302978516,-118.32108306884766,4.994636535644531,143.20263671875
2223,-83.04261016845703,-130.13168334960938,3.0835475921630864,134.88510131835938
2224,-79.35881042480469,-128.04856872558594,6.542954921722412,127.25196838378906
2225,-75.47679138183594,-138.42304992675778,-2.3019084930419917,130.77494812011722
2226,-85.13695526123047,-123.25401306152344,-0.948064625263214,134.38395690917972
2227,-76.62493896484375,-127.62969207763672,8.465263366699219,129.85493469238278
2228,-85.60443878173828,-137.29359436035156,7.103940010070801,122.5396957397461
2229,-79.68791961669922,-128.09718322753906,11.195390701293944,122.37887573242188
2230,-75.1065444946289,-113.9341812133789,15.84782600402832,133.10116577148438
2231,-85.33890533447266,-116.15193939208984,15.42147731781006,132.19236755371094
2232,-78.88384246826172,-135.43861389160156,16.857599258422848,131.21626281738278
2233,-80.61540985107422,-126.159912109375,2.380446434020996,130.3673095703125
2234,-79.99832916259766,-132.03903198242188,5.6865177154541025,136.63163757324222
2235,-77.44771575927734,-132.70848083496094,7.492889404296875,139.00273132324222
2236,-82.80699157714844,-147.5596160888672,1.9802770614624023,125.25859832763672
2237,-79.68791961669922,-135.73405456542972,6.527995586395264,135.07209777832028
2238,-89.3218994140625,-125.89437866210938,-1.48287034034729,134.26054382324222
2239,-75.96672058105469,-131.92683410644528,6.77108907699585,132.16246032714844
2240,-72.65316772460938,-137.11033630371094,8.356806755065918,131.5416259765625
2241,-99.1391372680664,-139.27200317382812,-1.8157213926315308,128.94987487792972
2242,-83.50261688232422,-129.88485717773438,7.290935039520264,135.71162414550778
2243,-86.99942016601562,-131.08909606933594,0.4244786500930786,127.6670913696289
2244,-84.43759155273438,-141.28407287597656,2.3093881607055664,121.34292602539062
2245,-80.87346649169922,-134.99356079101562,-0.8059484362602234,123.98329162597656
2246,-100.14891052246094,-128.68809509277344,-1.7633628845214844,124.20021057128906
2247,-81.46810913085938,-127.37164306640624,4.841300487518311,125.73356628417969
2248,-75.41695404052734,-136.12675476074222,11.34498691558838,122.18440246582031
2249,-79.64303588867188,-134.64949035644528,8.177290916442871,116.8625259399414
2250,-77.2981185913086,-128.531005859375,12.52305507659912,123.78507995605469
2251,-88.05033111572266,-131.15641784667972,9.183324813842773,128.63198852539062
2252,-69.17505645751953,-134.6046142578125,8.397945404052733,132.24099731445312
2253,-75.43565368652344,-132.944091796875,4.246656417846681,131.01431274414062
2254,-88.87311553955078,-138.42678833007812,-4.714143753051758,134.36151123046878
2255,-78.50611114501953,-141.8562774658203,2.458984136581421,139.9451904296875
2256,-64.26457214355469,-143.965576171875,4.313974380493163,134.06607055664062
2257,-81.12030029296875,-152.791748046875,-5.93709135055542,127.00513458251952
2258,-75.49922943115234,-136.11178588867188,-6.236283302307129,133.66215515136722
2259,-69.20871734619139,-146.3740692138672,-2.7955751419067383,131.08161926269528
2260,-77.68333435058594,-148.00840759277344,-3.8277876377105713,124.16281127929688
2261,-75.75728607177734,-146.20204162597656,-2.803055047988892,121.55609893798828
2262,-73.88733673095703,-124.0281753540039,6.165225028991699,135.74528503417972
2263,-77.50381469726562,-138.04905700683594,9.08234691619873,137.86579895019528
2264,-76.52396392822266,-141.1157684326172,10.802700996398926,128.67312622070312
2265,-86.81243133544922,-142.8660430908203,2.5524816513061523,124.54053497314452
2266,-75.25988006591797,-115.1608657836914,13.573966979980467,137.33847045898438
2267,-85.09955596923828,-126.24593353271484,11.980769157409668,122.10586547851562
2268,-78.07975769042969,-139.11119079589844,13.779661178588867,120.2546157836914
2269,-88.95165252685547,-129.53330993652344,4.3513736724853525,121.5224380493164
2270,-83.36798095703125,-116.9859390258789,4.250396251678467,125.9766616821289
2271,-86.01583099365234,-128.5010986328125,5.90343189239502,121.97122955322266
2272,-69.08530426025389,-140.49868774414062,8.857953071594238,127.46514129638672
2273,-87.7735824584961,-128.51979064941406,3.5398154258728027,129.40988159179688
2274,-86.46461486816406,-122.23301696777344,5.432204723358153,138.13507080078122
2275,-84.4637680053711,-131.81089782714844,2.8853328227996826,132.91790771484378
2276,-73.81627655029297,-130.98439025878906,12.683870315551758,131.94180297851562
2277,-75.12149810791016,-134.91128540039062,5.918391704559326,127.58855438232422
2278,-86.46087646484375,-127.1210708618164,4.145678997039795,128.22059631347656
2279,-75.02426147460938,-134.57095336914062,7.717283725738525,131.49674987792972
2280,-69.98287963867189,-150.34210205078125,9.340399742126463,123.88231658935548
2281,-92.93838500976562,-150.3271484375,-5.4135050773620605,122.21057891845705
2282,-83.5362777709961,-130.71511840820312,1.3968526124954224,129.727783203125
2283,-74.48197937011719,-138.95785522460938,6.483116626739503,128.08596801757812
2284,-68.000732421875,-140.63333129882812,17.878591537475586,134.35403442382812
2285,-66.77030181884766,-127.57733917236328,8.210949897766112,135.33015441894528
2286,-77.26820373535156,-116.06592559814452,7.380692481994629,143.61402893066406
2287,-70.6111831665039,-125.72234344482422,2.0288956165313716,132.85807800292972
2288,-84.14962005615234,-131.46682739257812,8.985109329223633,127.94758605957031
2289,-85.55582427978516,-133.83418273925778,0.8807464241981506,122.31156158447266
2290,-84.73303985595703,-123.1679916381836,3.842747211456299,133.09368896484378
2291,-80.79492950439453,-130.3673095703125,3.4650173187255864,128.26173400878906
2292,-80.49947357177734,-142.4022979736328,-1.7297037839889526,128.29165649414062
2293,-84.94995880126953,-134.91876220703122,-0.4880569577217102,125.24738311767578
2294,-79.80011749267578,-118.47815704345705,7.504109382629394,141.69920349121094
2295,-80.19280242919922,-130.96194458007812,6.591573715209961,134.55224609375
2296,-92.09690856933594,-138.47540283203122,1.1537591218948364,129.94468688964844
2297,-85.46232604980469,-133.90150451660156,0.18886494636535645,123.10067749023438
2298,-67.31632995605469,-119.1924819946289,10.28659439086914,140.04615783691406
2299,-90.99363708496094,-129.83624267578122,4.9198384284973145,125.84950256347656
2300,-84.7629623413086,-139.5225830078125,4.426171779632568,121.29056549072266
2301,-90.38029479980469,-136.20155334472656,1.5726279020309448,123.22409057617188
2302,-90.33167266845705,-129.54826354980472,2.129873037338257,134.91128540039062
2303,-88.1999282836914,-121.6047134399414,8.805594444274902,131.44813537597656
2304,-73.55448150634766,-134.7691650390625,10.731642723083496,130.99934387207028
2305,-89.80060577392578,-132.71595764160156,6.086687088012695,126.25341033935548
2306,-78.47245025634766,-123.1455535888672,6.539215087890625,136.16415405273438
2307,-79.78141784667969,-125.95047760009766,9.7742280960083,137.85832214355472
2308,-83.85791015625,-147.1145782470703,11.157991409301758,128.18319702148438
2309,-77.12234497070312,-136.72886657714844,0.1589457541704178,130.93202209472656
2310,-85.38752746582031,-126.78447723388672,3.0087494850158687,136.81489562988278
2311,-81.34095764160156,-133.65467834472656,5.192851066589356,132.81694030761722
2312,-74.26132202148438,-137.02432250976562,4.796421527862549,131.44439697265622
2313,-78.02740478515625,-139.904052734375,-1.3706732988357544,127.70075225830078
2314,-84.97613525390625,-128.04109191894528,3.4014389514923096,129.98957824707028
2315,-74.29498291015625,-130.94325256347656,9.411458015441896,131.96798706054688
2316,-73.89481353759766,-139.96388244628906,5.622939586639403,126.3169937133789
2317,-83.33432006835938,-131.52293395996094,4.934797763824463,132.697265625
2318,-91.57331848144531,-127.51001739501952,-2.1223931312561035,134.31289672851562
2319,-85.37256622314453,-126.99017333984376,-0.8807464241981506,132.66734313964844
2320,-91.61820220947266,-136.05943298339844,-0.31228163838386536,121.87399291992188
2321,-90.99363708496094,-133.00767517089844,1.4866101741790771,119.6337890625
2322,-88.517822265625,-112.90570831298828,3.3453404903411865,134.81404113769528
2323,-84.703125,-126.9602508544922,3.7417697906494136,133.54248046875
2324,-81.68876647949219,-127.37164306640624,1.7745825052261353,126.3992691040039
2325,-79.21669006347656,-125.28477478027344,5.245209693908691,131.31723022460938
2326,-84.92003631591797,-113.8332061767578,2.5524816513061523,136.88595581054688
2327,-84.8265380859375,-130.11672973632812,6.696290969848633,134.71307373046878
2328,-81.58030700683594,-148.78257751464844,12.743709564208984,135.11697387695312
2329,-78.88758087158203,-128.026123046875,4.631865978240967,130.28501892089844
2330,-82.00291442871094,-127.76433563232422,-0.0317891500890255,134.18948364257812
2331,-94.5839385986328,-130.14291381835938,-0.18886494636535645,129.58192443847656
2332,-84.2206802368164,-142.5257110595703,5.58180046081543,123.0445785522461
2333,-84.52735137939453,-135.7078857421875,-2.2570295333862305,124.1104507446289
2334,-87.33601379394531,-126.49276733398438,8.727056503295897,138.97654724121094
2335,-84.30669403076172,-124.64525604248048,1.9241784811019895,128.74418640136722
2336,-84.14962005615234,-137.07293701171878,-0.7722893357276917,119.51785278320312
2337,-84.61336517333984,-134.66444396972656,-4.093320369720459,124.22638702392578
2338,-83.1136703491211,-125.13143920898438,0.3795998394489288,128.02238464355472
2339,-86.99942016601562,-125.39323425292969,7.840700149536133,135.21795654296878
2340,-89.53507232666016,-134.69062805175778,-0.4431781470775604,122.9623031616211
2341,-77.40283966064453,-132.439208984375,4.631865978240967,125.00054931640624
2342,-90.53736877441406,-115.62835693359376,3.442577838897705,129.892333984375
2343,-83.64472961425781,-126.06641387939452,6.692551136016847,139.15606689453122
2344,-83.82051086425781,-126.67601776123048,8.263308525085451,125.64755249023438
2345,-82.64991760253906,-128.35897827148438,3.8090879917144775,129.552001953125
2346,-90.57102966308594,-123.91597747802734,2.5038630962371826,141.19056701660156
2347,-90.39151000976562,-118.35474395751952,9.059907913208008,140.03120422363278
2348,-71.32550048828125,-131.70993041992188,10.634405136108398,126.76203918457031
2349,-87.12657928466797,-130.29624938964844,3.958684206008911,133.80427551269528
2350,-87.47064971923828,-113.1301040649414,8.483963012695312,139.15980529785156
2351,-84.56848907470703,-116.39129638671876,14.950249671936035,134.96363830566406
2352,-90.3017578125,-129.61932373046878,9.471296310424805,122.93238067626952
2353,-86.96576690673828,-126.32820892333984,-0.5030165314674377,120.57624816894531
2354,-92.7102508544922,-120.314453125,5.155452251434326,126.9602508544922
2355,-81.4157485961914,-121.8852081298828,11.700277328491213,126.00283813476562
2356,-92.86732482910156,-131.10406494140622,6.3073410987854,117.25147247314452
2357,-84.65076446533203,-128.29165649414062,5.0619544982910165,126.63114166259766
2358,-94.17255401611328,-126.63488006591795,2.133612871170044,132.79823303222656
2359,-79.27278900146484,-127.1584701538086,0.4581377506256104,124.56298065185548
2360,-85.98590850830078,-141.66554260253906,2.245810031890869,118.66515350341795
2361,-85.806396484375,-142.66409301757812,-5.899692058563232,126.45162963867188
2362,-87.93439483642578,-122.47611236572266,-3.954944133758545,130.62908935546878
2363,-85.30899047851562,-134.77664184570312,-3.928764820098877,128.17572021484378
2364,-73.15057373046875,-128.21685791015622,4.75902271270752,121.5373992919922
2365,-86.98446655273438,-139.14859008789062,-3.3789997100830083,123.84117889404295
2366,-91.8912124633789,-126.6984634399414,-6.531735420227051,127.10984802246094
2367,-93.4769287109375,-137.192626953125,-3.547295093536377,128.201904296875
2368,-83.73075103759766,-145.1959991455078,-1.9391381740570068,118.65393829345705
2369,-89.77069091796875,-131.30227661132812,-8.323147773742676,113.2497787475586
2370,-99.27751159667969,-120.34811401367188,-2.462724208831787,122.61823272705078
2371,-85.43988800048828,-132.86555480957028,4.931057929992676,119.81330871582031
2372,-86.66657257080078,-128.22059631347656,6.479376792907715,118.77361297607422
2373,-88.34952545166016,-141.10455322265625,1.430511713027954,119.32337951660156
2374,-89.22466278076172,-127.27440643310548,7.029141902923584,128.56092834472656
2375,-83.75318908691406,-132.23725891113278,8.498922348022461,127.2220458984375
2376,-84.83028411865234,-147.34271240234375,6.408318519592285,118.7287368774414
2377,-82.78829193115234,-145.5288543701172,1.2584763765335083,123.77759552001952
2378,-101.60747528076172,-129.64176940917972,-5.151712417602539,127.69327545166016
2379,-86.94332122802734,-130.52812194824222,0.8470873236656189,131.56781005859378
2380,-83.1174087524414,-148.214111328125,3.21070408821106,129.66046142578122
2381,-95.10752868652344,-136.97944641113278,-7.728503227233888,126.64610290527344
2382,-93.82473754882812,-138.46792602539062,0.9256252646446228,135.14689636230472
2383,-90.53363037109376,-130.3560791015625,-1.838160872459412,125.93177795410156
2384,-81.31851196289062,-137.69377136230472,3.7006309032440186,130.65901184082028
2385,-92.95708465576172,-144.63128662109375,-7.4218316078186035,119.5739517211914
2386,-93.06554412841795,-121.79544830322266,-3.2331435680389404,126.22349548339844
2387,-90.1858139038086,-130.60665893554688,2.466464042663574,123.4297866821289
2388,-88.02041625976562,-139.17477416992188,-2.2046709060668945,118.99427032470705
2389,-97.25422668457031,-134.469970703125,-9.79666805267334,117.57684326171876
2390,-82.35072326660156,-118.41458129882812,1.168718695640564,124.08052825927734
2391,-88.82449340820312,-131.48553466796878,-5.29382848739624,116.24543762207031
2392,-80.6490707397461,-142.41351318359375,-1.8830395936965945,114.5737075805664
2393,-87.04430389404297,-132.50653076171878,-7.691104412078857,118.26872253417969
2394,-86.45339965820312,-127.72693634033205,-2.339307308197021,121.6421127319336
2395,-88.71977996826172,-137.35343933105472,-0.046748749911785126,126.97521209716795
2396,-83.40538024902344,-136.35862731933594,-0.6638322472572327,124.5891571044922
2397,-93.45075225830078,-140.09104919433594,-8.050134658813478,119.18125915527344
2398,-91.64437866210938,-130.58047485351562,-1.3557137250900269,129.58566284179688
2399,-82.0515365600586,-144.57144165039062,5.099353790283203,130.01200866699222
2400,-96.65584564208984,-142.83987426757812,-6.815967559814452,120.47900390625
2401,-90.12972259521484,-141.32894897460938,-6.079207420349121,117.53570556640624
2402,-89.47897338867188,-137.2225341796875,-5.6865177154541025,126.78821563720705
2403,-90.8702163696289,-133.55743408203122,-0.9892035126686096,123.55694580078124
2404,-90.45509338378906,-144.27598571777344,-2.975090503692627,119.88436126708984
2405,-88.36448669433594,-142.8361358642578,0.1365063488483429,121.44763946533205
2406,-89.99134063720703,-127.26692199707031,-2.7394766807556152,129.28646850585938
2407,-96.14347839355469,-131.23495483398438,1.0752211809158323,123.0857162475586
2408,-88.12512969970703,-143.35971069335938,-2.948911190032959,115.47502136230469
2409,-83.37919616699219,-138.21734619140622,-3.4313580989837646,122.8837661743164
2410,-92.80748748779295,-122.46863555908205,-0.7648095488548279,126.54886627197266
2411,-97.64691925048828,-135.01974487304688,2.163532018661499,130.34486389160156
2412,-84.25994873046875,-147.4960479736328,0.7124509215354919,119.03914642333984
2413,-96.70632934570312,-136.78497314453122,-6.954343795776367,118.20514678955078
2414,-95.87981414794922,-129.222900390625,-12.508095741271973,126.46658325195312
2415,-83.55310821533203,-137.67132568359378,-3.607133388519287,131.16015625
2416,-89.05449676513672,-146.69944763183594,-4.003562927246094,120.91283416748048
2417,-94.56336975097656,-141.8488006591797,-4.837560653686523,126.54886627197266
2418,-100.92494201660156,-131.79220581054688,-4.478530406951903,132.0577392578125
2419,-92.3792724609375,-134.72428894042972,5.177891254425049,126.66854095458984
2420,-86.51510620117188,-143.64768981933594,0.4469180405139923,115.30298614501952
2421,-87.37154388427734,-138.83818054199222,-3.034928798675537,116.71292877197266
2422,-89.03579711914062,-131.42568969726562,-1.9391381740570068,118.13408660888672
2423,-91.26103973388672,-132.65237426757812,5.0843939781188965,122.18440246582031
2424,-73.1487045288086,-141.64309692382812,10.95229721069336,119.6337890625
2425,-90.81224822998048,-143.14654541015625,3.1882646083831787,112.99172973632812
2426,-96.01071166992188,-140.77169799804688,-8.655998229980469,113.94914245605469
2427,-96.85592651367188,-127.79798889160156,2.765655994415283,122.37513732910156
2428,-73.48529052734375,-136.32122802734378,6.453197479248048,122.9211654663086
2429,-92.53634643554688,-146.87896728515625,-0.9966833591461182,115.90511322021484
2430,-89.05823516845703,-123.63174438476562,-0.6488726139068604,123.91223907470705
2431,-92.23715209960938,-136.30625915527344,-4.934797763824463,126.5189437866211
2432,-86.39543151855469,-151.6398468017578,2.866633415222168,122.77156829833984
2433,-98.80067443847656,-149.79981994628906,-6.9356446266174325,117.89099884033205
2434,-83.7064437866211,-120.58372497558594,-0.5852943658828735,127.5025405883789
2435,-102.05438995361328,-135.50218200683594,-2.2084109783172607,126.56756591796876
2436,-92.27081298828124,-144.4255828857422,-1.617506742477417,118.870849609375
2437,-89.43970489501953,-137.08042907714844,-2.466464042663574,120.30323028564452
2438,-86.17103576660156,-130.87593078613278,0.35716044902801514,129.47346496582028
2439,-91.35079956054688,-128.28044128417972,-2.077514410018921,121.89269256591795
2440,-92.39422607421876,-142.49954223632812,-1.6623855829238892,115.22818756103516
2441,-81.04737091064453,-144.55648803710938,2.9077723026275635,122.03854370117188
2442,-101.12315368652344,-136.62789916992188,-2.9115121364593506,122.83514404296876
2443,-82.99211883544922,-138.37068176269528,3.165825366973877,124.51809692382812
2444,-80.17223358154297,-132.91043090820312,5.884732723236084,118.19766998291016
2445,-87.61837768554688,-142.39108276367188,3.8577067852020255,126.54886627197266
2446,-88.59822845458984,-120.64356231689452,2.51882266998291,127.81668853759766
2447,-72.16136932373047,-134.1820068359375,6.647672176361084,127.97377014160156
2448,-94.11083984375,-137.97799682617188,2.930211544036865,123.78134155273438
2449,-85.16873931884766,-128.366455078125,3.521115779876709,125.76722717285156
2450,-96.11917114257812,-118.09294891357422,-0.5441554188728333,131.42942810058594
2451,-88.47481536865234,-123.0483169555664,6.501816272735597,129.387451171875
2452,-90.86834716796876,-135.31892395019528,1.8493804931640625,118.530517578125
2453,-93.74059295654295,-140.03868103027344,-2.574921131134033,128.16824340820312
2454,-91.48917388916016,-128.46743774414062,-5.088133811950684,127.5623779296875
2455,-80.32183074951172,-129.00971984863278,6.112866401672362,136.57179260253906
2456,-83.80741882324219,-134.73176574707028,4.882439613342285,127.1584701538086
2457,-80.58362579345703,-134.78411865234378,4.328934192657472,124.07678985595705
2458,-84.40206146240234,-118.8072738647461,3.3378608226776123,127.51375579833984
2459,-86.739501953125,-130.62908935546878,9.407718658447266,128.87507629394528
2460,-83.84481811523438,-137.19636535644528,4.063401222229004,120.8567352294922
2461,-85.43427276611328,-137.67506408691406,-3.573474407196045,119.83574676513672
2462,-85.52029418945312,-121.3990249633789,-0.734890341758728,128.89004516601562
2463,-68.11106109619139,-121.47382354736328,11.711496353149414,129.62306213378906
2464,-85.90550231933594,-143.9207000732422,2.672158479690552,118.7511749267578
2465,-85.1724853515625,-127.19213104248048,1.830681085586548,130.37478637695312
2466,-90.34476470947266,-119.06906127929688,1.9727972745895384,129.79884338378906
2467,-90.64021301269531,-127.1996078491211,6.374659538269043,131.38829040527344
2468,-82.74528503417969,-122.31156158447266,13.645025253295898,132.40180969238278
2469,-88.65058898925781,-120.17981719970705,8.06883430480957,131.7996826171875
2470,-94.79150390625,-119.07654571533205,7.485409736633301,132.35693359375
2471,-80.31060791015625,-128.26547241210938,12.448257446289062,133.83418273925778
2472,-73.30951690673828,-147.7017364501953,7.361992835998535,120.314453125
2473,-89.99320983886719,-131.70993041992188,2.70955753326416,125.64755249023438
2474,-80.79679870605469,-123.0894546508789,3.79412841796875,132.16619873046878
2475,-85.20240020751953,-118.68011474609376,7.8257408142089835,128.86012268066406
2476,-78.77351379394531,-138.06401062011722,7.429311275482178,124.5106201171875
2477,-87.74179077148438,-128.78158569335938,3.3603000640869136,129.07704162597656
2478,-82.46105194091797,-118.9718246459961,2.6609387397766118,131.23495483398438
2479,-91.2797393798828,-121.5,7.511589050292969,130.88714599609378
2480,-75.16825103759766,-134.01370239257812,8.71209716796875,127.54741668701172
2481,-86.904052734375,-136.84855651855472,3.364039897918701,121.62715911865234
2482,-81.95243072509766,-119.55525207519531,6.400838851928711,133.27694702148438
2483,-75.55719757080078,-117.61798095703124,16.63320541381836,132.66360473632812
2484,-86.62356567382812,-134.96737670898438,9.804147720336914,124.71631622314452
2485,-91.317138671875,-133.13482666015622,4.422431468963623,129.69412231445312
2486,-87.01625061035156,-126.75456237792969,10.275375366210938,133.87158203125
2487,-69.26668548583984,-118.88581085205078,20.395544052124023,135.09078979492188
2488,-78.29106903076172,-135.26657104492188,11.042054176330566,134.17451477050778
2489,-87.46504211425781,-125.2959976196289,9.41519832611084,126.0140609741211
2490,-80.00768280029297,-121.66829681396484,12.440776824951172,136.94578552246094
2491,-74.1734390258789,-128.04483032226562,12.029388427734375,134.73550415039062
2492,-79.45043182373047,-133.19093322753906,5.406025409698486,127.39781951904295
2493,-87.49495697021484,-138.79704284667972,-3.5585148334503174,125.9355239868164
2494,-80.15727233886719,-122.47237396240234,0.6301731467247009,132.697265625
2495,-76.1181869506836,-133.54248046875,7.429311275482178,136.48577880859378
2496,-73.24594116210938,-133.63970947265622,9.35909938812256,131.14520263671878
2497,-86.28323364257812,-129.43606567382812,1.5688880681991575,128.56840515136722
2498,-77.70390319824219,-113.73596954345705,9.10478687286377,141.8375701904297
2499,-71.17777252197266,-121.758056640625,13.532828330993652,134.70558166503906
2500,-89.70149993896484,-131.47431945800778,8.682177543640138,125.49047088623048
2501,-89.69776153564453,-123.29888916015624,11.31132698059082,130.26258850097656
2502,-91.42933654785156,-112.03805541992188,15.069927215576172,132.30082702636722
2503,-73.73212432861328,-110.38501739501952,18.690149307250977,142.42474365234375
2504,-83.3249740600586,-116.51470947265624,20.507741928100586,134.87388610839844
2505,-90.29988098144531,-123.2652359008789,17.605579376220703,134.94119262695312
2506,-80.62476348876953,-112.81594848632812,18.521854400634766,144.97161865234375
2507,-83.94953155517578,-124.18151092529295,16.027341842651367,137.09164428710938
2508,-69.37140655517578,-131.29853820800778,12.541754722595215,132.57009887695312
2509,-90.34102630615234,-123.13433837890624,1.722223877906799,133.33677673339844
2510,-82.53958892822266,-119.1102066040039,11.404825210571287,138.22483825683594
2511,-70.68785095214844,-127.2257843017578,15.384078025817873,140.13592529296878
2512,-72.93927001953125,-137.46937561035156,16.255475997924805,131.70245361328122
2513,-78.71741485595703,-134.54476928710938,3.8464870452880864,131.04048156738278
2514,-84.62271881103516,-122.42375183105469,6.045548439025879,137.81718444824222
2515,-75.4412612915039,-123.6691436767578,8.207210540771483,136.29878234863278
2516,-77.73381805419922,-139.77688598632812,12.893304824829102,118.60905456542969
2517,-88.14569854736328,-122.7079849243164,3.3191611766815186,118.60531616210938
2518,-86.13363647460938,-112.25870513916016,8.786894798278809,128.01490783691406
2519,-85.80826568603516,-135.93226623535156,11.13181209564209,121.31674194335938
2520,-78.73237609863281,-140.68942260742188,13.484209060668945,120.62486267089844
2521,-69.50604248046875,-130.85722351074222,16.715482711791992,128.58711242675778
2522,-76.1181869506836,-103.27920532226562,24.53187370300293,148.47215270996094
2523,-60.283447265625,-101.51771545410156,36.57061004638672,159.62454223632812
2524,-69.95856475830078,-120.13867950439452,27.06378555297852,143.65890502929688
2525,-79.48035430908203,-128.49360656738278,12.79980754852295,145.2707977294922
2526,-90.5130615234375,-126.61244201660156,9.41519832611084,139.54127502441406
2527,-76.25656127929688,-130.82731628417972,15.369118690490724,136.26138305664062
2528,-79.48409271240234,-146.90887451171875,6.943124294281006,125.995361328125
2529,-70.037109375,-131.077880859375,5.454644203186035,135.34884643554688
2530,-87.27430725097656,-123.99825286865234,4.3663330078125,132.72343444824222
2531,-71.37225341796875,-128.76663208007812,13.140138626098633,142.29757690429688
2532,-62.12347793579102,-138.38565063476562,13.603885650634766,134.41014099121094
2533,-88.6468505859375,-136.06690979003906,4.856260299682617,127.1360321044922
2534,-79.45043182373047,-123.20539093017578,15.911404609680176,134.65696716308594
2535,-70.01840972900389,-127.01634979248048,20.548879623413086,130.97691345214844
2536,-83.17911529541016,-143.82720947265625,12.781107902526855,122.70050811767578
2537,-87.62211608886719,-127.1210708618164,12.384678840637207,118.13783264160156
2538,-84.86206817626953,-114.10995483398438,18.656490325927734,130.35234069824222
2539,-73.0664291381836,-117.44969177246094,29.30772590637207,138.37068176269528
2540,-85.01166534423828,-128.190673828125,30.69522857666016,133.86410522460938
2541,-81.18949127197266,-127.79425048828124,18.847225189208984,127.51001739501952
2542,-89.0881576538086,-117.0420379638672,19.35959243774414,136.82984924316406
2543,-71.84347534179688,-120.32192993164062,26.222309112548828,140.04241943359378
2544,-73.45911407470703,-135.10575866699222,17.06329345703125,129.02093505859378
2545,-75.99476623535156,-128.71426391601562,10.99717617034912,139.33932495117188
2546,-77.52812957763672,-120.0115203857422,10.260415077209473,144.728515625
2547,-72.84577178955078,-125.0940399169922,17.029634475708008,134.54103088378906
2548,-71.02818298339844,-138.31459045410156,10.79896068572998,129.57070922851562
2549,-74.72319793701172,-129.38371276855472,7.971596717834473,134.61209106445312
2550,-81.35778045654297,-125.38201904296876,10.862539291381836,138.026611328125
2551,-64.96580505371094,-124.1665496826172,14.101292610168455,135.88739013671878
2552,-77.87220001220703,-137.17765808105472,9.658291816711426,127.2033462524414
2553,-67.74080657958984,-127.15098571777344,11.689057350158693,129.0882568359375
2554,-89.37239074707031,-122.76034545898438,9.056167602539062,137.0579833984375
2555,-75.07101440429688,-123.62800598144531,19.785940170288086,133.90898132324222
2556,-76.55575561523438,-135.98463439941406,22.99103546142578,131.47431945800778
2557,-76.25656127929688,-126.61618041992188,23.192989349365234,130.02323913574222
2558,-74.67084503173828,-115.21696472167969,19.976675033569336,142.80247497558594
2559,-72.69991302490234,-122.95855712890624,20.178630828857425,136.94204711914062
2560,-70.16426086425781,-133.77435302734378,17.04085350036621,132.37562561035156
2561,-80.98379516601562,-131.91935729980472,11.969550132751465,131.99041748046878
2562,-69.71921539306639,-119.97785949707031,13.461770057678224,136.48204040527344
2563,-89.65288543701172,-131.40325927734378,14.51268196105957,131.2947998046875
2564,-75.90875244140625,-137.21879577636722,15.481315612792967,128.14205932617188
2565,-88.4112319946289,-133.65467834472656,8.267048835754395,130.76747131347656
2566,-86.20843505859375,-121.78797149658205,11.00091552734375,141.2504119873047
2567,-68.80294036865234,-128.45246887207028,17.893550872802734,140.65576171875
2568,-83.35115051269531,-141.9385528564453,12.253782272338867,128.97605895996094
2569,-94.90370178222656,-133.72573852539062,5.147972106933594,129.24159240722656
2570,-83.27635192871094,-115.69193267822266,13.626325607299805,137.70872497558594
2571,-83.59798431396484,-130.79739379882812,12.01068878173828,133.97630310058594
2572,-78.9754638671875,-134.39517211914062,9.460077285766602,127.8241729736328
2573,-86.4627456665039,-124.8285140991211,7.979076385498048,128.53474426269528
2574,-83.1304931640625,-121.59723663330078,10.073420524597168,138.35946655273438
2575,-75.07475280761719,-121.84033203125,18.42087745666504,143.44573974609375
2576,-86.77315521240234,-134.07728576660156,13.577706336975098,129.57818603515622
2577,-83.94205474853516,-130.6552734375,9.194543838500977,134.6868896484375
2578,-80.04508209228516,-132.6561279296875,4.085840702056885,138.69606018066406
2579,-79.6785659790039,-131.68000793457028,8.547541618347168,134.59712219238278
2580,-71.80982208251953,-129.80632019042972,13.959177017211914,133.54248046875
2581,-73.55635070800781,-135.70039367675778,8.633559226989746,127.07244873046876
2582,-73.9752197265625,-124.53679656982422,11.647918701171875,132.56636047363278
2583,-73.64984893798828,-128.72547912597656,17.549480438232422,131.43316650390622
2584,-74.56612396240234,-140.99609375,10.335213661193848,121.95626831054688
2585,-91.54527282714844,-126.19357299804688,8.506402015686035,129.37997436523438
2586,-95.1542739868164,-119.18500518798828,7.8593997955322275,131.35462951660156
2587,-83.58676147460938,-120.99885559082031,14.710896492004395,131.04421997070312
2588,-83.3287124633789,-123.58312225341795,15.294321060180664,132.19612121582028
2589,-95.73021697998048,-129.49217224121094,8.798114776611328,130.52064514160156
2590,-85.97281646728516,-113.19367980957031,14.52390193939209,141.96847534179688
2591,-84.96678924560547,-127.97002410888672,12.64273166656494,132.3980712890625
2592,-82.47601318359375,-134.892578125,12.033127784729006,131.51545715332028
2593,-81.72803497314453,-133.23954772949222,9.336660385131836,129.54452514648438
2594,-82.89862060546875,-134.16329956054688,4.62812614440918,135.06462097167972
2595,-68.02503967285156,-125.76722717285156,12.75118923187256,133.25823974609378
2596,-79.00538635253906,-134.11842346191406,7.459230422973633,121.29804229736328
2597,-83.47830963134766,-142.45840454101562,-0.9779838323593141,125.64755249023438
2598,-76.95966339111328,-134.12590026855472,5.967010498046875,131.96049499511722
2599,-74.356689453125,-129.41363525390622,8.82055377960205,129.6455078125
2600,-80.30313110351562,-139.85542297363278,4.9759368896484375,127.9251480102539
2601,-82.06836700439453,-128.59458923339844,14.067633628845215,134.96363830566406
2602,-86.56746673583984,-127.38660430908205,10.574566841125488,132.11383056640622
2603,-75.4375228881836,-131.09658813476562,19.9130973815918,129.78013610839844
2604,-79.1736831665039,-131.1190185546875,14.983909606933596,124.75745391845705
2605,-92.59618377685548,-120.9764175415039,18.592912673950195,124.03565216064452
2606,-84.08042907714844,-103.88880920410156,21.943862915039066,133.30313110351562
2607,-88.20179748535156,-126.8181381225586,18.15908432006836,131.82586669921878
2608,-91.5976333618164,-129.43606567382812,12.567934036254885,126.85179901123048
2609,-94.24547576904295,-132.99644470214844,2.724517107009888,124.87712860107422
2610,-84.86955261230469,-119.60387420654295,8.439084053039549,135.56202697753906
2611,-80.56492614746094,-127.2220458984375,14.546340942382812,135.43861389160156
2612,-77.326171875,-135.99211120605472,4.852519989013672,126.8817138671875
2613,-84.6021499633789,-138.93167114257812,-0.2505733072757721,122.01610565185548
2614,-79.53458404541016,-129.6754150390625,2.3785762786865234,134.38395690917972
2615,-81.22501373291016,-132.52522277832028,5.766925811767577,136.47456359863278
2616,-73.56944274902344,-138.19865417480472,1.7053943872451782,128.99476623535156
2617,-81.3521728515625,-134.28297424316406,5.1012234687805185,127.4838409423828
2618,-84.0822982788086,-119.9516830444336,1.2678260803222656,131.582763671875
2619,-75.68622589111328,-117.41229248046876,11.619869232177734,131.73985290527344
2620,-71.7929916381836,-126.43292999267578,10.370742797851562,129.35379028320312
2621,-78.23310089111328,-123.53450775146484,4.768372535705566,124.77989196777344
2622,-88.64498138427734,-128.44873046875,6.133435726165772,128.22433471679688
2623,-80.20028686523438,-122.2218017578125,15.210172653198242,130.62535095214844
2624,-80.92208862304688,-125.71112823486328,18.003877639770508,130.54307556152344
2625,-84.48995208740234,-119.77964782714844,11.907841682434082,133.4190673828125
2626,-74.8036117553711,-114.26703643798828,15.169034004211426,134.15956115722656
2627,-91.75283813476562,-118.27620697021484,17.824363708496094,135.94349670410156
2628,-81.25493621826172,-133.08247375488278,15.124155044555664,127.23700714111328
2629,-86.15794372558594,-129.33134460449222,5.74074649810791,128.23556518554688
2630,-82.7733383178711,-126.53390502929688,8.575590133666992,135.93601989746094
2631,-79.8449935913086,-131.12649536132812,13.762831687927244,134.06231689453122
2632,-73.42732238769531,-132.34945678710938,15.670181274414062,124.90705108642578
2633,-90.07362365722656,-133.08247375488278,6.260592460632324,129.75770568847656
2634,-71.392822265625,-111.37609100341795,15.281230926513672,138.49037170410156
2635,-83.7419662475586,-122.05724334716795,17.517690658569336,133.66215515136722
2636,-75.21873474121094,-133.25823974609378,20.20668029785156,126.63488006591795
2637,-89.32563781738281,-127.5436782836914,10.344563484191896,125.03046417236328
2638,-86.8909683227539,-112.84213256835938,16.20124626159668,134.0062255859375
2639,-76.34444427490234,-118.30612182617188,20.509611129760746,129.3463134765625
2640,-80.61915588378906,-124.4320831298828,19.813989639282227,126.70220184326172
2641,-91.1058349609375,-119.66371154785156,11.571250915527346,123.19417572021484
2642,-93.93693542480469,-116.73536682128906,13.848849296569824,129.78387451171878
2643,-77.5187759399414,-120.62486267089844,25.96612548828125,137.27116394042972
2644,-67.94089508056639,-135.22169494628906,23.60624885559082,130.51315307617188
2645,-96.1023406982422,-128.50483703613278,12.322970390319824,131.44813537597656
2646,-85.15565490722656,-117.05699920654295,4.274705886840819,144.96786499023438
2647,-82.9603271484375,-128.18693542480472,12.81289768218994,134.18574523925778
2648,-77.64593505859375,-122.10586547851562,10.228626251220703,131.04421997070312
2649,-82.89301300048828,-130.98812866210938,7.43118143081665,129.94468688964844
2650,-84.08604431152344,-112.0492706298828,9.480646133422852,141.0334930419922
2651,-83.02391052246094,-126.67976379394531,9.1814546585083,130.70014953613278
2652,-81.69998168945312,-126.500244140625,8.92340087890625,128.62451171875
2653,-84.47499084472656,-128.26173400878906,4.914228439331055,132.38685607910156
2654,-79.1231918334961,-113.32457733154295,12.016298294067385,134.65322875976562
2655,-80.30126190185547,-123.28018951416016,10.748472213745117,132.16619873046878
2656,-74.17156219482422,-130.14291381835938,8.635429382324219,128.24678039550778
2657,-93.25253295898438,-125.7971420288086,1.4323816299438477,127.63717651367188
2658,-85.79891204833984,-113.8481674194336,7.94354772567749,136.28009033203122
2659,-73.12439727783203,-115.95372772216795,12.405247688293455,130.38973999023438
2660,-83.341796875,-142.39108276367188,4.671134948730469,123.95711517333984
2661,-73.13935089111328,-129.72030639648438,8.037045478820799,123.16425323486328
2662,-79.34758758544922,-120.17607879638672,13.549657821655273,130.22145080566406
2663,-75.94427490234375,-125.6176300048828,19.21186637878418,132.98896789550778
2664,-78.34529113769531,-142.58929443359375,9.64894199371338,124.39842224121094
2665,-78.74920654296875,-121.74309539794922,17.323217391967773,135.34884643554688
2666,-76.10135650634766,-122.86506652832031,17.573789596557614,137.10285949707028
2667,-73.12439727783203,-121.67951202392578,18.276891708374023,138.60630798339844
2668,-62.97804641723633,-126.34690856933594,22.600215911865234,141.95726013183594
2669,-88.22611236572266,-123.13807678222656,1.3089649677276611,129.06581115722656
2670,-85.7652587890625,-115.4376220703125,8.788764953613281,139.47769165039062
2671,-78.1957015991211,-125.57275390625,16.051651000976562,140.18827819824222
2672,-71.40403747558594,-131.59773254394528,21.822317123413086,136.91586303710938
2673,-75.56280517578125,-124.29744720458984,12.061177253723145,132.09513854980472
2674,-88.23358917236328,-123.81499481201172,9.297390937805176,133.86036682128906
2675,-82.84439086914062,-114.52508544921876,21.208972930908203,131.56781005859378
2676,-79.022216796875,-117.89099884033205,18.074935913085934,125.60266876220705
2677,-73.53578186035156,-123.39238739013672,14.73520565032959,131.60894775390622
2678,-78.73050689697266,-107.48285675048828,19.44373893737793,135.24412536621094
2679,-75.62265014648438,-122.10212707519531,10.082770347595217,136.64285278320312
2680,-87.94935607910156,-137.12156677246094,13.512258529663086,133.36669921875
2681,-78.41261291503906,-134.44378662109378,3.7212004661560063,133.67710876464844
2682,-77.39161682128906,-120.02648162841795,5.6958675384521475,138.32206726074222
2683,-74.63531494140625,-125.9766616821289,6.541085243225098,141.09707641601562
2684,-67.55194091796875,-136.49699401855472,8.829903602600098,133.23580932617188
2685,-86.2477035522461,-131.50048828125,-1.316444754600525,127.67083740234376
2686,-76.91291046142578,-118.4931182861328,1.335144281387329,136.27259826660156
2687,-64.38798522949219,-119.83948516845705,9.368449211120604,140.7941436767578
2688,-73.93968963623047,-127.94384765625,-0.9312350749969482,128.86759948730472
2689,-73.81253814697266,-128.59085083007812,5.650989055633545,132.67481994628906
2690,-83.54749298095703,-115.98365020751952,0.6657021641731262,137.94059753417972
2691,-72.41754913330078,-118.0667724609375,9.428287506103516,137.10285949707028
2692,-81.27363586425781,-128.50483703613278,5.5874104499816895,126.19357299804688
2693,-81.83836364746094,-119.30094146728516,6.0474181175231925,128.91621398925778
2694,-69.17131805419922,-111.43218994140624,17.79818344116211,137.72367858886722
2695,-77.30186462402344,-116.77276611328124,22.77972984313965,136.20155334472656
2696,-73.02715301513672,-127.49505615234376,19.978546142578125,131.43692016601562
2697,-84.25433349609375,-117.93213653564452,21.14165496826172,136.72886657714844
2698,-76.08639526367188,-108.2495346069336,26.7028865814209,143.0829620361328
2699,-69.99409484863281,-115.44509887695312,21.42962646484375,141.0110626220703
2700,-63.46797180175781,-116.11454010009766,17.75704574584961,128.38140869140622
2701,-81.09412384033203,-117.59928131103516,17.577529907226562,136.96823120117188
2702,-77.25324249267578,-108.47766876220705,20.16554069519043,138.38191223144528
2703,-75.90313720703125,-108.7357177734375,23.30331611633301,133.2021484375
2704,-78.69310760498047,-132.55140686035156,12.734359741210938,122.63318634033205
2705,-71.74063110351562,-122.1395263671875,13.946086883544922,132.84686279296878
2706,-81.48307037353516,-118.48190307617188,8.945840835571289,126.23845672607422
2707,-66.35517120361328,-116.27536010742188,11.631089210510256,131.81089782714844
2708,-74.1640853881836,-129.20419311523438,5.306918144226074,126.98643493652344
2709,-79.07831573486328,-121.87399291992188,7.71915340423584,127.62969207763672
2710,-73.87985229492188,-111.27136993408205,15.24757194519043,136.94204711914062
2711,-73.96587371826172,-114.18849182128906,20.464733123779297,134.40638732910156
2712,-68.41586303710939,-126.78447723388672,16.694913864135742,126.16365814208984
2713,-68.95066833496094,-115.12721252441406,16.44059944152832,130.8721923828125
2714,-80.15166473388672,-113.80702209472656,17.71216583251953,136.71391296386722
2715,-68.78984832763672,-115.5984344482422,24.43276596069336,138.06401062011722
2716,-78.98481750488281,-126.04397583007812,15.898314476013185,122.67058563232422
2717,-84.17953491210938,-117.15423583984376,12.622162818908693,124.35728454589844
2718,-77.12234497070312,-117.8274154663086,20.52831077575684,137.43197631835938
2719,-73.18797302246094,-121.70569610595705,19.09218978881836,130.75251770019528
2720,-74.69889068603516,-132.49903869628906,20.72278594970703,127.8428726196289
2721,-70.60369873046875,-126.24593353271484,12.38654899597168,126.75456237792969
2722,-88.31961059570312,-114.43158721923828,7.1880879402160645,135.71910095214844
2723,-70.61492156982422,-121.69821166992188,19.9299259185791,133.7481689453125
2724,-76.4342041015625,-146.48626708984375,13.310303688049315,119.25979614257812
2725,-65.98118591308594,-127.18464660644531,14.48463249206543,130.58421325683594
2726,-80.65655517578125,-106.29356384277344,9.087956428527832,134.61209106445312
2727,-72.08096313476562,-120.22469329833984,18.677061080932614,140.244384765625
2728,-73.56196594238281,-128.56092834472656,12.278091430664062,131.53788757324222
2729,-66.48981475830078,-121.9001693725586,11.36181640625,133.23954772949222
2730,-76.27339172363281,-115.30298614501952,11.758245468139648,134.02117919921878
2731,-68.00820922851561,-124.60411834716795,16.118968963623047,137.89945983886722
2732,-78.95115661621094,-128.10466003417972,8.377375602722168,131.68748474121094
2733,-88.30838775634766,-121.7206573486328,11.062623977661133,130.67398071289062
2734,-77.25324249267578,-116.9597625732422,12.225732803344727,137.25993347167972
2735,-62.93316650390625,-116.76154327392578,29.39935302734375,138.64370727539062
2736,-78.22187805175781,-128.48239135742188,17.356876373291016,124.04312896728516
2737,-84.07482147216797,-126.0364990234375,12.57728385925293,130.397216796875
2738,-84.24685668945312,-116.17063903808594,6.432628154754639,128.33279418945312
2739,-70.47654724121094,-118.01441192626952,10.823270797729492,135.64804077148438
2740,-67.18543243408203,-122.48733520507812,9.9443941116333,129.23411560058594
2741,-76.8343734741211,-115.58721923828124,12.453866958618164,134.61956787109378
2742,-62.92194747924805,-112.67383575439452,16.126447677612305,141.69920349121094
2743,-83.5774154663086,-127.80547332763672,13.77031135559082,136.77749633789062
2744,-76.3332290649414,-130.65153503417972,19.870088577270508,134.35029602050778
2745,-75.04296112060547,-119.81704711914062,12.797937393188475,134.18574523925778
2746,-83.13236236572266,-123.44100952148438,5.920261859893799,129.24159240722656
2747,-71.0711898803711,-134.57095336914062,11.107502937316896,128.66938781738278
2748,-66.09712219238281,-137.58531188964844,18.49006462097168,119.75720977783205
2749,-81.1689224243164,-134.35777282714844,-0.6731820106506348,116.1818618774414
2750,-65.00132751464844,-116.73536682128906,14.383655548095705,134.52981567382812
2751,-68.45700073242189,-109.20320892333984,25.60709571838379,148.6292266845703
2752,-67.20787048339844,-121.5186996459961,15.99555206298828,137.00936889648438
2753,-75.09158325195312,-112.93563079833984,9.981793403625488,132.45416259765622
2754,-83.41285705566406,-112.8084716796875,4.054051399230957,131.51919555664062
2755,-78.84269714355469,-125.80462646484376,8.575590133666992,124.57793426513672
2756,-69.14888000488281,-127.62969207763672,3.508026123046875,124.85842895507812
2757,-85.37256622314453,-128.44873046875,-4.7982916831970215,124.9930648803711
2758,-75.95923614501953,-115.25436401367188,-0.9761139154434204,136.30999755859378
2759,-78.82774353027344,-129.21914672851562,-1.327664494514465,132.89921569824222
2760,-75.85452270507812,-131.96049499511722,2.4346749782562256,126.83683776855469
2761,-73.12065124511719,-131.27235412597656,0.6694421172142029,125.94300079345705
2762,-84.19449615478516,-120.3518524169922,2.285078763961792,138.44174194335938
2763,-69.77344512939453,-122.86880493164062,7.8388304710388175,136.04072570800778
2764,-72.38389587402344,-124.8546905517578,9.592843055725098,132.28587341308594
2765,-67.62300109863281,-121.1821060180664,9.843416213989258,131.87821960449222
2766,-76.39306640625,-117.62920379638672,10.51659870147705,136.27635192871094
2767,-79.19425201416016,-126.61618041992188,11.111242294311523,133.64344787597656
2768,-81.90941619873047,-133.83418273925778,14.492112159729006,126.44789123535156
2769,-80.38353729248047,-121.16715240478516,9.835936546325684,124.96688842773438
2770,-78.93245697021484,-113.68734741210938,9.076737403869627,130.34860229492188
2771,-63.73350524902344,-118.530517578125,22.484277725219727,138.34077453613278
2772,-65.46134185791016,-121.38780212402344,15.31863021850586,132.03155517578122
2773,-83.17724609375,-128.62077331542972,10.26976490020752,132.44294738769528
2774,-75.3084945678711,-111.37609100341795,12.2332124710083,139.66094970703122
2775,-62.79104995727539,-123.87483978271484,16.537837982177734,143.89451599121094
2776,-61.51200485229492,-137.07669067382812,12.910134315490724,135.56576538085938
2777,-70.32321166992189,-132.57009887695312,9.18519401550293,144.45924377441406
2778,-80.9931411743164,-126.87049865722656,2.1541824340820312,141.18309020996094
2779,-69.20497894287111,-117.21781158447266,15.31863021850586,147.51473999023438
2780,-71.40403747558594,-135.41242980957028,19.02113151550293,138.97280883789062
2781,-77.98626708984375,-125.12770080566406,14.260238647460938,141.2130126953125
2782,-61.28387069702149,-121.64585876464844,13.860069274902346,144.49290466308594
2783,-82.66487884521484,-120.98015594482422,17.596229553222656,145.85049438476562
2784,-72.69804382324219,-134.05484008789062,20.20668029785156,141.9796905517578
2785,-79.13815307617188,-121.57106018066406,15.23635196685791,131.32472229003906
2786,-73.89481353759766,-118.53800201416016,15.898314476013185,142.2340087890625
2787,-71.8378677368164,-130.24014282226562,16.062870025634766,136.41845703125
2788,-67.56690216064453,-136.08561706542972,17.794443130493164,135.38624572753906
2789,-70.84679412841797,-130.21022033691406,16.32840347290039,136.96449279785156
2790,-72.81398010253906,-121.65707397460938,16.115228652954098,135.28152465820312
2791,-74.84101104736328,-122.26667785644531,18.224533081054688,138.58012390136722
2792,-67.15925598144531,-136.86351013183594,13.934866905212402,134.43630981445312
2793,-75.40946960449219,-126.74707794189452,12.43516731262207,132.61497497558594
2794,-69.60140991210939,-125.96917724609376,11.036444664001463,137.72367858886722
2795,-77.19340515136719,-137.79100036621094,7.584517002105713,131.92683410644528
2796,-71.56111907958984,-137.181396484375,15.011958122253418,131.65756225585938
2797,-69.72856140136719,-130.78617858886722,11.025224685668944,132.29335021972656
2798,-77.2569808959961,-135.40869140625,5.957660675048827,130.47201538085938
2799,-73.73400115966797,-129.82501220703122,13.990965843200685,134.41761779785156
2800,-74.17530822753906,-139.73574829101562,9.581624031066896,133.64344787597656
2801,-78.57342529296875,-132.95530700683594,6.316690921783447,124.7724151611328
2802,-77.4776382446289,-117.78253936767578,8.519492149353027,137.86579895019528
2803,-65.09482574462889,-128.17945861816406,10.92424774169922,131.1190185546875
2804,-79.17929077148438,-140.25186157226562,1.7053943872451782,125.32592010498048
2805,-69.74352264404297,-131.12649536132812,4.932928085327148,129.27525329589844
2806,-77.93016815185547,-128.68809509277344,9.970573425292967,134.88510131835938
2807,-70.37931060791016,-130.75625610351562,14.619269371032715,133.77061462402344
2808,-67.81373596191406,-138.44923400878906,15.240092277526855,129.07704162597656
2809,-74.87092590332031,-126.17487335205078,10.905548095703123,132.64863586425778
2810,-69.59767150878906,-119.52532958984376,19.447479248046875,145.65602111816406
2811,-76.7333984375,-120.00404357910156,16.736051559448242,140.49494934082028
2812,-72.71300506591797,-138.68858337402344,19.922447204589844,132.57383728027344
2813,-88.95165252685547,-129.43606567382812,14.873581886291506,135.21795654296878
2814,-75.53662872314453,-123.02027130126952,10.8101806640625,143.2924041748047
2815,-69.22367858886719,-123.98890686035156,20.608718872070312,144.83323669433594
2816,-74.36978149414062,-136.87286376953122,13.790881156921387,130.64405822753906
2817,-80.32369995117188,-118.8989028930664,10.062200546264648,135.61064147949222
2818,-78.71928405761719,-117.32814025878906,12.75118923187256,139.44778442382812
2819,-79.08953094482422,-122.56026458740234,24.26260185241699,140.9287872314453
2820,-74.30994415283203,-134.44940185546878,13.454290390014648,129.96713256835938
2821,-65.55109405517578,-121.13909912109376,21.693288803100586,144.65745544433594
2822,-79.97215270996094,-111.17974853515624,21.73442840576172,142.16294860839844
2823,-67.29763031005861,-122.1339111328125,25.130258560180664,144.53030395507812
2824,-78.2779769897461,-129.46037292480472,17.818754196166992,135.90235900878906
2825,-81.7934799194336,-122.66871643066406,11.902231216430664,135.90983581542972
2826,-86.70771026611328,-113.75653839111328,13.147618293762207,141.82261657714844
2827,-73.96212768554688,-121.04560089111328,22.29915428161621,138.31459045410156
2828,-80.79119110107422,-132.66172790527344,17.987049102783203,139.61607360839844
2829,-62.039329528808594,-120.58185577392578,16.105878829956055,133.53126525878906
2830,-84.6619873046875,-104.5863037109375,17.044593811035153,142.37611389160156
2831,-77.42901611328125,-121.13536071777344,20.43668365478516,136.73260498046878
2832,-70.52890014648438,-129.68476867675778,18.503154754638672,133.19093322753906
2833,-81.2100601196289,-125.39136505126952,12.422078132629395,135.25909423828122
2834,-82.10015106201172,-115.85462188720705,17.044593811035153,142.0208282470703
2835,-67.68657684326172,-122.51911926269531,21.151004791259766,136.05569458007812
2836,-69.97539520263672,-129.14996337890622,22.02988052368164,142.34246826171875
2837,-85.07711791992188,-122.70237731933594,16.629465103149414,134.54476928710938
2838,-89.22840118408203,-118.85028076171876,11.20287036895752,142.03204345703125
2839,-73.08699798583984,-123.56629180908205,20.795713424682614,143.69630432128906
2840,-66.14199829101561,-142.67718505859375,19.9130973815918,129.552001953125
2841,-76.48656463623047,-124.33297729492188,14.333166122436525,138.49037170410156
2842,-88.28594970703125,-114.65037536621094,12.358499526977539,138.44923400878906
2843,-77.90398406982422,-127.58668518066406,16.678083419799805,142.4022979736328
2844,-69.23863983154297,-132.25033569335938,15.092366218566895,136.56431579589844
2845,-75.19629669189453,-130.320556640625,14.041454315185547,142.66783142089844
2846,-82.54520416259766,-118.3603515625,8.715836524963379,145.50267028808594
2847,-74.90458679199219,-121.22137451171876,11.371166229248047,138.62126159667972
2848,-72.94487762451172,-134.86453247070312,11.184170722961426,132.28961181640622
2849,-71.85282897949219,-122.02545928955078,13.069080352783205,138.93914794921878
2850,-71.17216491699219,-117.90408325195312,20.922870635986328,148.73768615722656
2851,-73.83123779296875,-121.12787628173828,17.687856674194336,137.39083862304688
2852,-75.85078430175781,-134.65509033203122,14.920331001281738,135.33389282226562
2853,-74.0631103515625,-132.6505126953125,12.459476470947266,138.47166442871094
2854,-80.39849853515625,-123.39425659179688,11.991989135742188,142.46214294433594
2855,-66.0933837890625,-118.51368713378906,18.488195419311523,143.89451599121094
2856,-60.5059700012207,-125.54096221923828,19.48674964904785,139.53005981445312
2857,-80.32369995117188,-119.43744659423828,13.274774551391602,137.40953063964844
2858,-79.00725555419922,-119.45240783691406,7.627525806427003,144.305908203125
2859,-76.93534851074219,-125.53722381591795,13.630064964294435,139.15232849121094
2860,-73.06829833984375,-133.16287231445312,16.019861221313473,133.54248046875
2861,-74.28376007080078,-126.40487670898438,12.52305507659912,137.615234375
2862,-76.21355438232422,-114.35865783691406,19.744802474975586,145.80935668945312
2863,-72.56714630126953,-131.36024475097656,17.972089767456055,140.65576171875
2864,-77.6197509765625,-133.16287231445312,13.663724899291992,136.9757080078125
2865,-74.09677124023438,-122.0740737915039,12.365979194641113,139.8629150390625
2866,-76.59127807617188,-111.60983276367188,14.2022705078125,148.202880859375
2867,-74.63905334472656,-123.82061004638672,14.912851333618164,144.27972412109375
2868,-75.37955474853516,-128.30848693847656,15.915143966674805,142.84361267089844
2869,-81.12777709960938,-126.74520874023438,8.00899600982666,136.05943298339844
2870,-65.56979370117189,-117.36927795410156,19.63634490966797,151.60244750976562
2871,-87.74740600585938,-126.16178131103516,14.916590690612793,139.88908386230472
2872,-71.9575424194336,-125.062255859375,19.161376953125,135.71536254882812
2873,-81.32599639892578,-124.81542205810548,11.307587623596193,139.3468017578125
2874,-74.13417053222656,-124.13101959228516,11.610519409179688,143.8870391845703
2875,-80.76500701904297,-122.68741607666016,13.659984588623047,145.17356872558594
2876,-76.46038818359375,-131.62203979492188,14.243409156799315,139.73200988769528
2877,-77.8591079711914,-125.8663330078125,4.6243863105773935,139.28321838378906
2878,-71.95006561279297,-120.57063293457031,14.531381607055664,144.9080352783203
2879,-74.79612731933594,-121.55796813964844,18.248842239379886,143.35597229003906
2880,-54.8250617980957,-129.71469116210938,22.41883087158203,145.89910888671875
2881,-87.39958953857422,-120.13306427001952,8.861693382263184,138.42304992675778
2882,-72.15202331542969,-123.60369110107422,12.530534744262695,144.11517333984375
2883,-68.21016693115234,-113.6368637084961,14.636098861694336,146.36285400390625
2884,-67.12559509277344,-126.95838165283205,12.193943977355955,142.54067993164062
2885,-76.06769561767578,-122.30594635009766,11.090673446655273,138.49411010742188
2886,-85.94103240966797,-112.27179718017578,6.408318519592285,140.58845520019528
2887,-68.845947265625,-127.59042358398438,15.376598358154295,138.94288635253906
2888,-61.71769714355469,-134.62518310546878,14.400485038757324,134.89631652832028
2889,-70.76078033447266,-118.33043670654295,7.436790943145753,136.26885986328122
2890,-78.57342529296875,-109.45565032958984,15.885225296020508,145.81683349609375
2891,-78.44253540039062,-120.19664764404295,15.22700309753418,144.20867919921875
2892,-74.59417724609375,-131.15455627441406,14.486502647399902,139.64599609375
2893,-63.68488693237305,-130.76559448242188,15.8366060256958,145.04266357421875
2894,-79.05213165283203,-122.22740936279295,13.057860374450685,146.2992706298828
2895,-72.62698364257812,-134.62144470214844,19.587726593017575,136.62416076660156
2896,-61.9570541381836,-127.76245880126952,20.82937240600586,138.62873840332028
2897,-78.71180725097656,-120.71649169921876,11.674098014831545,136.8934326171875
2898,-81.98421478271484,-109.23873901367188,19.823339462280273,144.88185119628906
2899,-71.57233428955078,-123.80191040039062,14.187310218811035,136.43716430664062
2900,-61.16793441772461,-126.77513122558594,20.773273468017575,134.07354736328122
2901,-71.26192474365234,-125.1669692993164,9.381539344787598,135.56576538085938
2902,-76.67729949951172,-122.43310546875,10.982215881347656,139.27574157714844
2903,-73.0645523071289,-119.97599029541016,11.920930862426758,139.28321838378906
2904,-68.36350250244139,-130.90023803710938,13.88063907623291,135.24412536621094
2905,-72.14827728271484,-116.30340576171876,17.340045928955078,140.80909729003906
2906,-80.82110595703125,-103.61019134521484,10.181878089904783,143.01937866210938
2907,-76.86055755615234,-112.77294158935548,19.55780601501465,143.94314575195312
2908,-73.8648910522461,-132.96839904785156,9.261861801147461,126.33194732666016
2909,-66.03728485107422,-119.63939666748048,9.901385307312012,136.77000427246094
2910,-90.96745300292969,-116.0079574584961,6.883285999298097,140.72682189941406
2911,-76.69973754882812,-120.5070571899414,10.279114723205566,138.38565063476562
2912,-59.49993896484375,-125.60079956054688,15.903924942016602,135.40495300292972
2913,-77.91520690917969,-129.22476196289062,9.863986015319824,133.18344116210938
2914,-81.82714080810547,-109.72118377685548,14.804393768310547,142.52197265625
2915,-70.96646881103516,-113.22173309326172,17.815013885498047,143.71875
2916,-74.95320129394531,-123.1549072265625,10.155698776245117,140.37901306152344
2917,-76.21729278564453,-121.58414459228516,-1.834420919418335,136.48204040527344
2918,-69.14888000488281,-117.9975814819336,-1.5576683282852173,138.55393981933594
2919,-73.27024841308594,-122.39944458007812,12.220123291015625,141.9796905517578
2920,-67.80251312255861,-122.86693572998048,14.793174743652346,133.85289001464844
2921,-77.75813293457031,-128.00181579589844,9.777968406677246,135.46478271484378
2922,-64.11123657226561,-115.85088348388672,18.559253692626953,141.22048950195312
2923,-63.70358657836914,-122.93051147460938,20.373104095458984,147.3726348876953
2924,-63.87187957763672,-123.32694244384766,21.158483505249023,141.98716735839844
2925,-76.052734375,-114.5269546508789,4.605686664581299,141.39627075195312
2926,-75.3720703125,-112.2119598388672,6.243762969970702,144.17501831054688
2927,-67.41356658935547,-110.57014465332031,16.775321960449222,149.6913604736328
2928,-67.52576446533203,-130.90397644042972,15.851566314697266,139.61607360839844
2929,-66.07094573974611,-116.59512329101562,18.06558609008789,143.89825439453125
2930,-79.75149536132812,-119.97225189208984,12.97932243347168,145.7869110107422
2931,-77.10364532470703,-128.72735595703122,17.646717071533203,141.57577514648438
2932,-69.78466033935547,-125.69803619384766,18.417137145996094,136.23895263671878
2933,-73.52082061767578,-124.7593231201172,12.732489585876465,134.55972290039062
2934,-78.2368392944336,-117.1523666381836,15.376598358154295,137.25993347167972
2935,-72.77658081054688,-119.59825897216795,18.80234718322754,127.37538146972656
2936,-69.68368530273439,-138.05467224121094,14.65853786468506,122.16944122314452
2937,-76.72591400146484,-113.77149963378906,13.128918647766113,123.6467056274414
2938,-60.85004043579102,-112.58220672607422,18.869665145874023,133.9239501953125
2939,-67.47714233398439,-111.42658233642578,15.77676773071289,139.18598937988278
2940,-73.24407196044922,-125.11087036132812,11.086933135986328,130.18405151367188
2941,-65.31174468994139,-115.6676254272461,10.11829948425293,138.04531860351562
2942,-63.69236755371094,-111.99504089355469,19.045440673828125,147.59327697753906
2943,-77.80674743652344,-116.67739868164062,13.962916374206545,145.77569580078125
2944,-71.93136596679688,-126.40861511230469,9.067387580871582,144.32461547851562
2945,-74.96068572998047,-117.60115051269531,8.816814422607422,144.7247772216797
2946,-62.94438552856445,-117.86294555664062,11.98824977874756,148.45346069335938
2947,-76.52022552490234,-126.69659423828124,16.120838165283207,144.11517333984375
2948,-69.72856140136719,-125.55218505859376,8.779415130615233,146.74058532714844
2949,-77.4327621459961,-117.76570892333984,7.590126991271973,151.8081512451172
2950,-66.815185546875,-108.11302947998048,5.256429195404053,149.25379943847656
2951,-67.08819580078125,-123.78321075439452,7.904278755187987,148.01962280273438
2952,-64.84051513671875,-126.96212005615234,7.489149570465088,136.36610412597656
2953,-65.61841583251953,-116.11641693115234,5.720177173614503,142.79873657226562
2954,-72.9822769165039,-116.48292541503906,9.48625659942627,146.19082641601562
2955,-70.75703430175781,-125.23429107666016,7.541508197784424,137.22627258300778
2956,-72.6382064819336,-126.9658660888672,7.511589050292969,130.72259521484378
2957,-72.99349975585938,-122.88188934326172,8.71209716796875,131.39202880859378
2958,-65.97744750976561,-113.16937255859376,22.89753723144531,139.21217346191406
2959,-62.001930236816406,-118.62214660644531,22.72550201416016,136.40724182128906
2960,-62.49559783935547,-127.3136749267578,16.595806121826172,129.85493469238278
2961,-65.84654998779297,-128.09530639648438,13.734782218933105,134.140869140625
2962,-89.12368774414062,-127.13416290283205,9.41519832611084,136.99440002441406
2963,-75.23743438720703,-126.92098236083984,11.887271881103516,136.160400390625
2964,-71.20208740234375,-134.95428466796878,8.801854133605957,130.44584655761722
2965,-67.99699401855469,-121.8721160888672,18.248842239379886,148.05702209472656
2966,-66.74786376953125,-100.5733871459961,26.813213348388672,162.51922607421875
2967,-65.35288238525389,-102.4395980834961,29.67797660827637,162.5304412841797
2968,-58.53130340576172,-124.77054595947266,19.067880630493164,149.6876220703125
2969,-79.33262634277344,-127.12294006347656,6.281161785125732,141.61317443847656
2970,-76.81941223144531,-111.52755737304688,8.457783699035645,152.21954345703125
2971,-64.49644470214844,-119.46736145019531,11.752635955810547,146.9313201904297
2972,-66.49729156494139,-125.64567565917969,11.315067291259766,137.27490234375
2973,-72.84764099121094,-128.50669860839844,9.931303977966307,136.56057739257812
2974,-73.62554168701172,-103.16887664794922,16.535966873168945,148.75265502929688
2975,-55.87223434448242,-109.9493179321289,25.03302001953125,150.03916931152344
2976,-68.78610992431639,-124.71444702148438,18.02444839477539,134.00996398925778
2977,-78.41261291503906,-121.44577026367188,12.631511688232422,137.20758056640622
2978,-68.29618072509766,-101.05957794189452,14.8978910446167,149.66519165039062
2979,-75.54410552978516,-108.61417388916016,18.091766357421875,145.30819702148438
2980,-69.58644866943361,-118.56978607177734,18.839746475219727,139.26826477050778
2981,-65.20702362060547,-119.8413543701172,16.603286743164062,142.88475036621094
2982,-72.94861602783203,-111.90155029296876,17.519561767578125,145.6298370361328
2983,-73.49090576171875,-118.69320678710938,21.14726448059082,141.01853942871094
2984,-62.03559112548828,-116.12015533447266,30.32497787475586,142.3162841796875
2985,-78.6183090209961,-119.04475402832031,13.977875709533693,138.11637878417972
2986,-78.68936157226562,-102.19650268554688,11.128072738647461,148.7975311279297
2987,-67.07697296142578,-121.52056884765624,16.27791404724121,140.97366333007812
2988,-59.900108337402344,-120.76136779785156,15.15968418121338,136.45211791992188
2989,-88.85441589355469,-114.9869613647461,4.205517292022705,132.93661499023438
2990,-72.52600860595703,-103.11278533935548,15.615952491760256,142.59303283691406
2991,-78.59212493896484,-112.64952850341795,6.8234477043151855,137.39457702636722
2992,-74.53059387207031,-123.4167022705078,8.192251205444336,130.82357788085938
2993,-75.3496322631836,-114.9233856201172,7.4741902351379395,133.71076965332028
2994,-63.52033233642578,-105.8354263305664,14.273327827453613,140.33413696289062
2995,-74.37725830078125,-119.7665557861328,7.208657264709473,131.86700439453122
2996,-71.52371978759766,-129.53890991210938,13.9292573928833,136.20529174804688
2997,-69.20497894287111,-115.1066436767578,11.494582176208494,140.16584777832028
2998,-73.61058044433594,-105.71949005126952,20.17115020751953,141.70668029785156
2999,-74.25010681152344,-116.56146240234376,19.681222915649414,139.63102722167972
3000,-73.61431884765625,-119.10833740234376,15.896444320678713,135.82382202148438
3001,-72.8775634765625,-115.55542755126952,17.72899627685547,136.74757385253906
3002,-74.73628997802734,-109.27239990234376,18.480714797973636,143.09417724609375
3003,-64.70587921142578,-106.72926330566406,28.234375,149.92698669433594
3004,-69.53034973144531,-116.41934204101562,23.29022789001465,136.62789916992188
3005,-74.78865051269531,-109.40703582763672,12.908265113830565,135.73031616210938
3006,-59.06237030029297,-96.73251342773438,26.86557197570801,152.64215087890625
3007,-66.4337158203125,-114.54191589355469,14.422924041748047,143.34849548339844
3008,-77.09990692138672,-117.03643035888672,8.136152267456055,136.58302307128906
3009,-75.7348403930664,-119.96102905273438,6.359699726104736,134.21565246582028
3010,-71.68453216552734,-115.81722259521484,8.087533950805664,137.08790588378906
3011,-65.48377990722656,-123.5550765991211,8.382986068725586,132.27839660644528
3012,-72.11087799072266,-127.9943389892578,8.267048835754395,131.38829040527344
3013,-75.37955474853516,-121.35975646972656,8.932750701904297,138.24726867675778
3014,-72.74292755126953,-104.08889770507812,8.753235816955566,142.36489868164062
3015,-69.0572509765625,-107.56326293945312,17.328826904296875,140.47064208984378
3016,-79.49531555175781,-121.92073822021484,12.766148567199707,135.09640502929688
3017,-80.28069305419922,-120.91844177246094,9.003808975219727,142.75572204589844
3018,-69.91742706298828,-111.27324676513672,15.821646690368652,147.42311096191406
3019,-63.90367126464844,-111.84918975830078,22.28419303894043,139.78250122070312
3020,-70.0782470703125,-124.80046081542969,18.57047271728516,136.28569030761722
3021,-65.73622131347656,-113.09083557128906,18.5629940032959,138.81387329101562
3022,-70.28768157958984,-107.50716400146484,8.966409683227539,136.93269348144528
3023,-76.52957153320312,-119.5832977294922,11.401084899902346,136.9700927734375
3024,-63.98968887329102,-122.0703353881836,15.051227569580078,136.424072265625
3025,-69.55840301513672,-123.48775482177734,6.475636959075928,138.28654479980472
3026,-68.57480621337889,-107.13317108154295,8.042654991149902,145.743896484375
3027,-62.18705749511719,-107.54082489013672,19.1501579284668,143.94126892089844
3028,-71.82103729248047,-115.41331481933594,15.806687355041506,134.96551513671878
3029,-76.78762817382812,-115.49185180664062,9.20202350616455,132.97587585449222
3030,-70.47093200683594,-105.31558227539062,13.454290390014648,136.09495544433594
3031,-65.99801635742189,-110.18119049072266,21.41653633117676,133.65653991699222
3032,-62.22819519042969,-113.7415771484375,19.569026947021484,130.72821044921878
3033,-68.39529418945311,-109.2275161743164,14.445363998413086,131.28544616699222
3034,-73.31700134277344,-98.0639190673828,23.4921817779541,137.54229736328122
3035,-77.76374053955078,-102.6378173828125,22.643224716186523,135.17120361328122
3036,-72.09405517578125,-108.83108520507812,21.038806915283203,132.96839904785156
3037,-66.95542907714844,-103.26612091064452,22.534767150878906,138.62687683105472
3038,-76.61933135986328,-108.56555938720705,28.20071601867676,144.8575439453125
3039,-74.1734390258789,-107.70537567138672,22.875097274780273,144.4311981201172
3040,-71.91079711914062,-121.04186248779295,16.274173736572266,136.50260925292972
3041,-70.53825378417969,-117.20472717285156,12.279961585998535,139.86477661132812
3042,-79.34945678710938,-116.06031799316406,8.805594444274902,141.40562438964844
3043,-65.36971282958984,-118.86524200439452,15.01382827758789,140.47811889648438
3044,-83.61668395996094,-134.722412109375,9.000069618225098,134.40826416015622
3045,-75.73297119140625,-128.62263488769528,5.933351516723633,139.06443786621094
3046,-72.12397003173828,-107.5782241821289,12.339799880981445,145.239013671875
3047,-71.11045837402344,-116.93919372558594,14.44162368774414,142.55751037597656
3048,-72.52787780761719,-128.96296691894528,12.515575408935547,134.92437744140622
3049,-83.23895263671875,-116.50910186767578,3.3378608226776123,137.26554870605472
3050,-81.67567443847656,-112.09976196289062,6.9319047927856445,141.30838012695312
3051,-69.82392883300781,-113.96223449707031,17.485902786254886,139.33744812011722
3052,-65.75492095947266,-123.02027130126952,16.176937103271484,129.01533508300778
3053,-75.93866729736328,-117.36927795410156,11.647918701171875,134.15020751953122
3054,-66.53282165527344,-105.4277801513672,15.821646690368652,133.83979797363278
3055,-78.1526870727539,-114.57931518554688,19.606426239013672,138.46604919433594
3056,-67.09380340576172,-116.34455108642578,23.40990447998047,142.38172912597656
3057,-70.88980102539062,-115.57038879394531,15.941323280334473,140.84837341308594
3058,-74.54742431640625,-108.74880981445312,11.169211387634276,143.52613830566406
3059,-69.18814849853516,-121.12413787841795,18.12168502807617,143.4700469970703
3060,-61.62981033325195,-120.33876037597656,13.697383880615234,136.95140075683594
3061,-85.53899383544922,-120.90348815917969,-0.869526743888855,129.87924194335938
3062,-81.7616958618164,-107.98587036132812,6.513035774230957,142.8230438232422
3063,-72.80089569091797,-125.14453125,13.263555526733398,142.17977905273438
3064,-71.06558227539062,-128.8358154296875,11.756375312805176,140.35844421386722
3065,-74.74938201904297,-120.76136779785156,2.380446434020996,130.13356018066406
3066,-80.74443817138672,-112.6570053100586,5.1105732917785645,144.18435668945312
3067,-66.96290588378906,-113.79767608642578,17.168010711669922,136.60733032226562
3068,-67.572509765625,-121.13909912109376,18.91080474853516,136.53627014160156
3069,-77.6889419555664,-119.64314270019531,10.529687881469727,133.44711303710938
3070,-79.2110824584961,-110.91795349121094,15.29058074951172,138.48475646972656
3071,-74.49880981445312,-117.97140502929688,19.086580276489254,138.2080078125
3072,-72.59519958496094,-121.89830017089844,15.903924942016602,135.64242553710938
3073,-79.31205749511719,-120.17420196533205,13.932997703552244,134.83834838867188
3074,-72.61016082763672,-112.14837646484376,19.1501579284668,145.99447631835938
3075,-75.17198944091797,-111.58365631103516,21.992481231689453,143.2531280517578
3076,-74.60726165771484,-129.62867736816406,15.492535591125488,133.80987548828122
3077,-81.0398941040039,-124.8228988647461,6.251242637634277,137.5684814453125
3078,-75.22808837890625,-111.28820037841795,17.598098754882812,143.60093688964844
3079,-73.68350982666016,-119.78899383544922,22.2019157409668,147.9915771484375
3080,-72.80463409423828,-130.77682495117188,15.092366218566895,135.9603271484375
3081,-79.76832580566406,-121.88333892822266,3.711850643157959,132.28025817871094
3082,-79.84312438964844,-112.34285736083984,9.538615226745604,143.8926544189453
3083,-77.21023559570312,-119.5271987915039,10.982215881347656,136.45773315429688
3084,-69.15823364257811,-132.67669677734378,7.541508197784424,128.67874145507812
3085,-71.64152526855469,-114.57931518554688,12.739969253540039,137.45254516601562
3086,-73.73587036132812,-106.35153198242188,19.72610282897949,144.5620880126953
3087,-76.6866455078125,-123.6822280883789,18.813566207885746,128.69743347167972
3088,-78.76229095458984,-124.37037658691406,23.30892562866211,129.34817504882812
3089,-69.27790832519531,-119.63939666748048,24.59171295166016,131.02365112304688
3090,-78.65383911132812,-110.82819366455078,18.678930282592773,135.76211547851562
3091,-71.28997039794922,-117.2196807861328,21.36043930053711,140.25372314453122
3092,-73.66107177734375,-120.29388427734376,18.368518829345703,135.94535827636722
3093,-75.91996765136719,-110.49534606933594,10.447410583496094,139.6815185546875
3094,-71.86965942382812,-107.85497283935548,16.82394027709961,152.07554626464844
3095,-82.6256103515625,-119.13825225830078,9.071126937866213,141.682373046875
3096,-62.8714599609375,-135.04031372070312,13.540307998657227,138.28654479980472
3097,-88.42245483398438,-122.58644104003906,3.797868490219116,132.85993957519528
3098,-72.1090087890625,-108.5244140625,18.155344009399414,149.44639587402344
3099,-82.04966735839844,-124.22825622558594,7.249795913696289,130.69081115722656
3100,-69.65937805175781,-132.96466064453122,7.470449924468994,131.73797607421878
3101,-80.52752685546875,-118.18831634521484,7.122639656066895,130.50381469726562
3102,-63.89245223999024,-109.07044219970705,14.29950714111328,139.38232421875
3103,-76.01720428466797,-118.93255615234376,9.860246658325195,131.9287109375
3104,-68.03626251220703,-126.2253646850586,13.701123237609865,128.19255065917972
3105,-73.86676025390625,-118.9363021850586,12.21264362335205,132.95718383789062
3106,-75.21686553955078,-117.4702606201172,19.292274475097656,138.38751220703122
3107,-72.490478515625,-117.17106628417969,22.471189498901367,135.94535827636722
3108,-74.05375671386719,-124.90892028808594,15.29058074951172,128.278564453125
3109,-75.46743774414062,-115.2861557006836,7.900538444519043,133.59671020507812
3110,-74.7381591796875,-119.05597686767578,10.60822582244873,141.92172241210938
3111,-72.68121337890625,-108.12799072265624,15.032527923583984,140.9568328857422
3112,-82.37503814697266,-122.8108367919922,11.225309371948242,136.11366271972656
3113,-78.68375396728516,-127.33611297607422,8.498922348022461,138.0733642578125
3114,-73.42545318603516,-111.50138092041016,17.104433059692386,141.43179321289062
3115,-76.13688659667969,-115.2450180053711,11.853612899780273,135.82568359375
3116,-60.75841522216797,-125.11835479736328,12.070527076721193,131.70431518554688
3117,-87.05364990234375,-116.4343032836914,6.670111656188965,132.20919799804688
3118,-83.52318572998047,-120.99324035644531,9.953743934631348,140.34349060058594
3119,-72.94300842285156,-120.53697204589844,15.855305671691895,143.19703674316406
3120,-69.19937133789061,-122.56400299072266,16.315313339233402,136.2894287109375
3121,-84.4731216430664,-124.17589569091795,9.33292007446289,132.54579162597656
3122,-77.53186798095703,-110.72348022460938,10.712943077087402,137.73677062988278
3123,-81.18574523925781,-118.8203582763672,18.9556827545166,134.70372009277344
3124,-73.91912078857422,-123.7196273803711,20.343185424804688,132.61311340332028
3125,-80.20589447021484,-115.50306701660156,12.6090726852417,136.55122375488278
3126,-87.04617309570312,-116.5315399169922,14.127471923828125,136.02015686035156
3127,-69.44620513916016,-119.58704376220705,21.495075225830078,137.8265380859375
3128,-78.8744888305664,-125.7055206298828,13.67868423461914,134.74485778808594
3129,-77.70016479492188,-121.32609558105469,6.909465312957764,137.19448852539062
3130,-75.28792572021484,-115.53672790527344,12.91574478149414,141.10269165039062
3131,-77.35234832763672,-125.43624114990234,12.448257446289062,137.78913879394528
3132,-66.36826324462889,-127.7325439453125,13.56274700164795,137.00001525878906
3133,-80.89029693603516,-124.53492736816406,7.851920127868652,136.2894287109375
3134,-73.80692291259766,-108.76750946044922,13.211196899414062,147.9915771484375
3135,-68.18959808349611,-126.10194396972656,9.979923248291016,131.86512756347656
3136,-67.81934356689453,-131.670654296875,10.10334014892578,127.70262145996094
3137,-75.99102783203125,-123.98890686035156,7.040361881256104,134.90567016601562
3138,-61.77566909790039,-114.81118774414062,15.473835945129395,141.49163818359375
3139,-81.8813705444336,-114.07068634033205,18.40965843200684,139.72265625
3140,-72.73357391357422,-125.07347106933594,15.814167022705078,136.29692077636722
3141,-77.65154266357422,-118.22945404052734,13.731042861938475,127.2912368774414
3142,-84.15896606445312,-110.49160766601562,17.624279022216797,140.76235961914062
3143,-72.96170806884766,-119.4187469482422,18.312419891357425,136.94017028808594
3144,-77.47950744628906,-126.7713851928711,17.42232322692871,137.89384460449222
3145,-76.67543029785156,-120.29388427734376,13.098999977111815,131.94366455078122
3146,-72.59146118164062,-115.77234649658205,11.38238525390625,137.74050903320312
3147,-75.15702819824219,-118.40897369384766,15.870265007019045,135.84439086914062
3148,-69.861328125,-132.07456970214844,10.23797607421875,127.17903900146484
3149,-80.83793640136719,-130.0213623046875,3.7305502891540527,128.02426147460938
3150,-71.81729888916016,-120.58185577392578,8.45030403137207,135.77706909179688
3151,-69.85385131835939,-113.30774688720705,17.60931968688965,135.64242553710938
3152,-74.00514221191406,-126.43853759765624,14.355606079101562,126.5507354736328
3153,-78.17887115478516,-130.60478210449222,8.816814422607422,129.29208374023438
3154,-63.69049453735352,-118.13970184326172,13.697383880615234,142.11993408203125
3155,-77.7674789428711,-121.86463928222656,20.459123611450195,137.16082763671878
3156,-78.75481414794922,-133.45085144042972,9.183324813842773,126.55821228027344
3157,-84.61897277832031,-122.30968475341795,4.1269798278808585,133.63410949707028
3158,-77.61040496826172,-123.12872314453124,2.537522077560425,132.44482421875
3159,-74.697021484375,-120.20038604736328,10.028541564941406,129.85307312011722
3160,-86.99755096435547,-129.25468444824222,9.175844192504883,125.17445373535156
3161,-82.15438079833984,-119.91615295410156,6.8533668518066415,131.80903625488278
3162,-78.99042510986328,-111.74073028564452,9.748048782348633,140.12657165527344
3163,-79.01286315917969,-124.0225601196289,15.197083473205565,129.44168090820312
3164,-75.25426483154297,-122.80335235595705,12.616552352905273,131.76042175292972
3165,-72.72235107421875,-131.330322265625,6.636452674865723,129.20606994628906
3166,-84.37588500976562,-110.3270492553711,2.6684186458587646,128.16636657714844
3167,-80.3966293334961,-123.1362075805664,9.549834251403807,130.17469787597656
3168,-71.98185729980469,-127.55677032470705,4.396252632141113,118.60718536376952
3169,-75.97980499267578,-118.13970184326172,6.77108907699585,127.16781616210938
3170,-72.20624542236328,-111.44153594970705,17.740215301513672,136.55496215820312
3171,-88.21675872802734,-121.49813079833984,18.312419891357425,133.64532470703122
3172,-79.873046875,-125.79527282714844,16.266695022583008,123.1324691772461
3173,-82.86870574951172,-121.02316284179688,13.04664134979248,134.09785461425778
3174,-81.30916595458984,-112.32415771484376,13.959177017211914,142.9090576171875
3175,-80.0787353515625,-114.83737182617188,15.189603805541992,139.45338439941406
3176,-80.04133605957031,-118.2182388305664,10.245455741882324,135.04031372070312
3177,-82.84626007080078,-117.70213317871094,7.575167179107666,138.36882019042972
3178,-90.75241088867188,-109.71744537353516,13.757222175598145,139.42347717285156
3179,-84.9780044555664,-119.03353881835938,10.181878089904783,134.88697814941406
3180,-82.12071990966797,-131.681884765625,6.62897253036499,124.07118225097656
3181,-78.18260955810547,-126.91350555419922,4.149418830871582,125.81397247314452
3182,-89.8510971069336,-117.5525360107422,2.7955751419067383,131.85017395019528
3183,-78.20130920410156,-130.58609008789062,3.382739543914795,123.05018615722656
3184,-74.2332763671875,-135.4442138671875,5.181631565093994,117.44033813476562
3185,-78.24618530273438,-130.59356689453122,4.81886100769043,119.5234603881836
3186,-73.8293685913086,-117.61237335205078,12.28744125366211,136.29692077636722
3187,-71.67144012451172,-115.6938018798828,13.663724899291992,126.32633972167969
3188,-80.8416748046875,-130.58609008789062,8.532581329345701,126.25902557373048
3189,-86.48518371582031,-113.77523803710938,15.642131805419922,135.14501953125
3190,-78.81838989257812,-117.36927795410156,7.6350059509277335,132.08204650878906
3191,-83.61668395996094,-125.45868682861328,14.800654411315918,133.34239196777344
3192,-82.80886840820312,-126.33382415771484,16.494829177856445,128.85076904296878
3193,-82.80886840820312,-127.74002075195312,11.221570014953613,132.10823059082028
3194,-71.14037322998047,-137.55726623535156,9.374059677124023,140.67633056640622
3195,-94.12580108642578,-130.16348266601562,8.513882637023926,131.51358032226562
3196,-74.20335388183594,-136.28195190429688,15.963763236999512,130.50381469726562
3197,-71.49566650390625,-134.92437744140622,12.055567741394045,130.54495239257812
3198,-80.9987564086914,-117.64229583740234,14.789434432983398,137.5684814453125
3199,-84.28986358642578,-130.63470458984378,14.508941650390625,130.62722778320312
3200,-70.57191467285156,-135.46665954589844,23.61559867858887,130.08494567871094
3201,-86.02143859863281,-134.61021423339844,12.781107902526855,132.7327880859375
3202,-82.41991424560547,-124.26565551757812,12.063047409057615,132.29896545410156
3203,-79.15872192382812,-129.23223876953122,18.02444839477539,132.53457641601562
3204,-66.90306854248047,-138.2379150390625,17.901031494140625,125.55966186523438
3205,-85.86062622070312,-134.50175476074222,9.437637329101562,127.42961120605469
3206,-71.27127075195312,-115.46566772460938,16.838899612426758,134.32225036621094
3207,-75.27670288085938,-124.35167694091795,18.203962326049805,135.238525390625
3208,-79.48409271240234,-140.94186401367188,12.160284996032715,125.70925903320312
3209,-80.0974349975586,-128.79841613769528,10.7017240524292,137.80783081054688
3210,-78.51171875,-124.00760650634766,11.771334648132324,146.11788940429688
3211,-80.6958236694336,-131.81277465820312,11.494582176208494,133.59297180175778
3212,-72.150146484375,-139.60671997070312,14.456583023071287,134.90940856933594
3213,-84.04676818847656,-134.93185424804688,6.262462615966798,126.98456573486328
3214,-84.55913543701172,-126.21414184570312,6.269942283630371,137.56474304199222
3215,-82.161865234375,-130.05502319335938,7.4741902351379395,127.0481414794922
3216,-79.28775024414062,-139.86851501464844,5.3574066162109375,122.9660415649414
3217,-73.52830505371094,-121.89830017089844,5.3873257637023935,125.07160186767578
3218,-84.90507507324219,-121.18023681640624,5.970750331878662,125.01924896240234
3219,-77.71698760986328,-132.75897216796878,10.847579956054688,127.5586395263672
3220,-76.77079772949219,-135.07395935058594,10.211796760559082,124.31614685058594
3221,-75.3907699584961,-134.80844116210938,6.423278331756593,126.57504272460938
3222,-74.13790893554688,-130.33551025390622,11.255228996276855,134.79161071777344
3223,-77.1148681640625,-135.7845458984375,18.712589263916016,140.08729553222656
3224,-64.25708770751953,-121.70382690429688,25.83335876464844,141.95726013183594
3225,-72.30909729003906,-120.03208923339844,20.35814476013184,145.73455810546875
3226,-68.92448425292969,-111.46398162841795,23.49966049194336,150.59268188476562
3227,-84.93873596191406,-127.27627563476562,12.410858154296875,139.19346618652344
3228,-78.06480407714844,-130.38787841796878,18.091766357421875,136.54936218261722
3229,-89.0002670288086,-131.68562316894528,4.441131114959717,126.93781280517578
3230,-77.6384506225586,-115.58161163330078,10.873759269714355,142.0582275390625
3231,-79.43360137939453,-126.27772521972656,17.377445220947266,138.76712036132812
3232,-78.03114318847656,-129.65110778808594,14.280808448791506,128.76287841796878
3233,-85.43240356445312,-127.8372573852539,11.184170722961426,135.21795654296878
3234,-94.00051879882812,-114.71021270751952,18.686410903930664,138.22109985351562
3235,-68.93570709228516,-118.14717864990234,25.97173500061035,142.64540100097656
3236,-84.89759826660156,-132.80384826660156,14.987648963928224,133.55743408203122
3237,-83.42781829833984,-126.87236785888672,17.280208587646484,134.43630981445312
3238,-74.44084167480469,-116.83447265625,23.67917633056641,144.36575317382812
3239,-79.0820541381836,-122.38448333740234,28.19697570800781,138.14630126953122
3240,-79.61312103271484,-122.19749450683594,23.121931076049805,131.05918884277344
3241,-82.74341583251953,-113.3152313232422,20.339445114135746,139.49639892578122
3242,-77.06999206542969,-114.5867919921875,16.11709976196289,145.4652862548828
3243,-74.26880645751953,-120.9708023071289,25.597745895385746,140.93626403808594
3244,-73.423583984375,-126.59187316894531,18.495676040649414,139.36550903320312
3245,-77.6010513305664,-121.51683044433594,10.492289543151855,134.73176574707028
3246,-81.10533905029297,-116.95040893554688,14.471543312072756,143.91696166992188
3247,-76.76705932617188,-125.98226928710938,19.42317008972168,136.8822021484375
3248,-72.64942932128906,-138.09580993652344,12.074267387390135,130.03071594238278
3249,-79.62433624267578,-130.01388549804688,9.02250862121582,134.66070556640622
3250,-89.69215393066406,-117.46651458740234,5.910912036895753,137.10659790039062
3251,-70.94403076171875,-126.1468276977539,20.6760368347168,140.94000244140625
3252,-84.33661651611328,-129.31077575683594,12.190203666687012,135.91731262207028
3253,-79.44856262207031,-122.18627166748048,3.330380916595459,130.6964111328125
3254,-93.96685791015624,-114.9046859741211,3.644532442092896,141.4748077392578
3255,-64.92653656005861,-126.6517105102539,6.711250305175781,131.16764831542972
3256,-94.08279418945312,-126.1468276977539,3.1695652008056636,128.55345153808594
3257,-84.77043914794922,-113.00856018066406,9.819107055664062,135.82756042480472
3258,-78.56594848632812,-113.8238525390625,10.967256546020508,142.3162841796875
3259,-84.8452377319336,-127.7549819946289,11.412304878234865,138.80825805664062
3260,-78.67440795898438,-122.93051147460938,7.137598991394043,128.41506958007812
3261,-79.3214111328125,-114.885986328125,5.241469860076903,135.29649353027344
3262,-76.34819030761719,-112.04366302490234,9.99862289428711,143.39337158203125
3263,-75.59272766113281,-122.74351501464844,13.25233554840088,140.50242614746094
3264,-72.918701171875,-126.23284149169922,9.48625659942627,134.41761779785156
3265,-81.86454010009766,-121.329833984375,7.500369548797607,138.40434265136722
3266,-83.41659545898438,-114.00711059570312,3.659492015838623,142.3611602783203
3267,-77.12608337402344,-126.9883041381836,7.459230422973633,138.47540283203122
3268,-72.67560577392578,-125.58209991455078,12.231343269348145,133.61354064941406
3269,-87.04804229736328,-119.95355224609376,8.528841972351074,142.34994506835938
3270,-83.24456024169922,-111.66967010498048,18.70511054992676,150.9629364013672
3271,-77.63097381591797,-115.9668197631836,9.893905639648438,135.73405456542972
3272,-73.77887725830078,-134.26614379882812,11.887271881103516,130.70762634277344
3273,-80.34613800048828,-116.16503143310548,10.163178443908693,137.36465454101562
3274,-78.10594177246094,-106.90129852294922,13.611366271972654,147.39132690429688
3275,-81.60648345947266,-122.3882293701172,11.827433586120605,137.29359436035156
3276,-71.22452545166016,-122.54156494140624,11.90597152709961,139.46273803710938
3277,-80.04695129394531,-120.1816864013672,7.448010921478271,135.46104431152344
3278,-78.71180725097656,-110.57762145996094,3.9474644660949703,140.7530059814453
3279,-77.70203399658203,-108.53563690185548,11.086933135986328,136.77749633789062
3280,-76.48282623291016,-127.14911651611328,9.467556953430176,132.97027587890622
3281,-73.37123107910156,-106.74048614501952,8.943970680236816,136.65032958984378
3282,-76.19485473632812,-107.58943939208984,8.446563720703125,141.15692138671875
3283,-79.44856262207031,-121.4308090209961,13.465509414672852,134.69436645507812
3284,-64.36928558349611,-118.46881103515624,15.28684139251709,133.52377319335938
3285,-85.32769012451172,-117.85920715332031,6.082947254180907,135.37876892089844
3286,-77.37291717529297,-96.998046875,10.36887264251709,144.49290466308594
3287,-64.46652221679689,-106.12339782714844,11.62921905517578,135.57698059082028
3288,-73.29268646240234,-123.09132385253906,7.649965286254883,129.20793151855472
3289,-92.05950927734376,-120.29388427734376,-1.696044683456421,135.51341247558594
3290,-81.34843444824219,-100.46493530273438,13.506649017333984,138.86061096191406
3291,-67.2789306640625,-108.56555938720705,18.981863021850586,137.97425842285156
3292,-79.47848510742188,-112.90383911132812,14.875452041625975,129.08078002929688
3293,-86.03826904296875,-114.17914581298828,7.511589050292969,137.27864074707028
3294,-79.10823059082031,-91.01046752929688,13.607625961303713,139.047607421875
3295,-83.5587158203125,-107.00228118896484,13.28599452972412,139.89656066894528
3296,-75.66378784179688,-125.5484390258789,14.097553253173828,134.57469177246094
3297,-78.33781433105469,-119.0185775756836,7.2011775970458975,133.47889709472656
3298,-86.22526550292969,-110.99275207519531,11.01213550567627,137.36091613769528
3299,-79.43360137939453,-99.61223602294922,16.708003997802734,136.83358764648438
3300,-83.25578308105469,-109.07044219970705,11.412304878234865,133.37417602539062
3301,-84.44132995605469,-110.35696411132812,7.676144599914551,137.615234375
3302,-71.9201431274414,-100.86135864257812,14.389265060424805,141.4710693359375
3303,-76.68103790283203,-98.18359375,12.78858757019043,142.5743408203125
3304,-81.25493621826172,-121.52804565429688,12.164024353027346,132.69352722167972
3305,-78.99604034423828,-110.54396057128906,16.23677635192871,138.69606018066406
3306,-80.15540313720703,-98.78945922851562,18.23014259338379,140.06112670898438
3307,-90.59720611572266,-108.9021453857422,13.921777725219727,138.34825134277344
3308,-79.17181396484375,-111.834228515625,14.142431259155273,138.59507751464844
3309,-88.5402603149414,-107.43236541748048,8.382986068725586,136.8822021484375
3310,-81.03802490234375,-117.54879760742188,11.397345542907715,139.50387573242188
3311,-84.0224609375,-109.9306182861328,9.377799034118652,136.77000427246094
3312,-75.02799987792969,-123.44287872314452,8.207210540771483,133.70703125
3313,-78.69684600830078,-113.44986724853516,6.658891677856445,130.98439025878906
3314,-81.96925354003906,-103.41197204589844,9.587233543395996,145.03892517089844
3315,-69.186279296875,-115.05054473876952,14.04893398284912,134.61209106445312
3316,-65.30800628662111,-123.62987518310548,17.426063537597653,135.02348327636722
3317,-79.99085235595703,-107.3613052368164,10.911158561706543,134.65696716308594
3318,-76.37810516357422,-100.08346557617188,13.386971473693848,142.28636169433594
3319,-73.8274917602539,-119.8488311767578,12.77362823486328,139.3056640625
3320,-75.47305297851562,-124.6807861328125,8.487703323364258,136.24642944335938
3321,-78.41261291503906,-110.09517669677734,8.779415130615233,138.00791931152344
3322,-74.77368927001953,-110.95909118652344,9.908864974975586,142.63417053222656
3323,-76.00411987304688,-118.63336944580078,14.213489532470705,144.10769653320312
3324,-75.7722396850586,-120.13680267333984,10.60822582244873,138.71101379394528
3325,-85.5296401977539,-125.7616195678711,6.243762969970702,136.14544677734378
3326,-75.07662200927734,-116.22860717773438,12.702569961547852,143.91696166992188
3327,-79.7627182006836,-121.13162231445312,7.279715061187744,131.69122314453122
3328,-65.98118591308594,-125.51852416992188,15.66831111907959,135.45730590820312
3329,-90.15963745117188,-120.9483642578125,-1.0976606607437134,128.09344482421878
3330,-77.16722869873047,-109.77354431152344,10.174397468566896,141.09707641601562
3331,-73.6405029296875,-118.45384979248048,3.1209464073181152,134.92623901367188
3332,-64.05513763427734,-131.50984191894528,10.006102561950684,134.2642822265625
3333,-77.6197509765625,-118.48003387451172,3.1508657932281494,131.63887023925778
3334,-84.08978271484375,-111.3704833984375,6.284902095794678,134.20069885253906
3335,-75.95923614501953,-119.01109313964844,10.211796760559082,135.99958801269528
3336,-63.69984436035156,-123.60369110107422,13.820799827575685,131.93806457519528
3337,-85.5072021484375,-123.78694915771484,6.610273361206055,137.21505737304688
3338,-69.73604583740234,-108.4832763671875,6.576613903045653,139.68339538574222
3339,-66.11582183837889,-113.86125183105469,10.125779151916504,135.27030944824222
3340,-67.33876800537111,-130.60478210449222,11.63295841217041,133.53874206542972
3341,-67.80625915527344,-126.07202911376952,17.11191177368164,137.55912780761722
3342,-79.15311431884766,-111.91650390625,10.641885757446287,141.5496063232422
3343,-77.04380798339844,-122.7734375,21.532474517822266,138.59881591796878
3344,-64.18603515625,-126.330078125,22.373950958251953,138.83444213867188
3345,-76.55014038085938,-114.69898986816406,9.59097385406494,136.95326232910156
3346,-64.55628204345703,-108.4832763671875,13.817060470581055,143.93939208984375
3347,-82.07771301269531,-111.6135711669922,12.15280532836914,138.34825134277344
3348,-67.60056304931639,-119.78899383544922,10.174397468566896,130.96194458007812
3349,-75.21499633789062,-117.71709442138672,5.215290546417236,134.10720825195312
3350,-77.76187133789062,-107.5744857788086,11.808733940124512,139.07379150390622
3351,-74.90458679199219,-117.72830963134766,11.85735321044922,138.81573486328122
3352,-69.92304229736328,-122.27228546142578,7.65370512008667,135.655517578125
3353,-73.6405029296875,-113.12823486328124,4.6206464767456055,136.5418701171875
3354,-80.08060455322266,-113.91735076904295,14.819353103637695,143.6215057373047
3355,-72.35771179199219,-114.68777465820312,11.576860427856445,135.77145385742188
3356,-67.82869720458984,-129.19483947753906,20.541400909423828,134.58590698242188
3357,-76.46038818359375,-114.69151306152344,9.99862289428711,132.66734313964844
3358,-73.47968292236328,-109.70248413085938,16.528488159179688,141.9385528564453
3359,-72.20437622070312,-124.79298400878906,16.988494873046875,142.96702575683594
3360,-71.10110473632812,-121.59536743164062,15.806687355041506,134.129638671875
3361,-82.73967742919922,-119.11207580566406,3.057368278503418,142.1367645263672
3362,-81.46437072753906,-106.74048614501952,11.83117389678955,140.24812316894528
3363,-74.05562591552734,-118.3416519165039,14.217229843139648,135.34510803222656
3364,-78.7005844116211,-128.25239562988278,12.41833782196045,133.52003479003906
3365,-72.1146240234375,-109.2237777709961,9.920084953308104,141.40748596191406
3366,-70.59996032714844,-110.7496566772461,11.902231216430664,142.54067993164062
3367,-77.01014709472656,-125.32405090332031,7.4218316078186035,133.08995056152344
3368,-75.23743438720703,-127.4520492553711,8.027695655822754,136.74383544921878
3369,-82.54146575927734,-117.35432434082031,-0.12528665363788605,135.2740478515625
3370,-77.15974426269531,-109.9493179321289,2.623539924621582,139.45152282714844
3371,-69.78092193603516,-121.48316955566406,8.992588996887207,136.82611083984378
3372,-65.90264892578125,-127.3286361694336,1.0976606607437134,131.12275695800778
3373,-77.79927062988281,-116.90553283691406,-1.41181218624115,134.74298095703122
3374,-80.8697280883789,-112.67196655273438,9.437637329101562,144.5489959716797
3375,-74.53059387207031,-123.30450439453124,7.6350059509277335,135.37876892089844
3376,-68.03813171386719,-130.13729858398438,12.762408256530762,132.55140686035156
3377,-74.87092590332031,-121.2662582397461,7.6163063049316415,141.02601623535156
3378,-77.00640869140625,-103.1427001953125,15.503755569458008,141.60195922851562
3379,-70.91411590576172,-108.24392700195312,19.539106369018555,142.30880737304688
3380,-64.91531372070311,-119.45614624023438,14.875452041625975,135.93226623535156
3381,-84.61336517333984,-125.35770416259766,4.792681694030762,134.96363830566406
3382,-73.07951354980469,-108.06814575195312,10.009841918945312,146.14219665527344
3383,-71.86030578613281,-113.4236831665039,14.052674293518065,143.9805450439453
3384,-65.80166625976561,-122.98661041259766,11.300107955932615,136.47830200195312
3385,-76.53892517089844,-121.04560089111328,8.599900245666504,138.55767822265622
3386,-63.67366790771485,-99.0662078857422,17.250288009643555,145.08755493164062
3387,-85.76899719238281,-121.0493392944336,9.628372192382812,138.42678833007812
3388,-78.68562316894531,-118.18831634521484,6.520515441894531,122.83514404296876
3389,-66.48233032226561,-114.79622650146484,3.3976991176605225,127.71571350097656
3390,-76.56136322021484,-112.9823760986328,11.075714111328123,136.87472534179688
3391,-63.11642074584961,-112.50366973876952,18.97064208984375,138.9241943359375
3392,-81.41949462890625,-130.20088195800778,8.985109329223633,127.04253387451172
3393,-77.52999877929688,-115.47689056396484,0.24870334565639496,124.1702880859375
3394,-74.8447494506836,-106.0934829711914,9.10478687286377,140.71934509277344
3395,-69.94921875,-117.20846557617188,11.636698722839355,135.97341918945312
3396,-74.87466430664062,-122.29098510742188,10.275375366210938,130.76373291015622
3397,-75.51419067382812,-107.40618896484376,5.260169506072998,139.986328125
3398,-79.48222351074219,-112.09602355957031,7.5078492164611825,137.55165100097656
3399,-70.87671661376953,-115.23753356933594,13.521608352661133,139.41038513183594
3400,-70.79069519042969,-122.06285095214844,10.092120170593262,131.253662109375
3401,-64.98262786865234,-118.19953918457031,12.91574478149414,131.43316650390622
3402,-86.64039611816406,-110.4280242919922,4.601946830749512,142.86978149414062
3403,-77.156005859375,-120.9521026611328,10.985956192016602,135.02348327636722
3404,-75.72736358642578,-116.7073211669922,10.383831977844238,133.76687622070312
3405,-72.68682861328125,-120.99324035644531,5.1629319190979,134.43630981445312
3406,-74.8858871459961,-101.08949279785156,10.204317092895508,137.67506408691406
3407,-78.09471893310547,-121.66642761230469,9.90512466430664,132.61872863769528
3408,-73.52830505371094,-118.78670501708984,8.278268814086914,130.92454528808594
3409,-78.22935485839844,-112.5597686767578,8.252089500427246,128.4075927734375
3410,-73.39366912841797,-115.9294204711914,7.6350059509277335,131.95301818847656
3411,-63.43057250976562,-113.65181732177734,12.803547859191895,134.44378662109378
3412,-77.02510833740234,-129.123779296875,0.9368449449539183,127.1360321044922
3413,-74.69889068603516,-118.3379135131836,2.859153509140014,133.75564575195312
3414,-70.51768493652344,-112.98611450195312,5.428464889526367,132.62994384765622
3415,-73.88359069824219,-120.34249877929688,8.106233596801758,131.16389465332028
3416,-69.46303558349611,-130.80299377441406,3.07980751991272,118.57913970947266
3417,-76.10696411132812,-115.47315216064452,5.624809741973877,131.12089538574222
3418,-80.54996490478516,-114.09687042236328,9.806017875671387,137.68815612792972
3419,-76.73900604248047,-126.247802734375,7.820130825042725,130.60478210449222
3420,-72.66999816894531,-125.77657318115234,9.835936546325684,133.27880859375
3421,-86.75071716308594,-134.38957214355472,3.1602153778076167,130.13356018066406
3422,-68.01381683349611,-113.87621307373048,9.259992599487305,137.91255187988278
3423,-79.68978881835938,-125.12957000732422,3.695021152496338,130.26071166992188
3424,-77.29624938964844,-131.0311279296875,1.3426240682601929,122.46302032470705
3425,-80.98005676269531,-116.64373779296876,3.1190764904022217,134.71867370605472
3426,-77.90959930419922,-101.09697723388672,5.692127704620361,141.0428466796875
3427,-80.44525146484375,-116.12763214111328,9.720000267028807,135.24226379394528
3428,-77.24763488769531,-132.44856262207028,7.6480956077575675,129.28834533691406
3429,-77.48324584960938,-105.6933135986328,9.091696739196776,136.37545776367188
3430,-79.5514144897461,-108.94328308105469,14.08820343017578,144.79022216796875
3431,-71.94071197509766,-118.00880432128906,11.892881393432615,133.04319763183594
3432,-66.43932342529297,-129.30329895019528,14.196660041809082,128.7423095703125
3433,-83.72514343261719,-112.3204116821289,11.129941940307617,131.48365783691406
3434,-76.53330993652344,-110.63745880126952,15.808557510375975,133.95947265625
3435,-68.70196533203125,-119.18687438964844,21.624101638793945,137.68815612792972
3436,-72.54657745361328,-118.11351776123048,15.071796417236328,130.65341186523438
3437,-78.08163452148438,-118.61466979980469,6.361569881439209,134.44940185546878
3438,-84.82466888427734,-105.6297378540039,11.253358840942383,138.1556396484375
3439,-65.58662414550781,-112.87017822265624,21.036937713623047,134.86079406738278
3440,-74.3155517578125,-136.07626342773438,15.74871826171875,131.56968688964844
3441,-86.14111328125,-115.2076187133789,6.0474181175231925,127.27627563476562
3442,-71.69388580322266,-100.37891387939452,16.878168106079098,140.43698120117188
3443,-78.30602264404297,-114.39231872558594,15.666440963745115,133.50694274902344
3444,-71.45452880859375,-120.72023010253906,15.43830680847168,132.44482421875
3445,-86.15607452392578,-110.7758331298828,6.294251441955566,131.82772827148438
3446,-82.77894592285156,-108.59547424316406,7.176867961883545,136.95887756347656
3447,-73.39927673339844,-112.97116088867188,12.132235527038574,134.87574768066406
3448,-66.51038360595703,-125.3427505493164,9.357229232788086,129.91290283203122
3449,-86.51136779785156,-130.42152404785156,2.337437391281128,133.10678100585938
3450,-78.26114654541016,-111.66593170166016,9.989273071289062,140.30609130859378
3451,-78.9567642211914,-115.6938018798828,13.848849296569824,137.23936462402344
3452,-77.46080780029297,-125.92243194580078,6.933774471282959,127.54554748535156
3453,-74.06871795654297,-121.35601043701172,0.8115583062171936,130.72821044921878
3454,-84.0916519165039,-122.18627166748048,4.132589340209962,136.89529418945312
3455,-81.1184310913086,-118.05368041992188,5.295698165893555,127.20895385742188
3456,-76.33883666992188,-132.5570068359375,4.618776321411133,123.60743713378906
3457,-80.3143539428711,-116.67739868164062,1.5857175588607788,130.66836547851562
3458,-74.09864044189453,-103.43067169189452,3.5155060291290283,133.88093566894528
3459,-80.64346313476562,-115.55916595458984,7.644355297088622,132.49343872070312
3460,-75.37394714355469,-120.70526885986328,4.480400085449219,124.4825668334961
3461,-74.42401123046875,-115.07672119140624,5.912781715393066,134.15394592285156
3462,-78.66131591796875,-109.9455795288086,5.9427008628845215,135.238525390625
3463,-79.31205749511719,-124.54241180419922,7.26662540435791,133.66777038574222
3464,-74.49880981445312,-131.01617431640622,5.239599704742432,125.38762664794922
3465,-84.09912872314453,-119.2616729736328,7.980946540832519,133.58174133300778
3466,-91.7846221923828,-114.9869613647461,9.192673683166504,137.89384460449222
3467,-79.39807891845703,-121.04186248779295,10.426840782165527,128.77223205566406
3468,-78.90814971923828,-123.03897094726562,7.363862991333008,125.0398178100586
3469,-71.64152526855469,-126.71529388427734,2.5169527530670166,126.3113784790039
3470,-91.72478485107422,-108.89466857910156,1.783932328224182,129.16117858886722
3471,-74.08741760253906,-123.38304138183594,15.599123001098633,132.91978454589844
3472,-78.8744888305664,-120.51827239990234,5.108703136444092,124.19085693359376
3473,-85.96907806396484,-119.7029800415039,5.8604230880737305,126.30016326904295
3474,-74.32677459716797,-102.51065826416016,15.071796417236328,133.92955017089844
3475,-80.34426879882812,-119.78899383544922,6.668241500854492,132.8973388671875
3476,-79.85060119628906,-128.55532836914062,3.4594075679779053,128.25613403320312
3477,-90.90200805664062,-110.89551544189452,-1.922308564186096,125.27542877197266
3478,-90.7374496459961,-116.10519409179688,-4.2560062408447275,128.01676940917972
3479,-74.2744140625,-126.53203582763672,3.672581672668457,124.14224243164062
3480,-87.05364990234375,-127.75872039794922,1.8662101030349727,123.88792419433594
3481,-84.90320587158203,-126.10942840576172,-2.614190101623535,126.38617706298828
3482,-76.2827377319336,-118.90637969970705,2.9993996620178223,129.83436584472656
3483,-91.05908203125,-145.25772094726562,-1.41742205619812,122.5527801513672
3484,-74.17717742919922,-134.15394592285156,3.425748348236084,121.29617309570312
3485,-78.9156265258789,-114.71768951416016,0.5460253953933716,131.72676086425778
