,T7,F8,Cz,P4
20400,-138.08645629882812,-125.43811798095705,-15.703840255737305,136.11366271972656
20401,-116.28658294677734,-82.32828521728516,0.6582223773002625,169.63812255859375
20402,-98.17798614501952,-83.13984680175781,13.867548942565918,181.2692108154297
20403,-115.52364349365234,-101.31575775146484,-2.07190465927124,154.7720184326172
20404,-132.62620544433594,-119.43557739257812,-11.2944974899292,140.58657836914062
20405,-109.98484802246094,-83.71205139160156,8.467133522033691,164.4097442626953
20406,-95.6610336303711,-71.14598846435547,29.799522399902344,183.88340759277344
20407,-112.75237274169922,-104.46475219726562,10.367002487182617,155.8004913330078
20408,-134.87762451171878,-112.08293151855469,-7.034751892089844,144.6144561767578
20409,-110.41119384765624,-84.27677917480469,12.81289768218994,167.95143127441406
20410,-91.68177795410156,-67.54072570800781,29.66862678527832,186.84539794921875
20411,-111.14795684814452,-102.3105697631836,3.276152372360229,159.7386016845703
20412,-131.50048828125,-120.2733154296875,-11.750765800476074,147.2772674560547
20413,-112.25870513916016,-82.3918685913086,3.795998573303223,171.86709594726562
20414,-103.2530288696289,-70.69719696044922,20.97709846496582,180.5586242675781
20415,-115.98365020751952,-104.80134582519531,6.997352600097656,153.9754180908203
20416,-133.95387268066406,-118.64645385742188,-10.804571151733398,143.23068237304688
20417,-116.79520416259766,-82.38812255859375,8.381115913391112,167.47271728515625
20418,-96.76055908203124,-59.66823196411133,27.177852630615234,171.55294799804688
20419,-117.4870834350586,-105.22769165039062,-0.1907348930835724,143.9300537109375
20420,-130.79365539550778,-110.396240234375,-8.654128074645996,137.609619140625
20421,-119.76468658447266,-77.85163116455078,7.446140766143799,163.5458221435547
20422,-97.34398651123048,-60.46857070922852,24.619760513305664,188.5358428955078
20423,-119.82452392578124,-90.1035385131836,3.9792535305023193,153.56028747558594
20424,-138.37068176269528,-110.0185089111328,-6.836536884307861,145.81495666503906
20425,-118.50434112548828,-75.97419738769531,12.177114486694336,173.32192993164062
20426,-97.19438934326172,-67.88853454589844,18.938854217529297,183.53184509277344
20427,-120.49396514892578,-89.14612579345703,6.271812438964844,165.23626708984375
20428,-134.62330627441406,-99.08677673339844,-11.152381896972656,143.0698699951172
20429,-110.02598571777344,-89.99507904052734,6.735559940338135,168.65078735351562
20430,-103.776611328125,-67.64917755126953,23.228519439697266,178.4418487548828
20431,-124.75371551513672,-101.3232421875,-3.1489958763122563,153.291015625
20432,-137.9967041015625,-116.21552276611328,-10.426840782165527,144.9772186279297
20433,-116.63439178466795,-82.27218627929688,8.152981758117676,160.580078125
20434,-98.56319427490234,-72.27543640136719,19.391382217407227,180.7718048095703
20435,-123.8523941040039,-97.44496154785156,-4.1438093185424805,155.6322021484375
20436,-139.59364318847656,-115.18331146240234,-15.225132942199707,136.43528747558594
20437,-117.91343688964844,-76.99144744873047,4.678614616394043,164.03575134277344
20438,-111.17039489746094,-73.0009765625,13.022331237792967,173.66226196289062
20439,-119.07280731201172,-90.59346771240234,-2.19158148765564,153.889404296875
20440,-140.44633483886722,-105.41094970703124,-17.338176727294922,143.06239318847656
20441,-119.18500518798828,-77.89276885986328,4.570157527923584,160.36317443847656
20442,-103.32034301757812,-68.28496551513672,23.28835678100586,185.61871337890625
20443,-120.79315948486328,-98.72026824951172,0.3291111886501312,151.36123657226562
20444,-136.02951049804688,-111.89219665527344,-10.13512897491455,138.56703186035156
20445,-115.7966537475586,-78.62578582763672,11.346856117248535,166.952880859375
20446,-100.1975326538086,-65.51369476318361,21.86719512939453,176.0109100341797
20447,-126.3805694580078,-98.06578826904295,3.6838014125823975,157.2852325439453
20448,-138.95785522460938,-115.74803161621094,-17.626148223876953,135.42926025390622
20449,-127.97002410888672,-83.17350769042969,4.0877108573913565,163.78143310546875
20450,-102.5087890625,-71.4975357055664,21.743778228759766,175.87252807617188
20451,-119.68988800048828,-103.54100036621094,-2.0457253456115723,155.40780639648438
20452,-139.38046264648438,-112.44196319580078,-19.66813468933105,131.13211059570312
20453,-112.17642974853516,-82.44796752929688,3.4968063831329346,162.33409118652344
20454,-94.54280090332031,-66.68802642822266,25.2181453704834,183.6403045654297
20455,-117.15797424316406,-103.2081527709961,0.5198460817337036,158.3810272216797
20456,-145.5812225341797,-118.16400909423828,-23.26591682434082,136.37171936035156
20457,-119.00548553466795,-79.13441467285156,8.018345832824707,172.98907470703125
20458,-107.11260223388672,-70.85801696777344,18.482585906982425,180.42025756835938
20459,-117.41229248046876,-90.0624008178711,1.4286417961120603,154.04273986816406
20460,-139.89656066894528,-116.29779815673828,-12.678260803222654,135.78828430175778
20461,-117.71521759033205,-80.77249145507812,7.865009784698486,163.3812713623047
20462,-96.56982421875,-62.342262268066406,25.91002655029297,175.84262084960938
20463,-126.26463317871094,-102.69578552246094,2.25141978263855,151.02464294433594
20464,-130.79739379882812,-111.99691772460938,-13.826410293579102,140.59779357910156
20465,-120.96893310546876,-92.51951599121094,-2.614190101623535,158.6727294921875
20466,-102.92017364501952,-73.43854522705078,13.919907569885256,164.65283203125
20467,-124.37972259521484,-110.55705261230469,-12.341670036315918,148.64981079101562
20468,-136.87098693847656,-116.91862487792969,-21.990612030029297,139.54689025878906
20469,-113.78832244873048,-88.2373275756836,-3.5603847503662114,156.3427734375
20470,-98.7539291381836,-73.7826156616211,23.46413230895996,174.88894653320312
20471,-119.90306091308594,-106.8059310913086,4.155028820037842,150.156982421875
20472,-133.21710205078122,-112.16520690917969,-14.110642433166506,132.77392578125
20473,-126.68724060058594,-83.94766235351562,6.526125431060791,157.64801025390625
20474,-107.07520294189452,-61.29135131835938,20.677906036376953,172.76841735839844
20475,-129.88485717773438,-109.6781768798828,2.034505605697632,150.9760284423828
20476,-140.2855224609375,-105.2613525390625,-6.339130401611327,145.3362579345703
20477,-123.98329162597656,-79.39620971679688,7.3526434898376465,162.868896484375
20478,-93.78733825683594,-61.64664077758789,29.283416748046875,181.1270904541016
20479,-125.44559478759766,-106.66007995605469,6.155875205993652,152.55052185058594
20480,-139.95266723632812,-109.94744873046876,-4.992766380310059,145.09689331054688
20481,-118.29864501953124,-75.07662200927734,9.772358894348145,167.69711303710938
20482,-104.06458282470705,-68.13910675048828,26.7028865814209,183.13168334960938
20483,-124.61907958984376,-97.2093505859375,-0.4637475907802582,154.16989135742188
20484,-138.55393981933594,-114.42411041259766,-18.97625160217285,141.5028533935547
20485,-120.6959228515625,-84.3216552734375,4.136329174041748,156.65318298339844
20486,-104.0122299194336,-71.50502014160156,21.08181571960449,169.3651123046875
20487,-110.59071350097656,-100.83331298828124,5.9726200103759775,156.35400390625
20488,-137.25245666503906,-113.5938491821289,-16.739791870117188,142.11619567871094
20489,-121.23820495605469,-82.2160873413086,2.199061155319214,159.4842987060547
20490,-105.22021484375,-66.22801971435547,26.16434097290039,176.50457763671875
20491,-116.28658294677734,-96.71942138671876,3.1153366565704346,156.48863220214844
20492,-132.38685607910156,-109.01995086669922,-12.076136589050293,140.37715148925778
20493,-116.02104949951172,-81.6326675415039,14.346256256103516,163.48599243164062
20494,-95.73583221435548,-55.1541748046875,28.8271484375,179.19357299804688
20495,-121.17089080810548,-106.73113250732422,9.338530540466307,163.25411987304688
20496,-138.52027893066406,-111.03202056884766,-6.230673313140869,143.70565795898438
20497,-114.46150970458984,-81.19883728027344,8.889741897583008,165.36715698242188
20498,-92.50081634521484,-61.68777847290039,30.53254318237305,182.3238677978516
20499,-112.7224578857422,-106.05421447753906,7.771512031555176,153.36207580566406
20500,-142.9146728515625,-111.93707275390624,-12.491266250610352,145.7139892578125
20501,-117.13179779052734,-76.78575897216797,12.11353588104248,164.80616760253906
20502,-99.55426788330078,-59.6607551574707,22.45809936523437,172.26353454589844
20503,-123.59434509277344,-97.63943481445312,0.6133435964584351,149.8129119873047
20504,-141.54586791992188,-110.46355438232422,-13.244855880737305,140.3154296875
20505,-110.51217651367188,-78.86139678955078,13.061600685119627,164.50137329101562
20506,-98.49961853027344,-61.86355590820313,24.558053970336914,178.16322326660156
20507,-126.29080963134766,-94.95044708251952,4.059661388397217,158.02386474609375
20508,-139.45152282714844,-98.29766082763672,-7.679884433746338,143.3634490966797
20509,-110.53087615966795,-72.2193374633789,19.314712524414066,175.85195922851562
20510,-96.51747131347656,-60.67052841186523,35.22424697875977,183.7281951904297
20511,-121.85154724121094,-97.32902526855469,13.263555526733398,165.6831817626953
20512,-135.58071899414062,-101.48031616210938,-8.626079559326174,143.43824768066406
20513,-110.90486145019531,-71.17964935302734,18.92202377319336,169.5203094482422
20514,-98.7988052368164,-61.89721298217773,25.489288330078125,186.0992889404297
20515,-115.75177001953124,-96.34169006347656,7.455490589141847,161.93954467773438
20516,-141.429931640625,-110.5159149169922,-15.59725284576416,141.11952209472656
20517,-115.06362915039062,-79.95719146728516,1.5464485883712769,167.5792999267578
20518,-97.3926010131836,-65.28556060791016,17.291427612304688,181.49546813964844
20519,-114.87289428710938,-99.5168685913086,-4.549588203430176,159.30665588378906
20520,-143.10914611816406,-106.25616455078124,-21.689550399780273,145.26705932617188
20521,-119.1476058959961,-78.86139678955078,0.7835090160369873,165.6719512939453
20522,-100.36956787109376,-59.97864532470703,13.910557746887207,175.1264190673828
20523,-117.01586151123048,-96.03501892089844,1.969057321548462,162.77728271484375
20524,-135.32267761230472,-103.38392639160156,-17.99078941345215,132.68977355957028
20525,-115.32168579101562,-69.61637115478516,8.813074111938477,162.2088165283203
20526,-100.72111511230469,-65.91761016845703,23.78015327453613,172.99093627929688
20527,-119.30841827392578,-93.59660339355469,0.5291958451271057,157.1075897216797
20528,-133.01141357421878,-107.10138702392578,-10.73912239074707,139.06257629394528
20529,-118.58661651611328,-74.51189422607422,16.079700469970707,163.18118286132812
20530,-94.37824249267578,-45.51645278930664,30.160423278808594,182.3743438720703
20531,-107.85684204101562,-95.4478530883789,7.062800884246826,164.20965576171875
20532,-133.41157531738278,-102.9725341796875,-12.21638298034668,140.98861694335938
20533,-113.8332061767578,-75.07288360595703,7.451750755310059,173.21533203125
20534,-96.01258087158205,-64.88539123535156,17.646717071533203,183.3055877685547
20535,-127.52871704101562,-94.33336639404295,-4.740323066711426,156.54286193847656
20536,-136.22398376464844,-113.94540405273438,-18.64901161193848,136.90090942382812
20537,-115.89015197753906,-77.0325927734375,1.4753905534744265,161.4047393798828
20538,-95.75078582763672,-64.68344116210939,18.30867958068848,170.27577209472656
20539,-118.530517578125,-93.98555755615234,-3.3715198040008545,156.82708740234375
20540,-139.50013732910156,-112.7448959350586,-18.013227462768555,136.90838623046878
20541,-114.84671783447266,-78.17325592041016,1.5127894878387451,156.3932647705078
20542,-95.63858795166016,-72.15202331542969,23.61559867858887,178.0061492919922
20543,-113.612548828125,-92.14178466796876,0.8134282231330872,151.83807373046875
20544,-132.80570983886722,-115.1758270263672,-10.09585952758789,139.65721130371094
20545,-108.09246063232422,-73.90229034423828,13.23737621307373,163.40184020996094
20546,-98.95214080810548,-63.76716232299805,24.59171295166016,178.215576171875
20547,-114.0164566040039,-90.59346771240234,11.63295841217041,159.5796661376953
20548,-125.72608947753906,-103.14456939697266,-10.275375366210938,140.83154296875
20549,-115.96868896484376,-63.677406311035156,11.300107955932615,161.9320526123047
20550,-97.49732208251952,-59.60465621948242,29.064632415771484,186.64157104492188
20551,-112.4718780517578,-92.3960952758789,9.258122444152832,158.83541870117188
20552,-138.68858337402344,-108.53750610351562,-13.76470184326172,141.0484619140625
20553,-106.69373321533205,-69.90434265136719,4.796421527862549,168.58908081054688
20554,-100.44810485839844,-65.39775848388672,15.60847282409668,180.44830322265625
20555,-116.89244079589844,-87.92317962646484,-1.265956163406372,157.74337768554688
20556,-133.62101745605472,-107.25098419189452,-24.98440170288086,146.91636657714844
20557,-110.8412857055664,-69.56401062011719,5.604239940643311,172.0746612548828
20558,-99.29995727539062,-61.90095520019531,12.874605178833008,176.76449584960938
20559,-113.38441467285156,-94.70735931396484,-8.416645050048826,156.2212371826172
20560,-132.3157958984375,-108.45523071289062,-23.821292877197266,128.90499877929688
20561,-105.1155014038086,-66.14574432373047,5.263909339904785,162.6688232421875
20562,-87.6539077758789,-56.31354522705078,15.58603286743164,170.51138305664062
20563,-111.43592834472656,-82.41804504394531,3.053628206253052,154.77015686035156
20564,-125.28103637695312,-101.96276092529295,-15.271881103515625,145.65975952148438
20565,-107.8680648803711,-63.105201721191406,5.297568321228027,168.3048553466797
20566,-87.00316619873047,-53.224388122558594,23.85869216918945,178.226806640625
20567,-114.97013092041016,-89.83800506591797,-2.298168420791626,154.84495544433594
20568,-131.19007873535156,-102.47512817382812,-12.586633682250975,139.03265380859378
20569,-115.61339569091795,-73.62928009033203,3.408918857574463,168.0916748046875
20570,-93.04684448242188,-64.44782257080078,24.98440170288086,177.87899780273438
20571,-114.56622314453124,-96.3865737915039,1.5464485883712769,156.5092010498047
20572,-140.09104919433594,-102.35919189453124,-17.504602432250973,141.4224395751953
20573,-112.31480407714844,-70.94776916503906,5.967010498046875,169.35202026367188
20574,-99.44580841064452,-70.11751556396484,17.788833618164062,183.6047821044922
20575,-121.06616973876952,-89.48645782470703,-4.153158664703368,157.21231079101562
20576,-134.63078308105472,-99.37849426269531,-13.323393821716307,144.6873779296875
20577,-112.58782196044922,-64.24213409423828,4.3214545249938965,165.27552795410156
20578,-99.198974609375,-48.01096725463867,27.101184844970703,184.5808868408203
20579,-112.61399841308594,-82.21983337402344,8.166071891784668,167.5045166015625
20580,-136.11552429199222,-97.69927978515624,-8.39046573638916,152.54490661621094
20581,-108.36547088623048,-56.74737167358398,10.978476524353027,168.49932861328125
20582,-94.20620727539062,-47.36770248413086,27.81550598144531,183.90771484375
20583,-114.58118438720705,-74.76246643066406,9.467556953430176,165.7168426513672
20584,-137.46189880371094,-92.04828643798828,-8.454043388366701,142.00213623046875
20585,-114.9327392578125,-54.85498428344727,20.866771697998047,166.13197326660156
20586,-94.40068817138672,-48.53455352783203,28.761699676513672,182.72964477539062
20587,-114.40167236328124,-81.56160736083984,11.438484191894533,161.32994079589844
20588,-135.10202026367188,-89.89784240722656,-4.613166809082031,149.0032196044922
20589,-113.4292984008789,-69.5677490234375,12.048088073730467,164.22836303710938
20590,-108.34303283691406,-45.97272109985352,27.269479751586914,194.1288604736328
20591,-123.25775146484376,-83.59611511230469,8.117452621459961,161.37855529785156
20592,-136.55683898925778,-93.9032745361328,-9.946264266967773,151.594970703125
20593,-115.08607482910156,-70.32321166992189,5.723917007446289,168.43948364257812
20594,-95.04768371582031,-53.92748641967773,21.94012260437012,181.2823028564453
20595,-116.81016540527344,-88.06155395507812,-8.854212760925293,155.5480499267578
20596,-129.89607238769528,-105.35111236572266,-13.30095386505127,148.4235382080078
20597,-102.54244995117188,-73.21041107177734,8.375506401062013,166.17684936523438
20598,-94.14636993408205,-52.85787582397461,18.061847686767575,184.91000366210938
20599,-115.20201110839844,-85.1070327758789,-0.2898422479629517,158.0350799560547
20600,-117.90595245361328,-101.7234115600586,-14.52764129638672,145.63357543945312
20601,-112.21009063720705,-70.9889144897461,-3.2555828094482417,156.66253662109375
20602,-84.85646057128906,-63.16878128051758,17.49338150024414,179.50584411621094
20603,-108.8890609741211,-100.1975326538086,-0.9817237257957458,150.91806030273438
20604,-126.96773529052734,-113.612548828125,-9.67699146270752,142.06570434570312
20605,-106.21502685546876,-79.78141784667969,7.945417404174805,161.49822998046875
20606,-80.95948791503906,-56.2462272644043,32.24728775024414,177.4189910888672
20607,-100.03671264648438,-77.38414001464844,18.925764083862305,171.15090942382812
20608,-119.5702133178711,-85.30899047851562,0.24122354388237,161.03448486328125
20609,-106.18885040283205,-56.50053787231445,17.31760597229004,187.44940185546875
20610,-82.96407318115234,-44.94424819946289,22.175737380981445,195.15359497070312
20611,-116.16316223144531,-76.24346923828125,2.788095474243164,171.81288146972656
20612,-132.68977355957028,-104.45353698730469,-19.490488052368164,147.49978637695312
20613,-106.85829162597656,-60.22921752929688,3.790388584136963,171.00131225585938
20614,-85.91484832763672,-51.67606735229492,24.311220169067386,194.93667602539062
20615,-109.6520004272461,-77.68333435058594,7.257276058197021,174.06430053710938
20616,-130.29624938964844,-89.33686065673828,-7.5863871574401855,152.20831298828125
20617,-110.37379455566406,-65.03125,12.9905424118042,171.75677490234375
20618,-85.08833312988281,-46.60850143432617,35.183109283447266,191.30897521972656
20619,-112.89449310302734,-85.3837890625,5.406025409698486,156.8570098876953
20620,-134.82901000976562,-93.70506286621094,-11.45344352722168,144.69485473632812
20621,-112.58782196044922,-59.06610870361328,17.42232322692871,168.02809143066406
20622,-100.384521484375,-42.6367301940918,33.63105010986328,188.6947784423828
20623,-114.29695129394531,-75.21125793457031,15.974982261657715,159.059814453125
20624,-131.30975341796878,-89.29572296142578,-6.808487892150879,140.244384765625
20625,-106.37210083007812,-62.20014572143555,10.89245891571045,168.6938018798828
20626,-98.0321273803711,-44.05414962768555,30.39603614807129,185.5009002685547
20627,-107.5688705444336,-69.05912017822266,5.6865177154541025,165.53732299804688
20628,-129.64924621582028,-96.2481918334961,-19.38203239440918,144.0964813232422
20629,-115.44884490966795,-61.23151016235352,-2.0176761150360107,169.1799774169922
20630,-96.49128723144531,-42.40111541748047,20.65359687805176,193.56787109375
20631,-104.11320495605469,-80.32743835449219,4.478530406951903,169.59510803222656
20632,-135.87991333007812,-93.38343048095705,-12.115406036376953,155.65277099609375
20633,-110.39249420166016,-66.18313598632811,6.337260246276856,178.4287567138672
20634,-94.82703399658205,-46.03629684448242,25.0068416595459,186.9108428955078
20635,-121.73561096191406,-80.95574188232422,-1.9653173685073853,162.4967803955078
20636,-131.00308227539062,-93.06928253173828,-13.450550079345705,150.47674560546875
20637,-114.46898651123048,-51.50029373168945,18.51811408996582,167.39605712890625
20638,-98.63050842285156,-49.82107543945313,31.41329002380371,184.25552368164062
20639,-119.23735809326172,-61.6092414855957,18.697629928588867,166.21424865722656
20640,-133.99501037597656,-93.37969207763672,-5.776275634765625,140.35658264160156
20641,-116.04348754882812,-63.41187286376953,15.65709114074707,158.28565979003906
20642,-97.8900146484375,-51.03280639648438,27.73322868347168,175.04788208007812
20643,-117.33374786376952,-70.30825042724611,17.347526550292972,161.17660522460938
20644,-135.14689636230472,-85.17809295654297,5.974490165710449,139.97885131835938
20645,-105.76624298095705,-56.01061248779297,28.245594024658203,178.62322998046875
20646,-85.36882781982422,-36.70524978637695,40.60596466064453,182.22100830078125
20647,-110.29899597167969,-71.97250366210938,6.266202449798584,162.18637084960938
20648,-132.14749145507812,-88.12887573242188,-10.35765266418457,142.87353515625
20649,-108.9339370727539,-52.48388671875,3.681931495666504,175.22366333007812
20650,-96.01258087158205,-57.96284103393555,26.1624698638916,195.74822998046875
20651,-112.98798370361328,-74.00701141357422,7.9379377365112305,171.62962341308594
20652,-129.7689208984375,-91.5060043334961,-10.099599838256836,145.1660919189453
20653,-117.81620025634766,-56.35468292236328,9.190804481506348,174.56170654296875
20654,-96.03875732421876,-49.70888137817383,20.83685302734375,182.5015106201172
20655,-116.05470275878906,-75.81712341308594,7.040361881256104,156.3857879638672
20656,-136.27635192871094,-90.63460540771484,-11.920930862426758,140.32292175292972
20657,-114.5924072265625,-55.10181427001953,8.603639602661133,163.7159881591797
20658,-101.3643798828125,-36.52199172973633,25.91189765930176,176.80563354492188
20659,-118.59410095214844,-67.6192626953125,5.772535800933838,154.41859436035156
20660,-136.53439331054688,-85.45110321044922,-9.519915580749512,142.8997039794922
20661,-110.0185089111328,-45.15368270874024,11.169211387634276,165.22691345214844
20662,-97.66935729980469,-44.03919219970703,28.42510986328125,185.77392578125
20663,-115.5198974609375,-75.17012023925781,11.374905586242676,168.6788330078125
20664,-128.07473754882812,-90.87770080566406,-5.884732723236084,151.41546630859375
20665,-99.9432144165039,-55.36360931396485,8.697136878967285,171.17335510253906
20666,-93.23383331298828,-45.87922286987305,20.20854949951172,183.75064086914062
20667,-111.55560302734376,-78.51358795166016,-1.437991499900818,168.9742889404297
20668,-134.24931335449222,-99.1615753173828,-14.422924041748047,143.09791564941406
20669,-107.1313018798828,-62.99300384521485,2.761916160583496,174.54673767089844
20670,-87.16024017333984,-46.0923957824707,28.53730583190918,192.2476806640625
20671,-113.9080047607422,-67.52202606201172,10.29781436920166,165.61585998535156
20672,-136.90090942382812,-83.92522430419922,-11.62921905517578,132.68603515625
20673,-121.40650177001952,-50.84207153320313,11.038314819335938,161.6104278564453
20674,-95.05142974853516,-31.25247383117676,30.45213508605957,183.79551696777344
20675,-123.88605499267578,-58.26203155517578,9.950003623962402,157.0664520263672
20676,-138.25474548339844,-77.46267700195312,-7.358253002166747,138.76712036132812
20677,-112.15025329589844,-55.02327728271485,13.76470184326172,171.3566131591797
20678,-96.70072174072266,-33.74698638916016,33.395435333251946,183.8703155517578
20679,-111.40226745605469,-64.9901123046875,13.121438980102539,165.52984619140625
20680,-128.59085083007812,-80.05816650390625,-9.579753875732422,146.172119140625
20681,-112.427001953125,-53.3066635131836,15.952543258666992,175.53781127929688
20682,-100.10777282714844,-40.145957946777344,28.649503707885746,191.8811798095703
20683,-111.88097381591795,-77.68333435058594,5.708957195281982,168.00192260742188
20684,-135.01225280761722,-96.73438262939452,-23.98584747314453,145.1473846435547
20685,-111.6266632080078,-61.71769714355469,-1.2958753108978271,172.01856994628906
20686,-92.23902130126952,-50.2249870300293,23.85495185852051,188.4404754638672
20687,-119.37574005126952,-75.30101776123047,0.6339130401611328,155.8734130859375
20688,-129.78761291503906,-86.77503204345703,-11.371166229248047,157.3544158935547
20689,-108.43653106689452,-49.57798385620117,6.0941667556762695,175.59017944335938
20690,-92.9757843017578,-33.500152587890625,30.246440887451172,189.6334991455078
20691,-122.3863525390625,-72.71674346923828,7.275975227355957,150.98910522460938
20692,-141.14569091796875,-83.79432678222656,-7.735982894897461,138.98028564453122
20693,-117.0457763671875,-42.92470169067383,20.238468170166016,164.7369842529297
20694,-105.9420166015625,-28.76918029785156,35.14944839477539,178.42127990722656
20695,-120.47900390625,-56.56411743164063,19.13519859313965,155.76123046875
20696,-144.0515899658203,-74.8484878540039,7.911758422851562,139.4814453125
20697,-116.57080841064452,-42.10940170288086,22.28793334960937,168.390869140625
20698,-107.07520294189452,-29.135690689086914,40.47506713867188,189.48764038085938
20699,-121.39527893066406,-65.51369476318361,15.316760063171387,167.93833923339844
20700,-132.95156860351562,-85.88493347167969,-9.299261093139648,152.0587158203125
20701,-100.6799774169922,-60.00108337402344,8.95145034790039,172.875
20702,-104.40865325927734,-45.5987319946289,31.854597091674805,181.53662109375
20703,-113.64620971679688,-66.47111511230469,1.5240092277526855,163.6748504638672
20704,-130.50941467285156,-98.7763671875,-11.685317039489744,148.90225219726562
20705,-101.17738342285156,-57.60567855834961,7.8388304710388175,174.21575927734375
20706,-91.15444946289062,-52.36233901977539,18.49006462097168,181.55343627929688
20707,-121.27560424804688,-69.91742706298828,-3.9455945491790767,152.29246520996094
20708,-132.50653076171878,-82.02348327636719,-7.184347629547119,145.3661651611328
20709,-121.5224380493164,-45.06953430175781,7.131989002227782,159.4730682373047
20710,-104.14686584472656,-35.18497848510742,22.91436767578125,175.1656951904297
20711,-115.78916931152344,-57.74779510498047,18.766817092895508,153.77346801757812
20712,-142.0133514404297,-72.6849594116211,-4.3607234954833975,135.08892822265622
20713,-112.49806213378906,-30.674659729003906,26.55328941345215,168.38525390625
20714,-100.85575103759766,-25.70433235168457,40.03936767578125,182.05833435058597
20715,-119.89932250976562,-53.65634536743164,25.40888023376465,166.08148193359375
20716,-140.85023498535156,-74.5736083984375,1.2154674530029297,144.55087280273438
20717,-111.06193542480469,-47.16761779785156,19.088449478149414,179.5413818359375
20718,-98.68660736083984,-33.019577026367195,35.61506652832031,189.39974975585938
20719,-120.89039611816406,-63.20056915283203,16.074090957641598,169.06591796875
20720,-135.84625244140622,-78.7884750366211,-3.1340360641479488,148.3767852783203
20721,-104.44979858398438,-54.72221755981445,13.231765747070312,174.87771606445312
20722,-97.02609252929688,-31.59093475341797,35.155059814453125,187.8888397216797
20723,-118.26498413085938,-77.79365539550781,9.892035484313963,158.3885040283203
20724,-135.995849609375,-84.53669738769531,-6.8103580474853525,145.66162109375
20725,-114.13613891601562,-53.35715103149414,20.315135955810547,158.84103393554688
20726,-98.7165298461914,-37.38404083251953,24.15601348876953,185.5326995849609
20727,-116.1968231201172,-65.52304840087889,4.697314262390137,159.71617126464844
20728,-130.21397399902344,-71.94071197509766,-2.1317429542541504,149.10232543945312
20729,-110.04468536376952,-44.15325927734375,23.66608619689941,166.2348175048828
20730,-89.6397933959961,-34.59407424926758,35.903038024902344,179.9078826904297
20731,-117.14675903320312,-67.50145721435547,9.259992599487305,157.04214477539062
20732,-131.53788757324222,-80.04882049560547,-7.195567607879639,142.49766540527344
20733,-117.0233383178711,-52.49323654174805,10.056591033935547,165.06048583984375
20734,-92.00714874267578,-40.67515182495117,32.821361541748054,178.47177124023438
20735,-112.54293823242188,-75.20938873291016,7.0010929107666025,155.72943115234375
20736,-122.7079849243164,-81.29420471191406,-6.462547302246094,147.36328125
20737,-110.46729278564452,-51.80883407592773,17.10630226135254,172.8432159423828
20738,-97.54219818115234,-34.01813125610352,32.71664428710937,190.4656219482422
20739,-107.9540786743164,-58.207801818847656,14.54447078704834,165.591552734375
20740,-128.85264587402344,-73.80692291259766,-0.1047171950340271,146.48440551757812
20741,-122.17317962646484,-35.256038665771484,9.929434776306152,168.5647735595703
20742,-101.85430908203124,-33.995689392089844,32.35387420654297,184.25738525390625
20743,-109.91378784179688,-63.92237091064453,17.72712516784668,147.09774780273438
20744,-138.28466796875,-80.99501037597656,-5.692127704620361,135.75836181640622
20745,-110.04468536376952,-44.95359802246094,18.175912857055664,163.45233154296875
20746,-95.64981079101562,-33.707717895507805,36.06759643554688,185.3905792236328
20747,-118.24254608154295,-62.83779907226562,9.151535034179688,148.2945098876953
20748,-131.61268615722656,-72.11649322509766,-3.6239631175994873,141.41683959960938
20749,-105.61290740966795,-46.59541320800781,21.399707794189453,171.02561950683594
20750,-88.37196350097656,-34.45195770263672,36.13117218017578,182.79135131835938
20751,-105.88591766357422,-59.32977294921875,15.670181274414062,166.76588439941406
20752,-122.55091094970705,-82.15438079833984,0.32163140177726746,150.54966735839844
20753,-107.8942413330078,-44.52350997924805,21.418407440185547,170.98822021484375
20754,-84.85272216796875,-33.25519180297852,37.21574401855469,186.04132080078125
20755,-115.19078826904295,-70.96833801269531,14.843663215637207,161.07748413085938
20756,-121.45137786865234,-83.13423919677734,4.428041458129883,152.2288818359375
20757,-114.37174987792969,-40.114166259765625,26.65052795410156,181.9573516845703
20758,-93.12911987304688,-35.26351547241211,37.77299118041992,188.0795745849609
20759,-115.47502136230469,-65.45947265625,17.469072341918945,170.4571533203125
20760,-135.150634765625,-77.18779754638672,3.4332282543182373,142.12367248535156
20761,-116.37259674072266,-47.19379806518555,21.30246925354004,170.52073669433594
20762,-85.5296401977539,-27.940792083740234,45.91849136352539,192.5898895263672
20763,-118.27246856689452,-63.51845932006836,10.561477661132812,154.92535400390625
20764,-135.28152465820312,-76.39867401123047,0.8040785193443298,148.78070068359375
20765,-111.82862091064452,-40.25254440307617,25.277984619140625,174.84780883789062
20766,-91.98471069335938,-22.424440383911133,40.2188835144043,190.88075256347656
20767,-105.26883697509766,-59.352210998535156,19.78407096862793,169.7017059326172
20768,-125.6961669921875,-68.10357666015625,1.4996998310089111,152.0269317626953
20769,-104.25157928466795,-55.0064468383789,20.887340545654297,179.31324768066406
20770,-87.21260070800781,-35.42807388305664,28.39706039428711,187.2119140625
20771,-109.7604522705078,-64.72644805908203,15.393427848815918,163.22793579101562
20772,-132.345703125,-79.09888458251953,-12.416467666625975,151.95213317871094
20773,-107.78204345703124,-40.34230041503906,10.191226959228516,167.4951629638672
20774,-97.08967590332031,-36.83053588867188,18.145994186401367,190.7311553955078
20775,-116.664306640625,-68.85530090332031,0.2730126976966858,160.3369903564453
20776,-140.4912109375,-83.67652130126953,-18.938854217529297,144.62567138671875
20777,-120.20225524902344,-50.46995162963867,-2.0569450855255127,163.9347686767578
20778,-92.18292236328124,-27.31622886657715,23.28835678100586,187.7205352783203
20779,-128.03359985351562,-67.09380340576172,2.670288562774658,161.5225372314453
20780,-143.56167602539062,-76.9447021484375,-6.066117763519287,143.1222381591797
20781,-109.78663635253906,-43.88772583007813,17.491512298583984,174.8665008544922
20782,-92.6915512084961,-36.3854866027832,34.646434783935554,192.9788360595703
20783,-115.0972900390625,-63.07715225219727,9.52926540374756,166.02537536621094
20784,-133.23580932617188,-82.51715087890625,-3.4369680881500244,149.9400634765625
20785,-109.84647369384766,-48.90667343139648,20.19171905517578,174.2830810546875
20786,-92.06324768066406,-27.89591407775879,35.74970245361328,187.38394165039062
20787,-114.50638580322266,-71.18525695800781,20.543270111083984,163.87493896484375
20788,-130.64031982421878,-83.45586395263672,-3.4107887744903564,149.72689819335938
20789,-117.3262710571289,-54.28838729858398,14.563170433044435,172.035400390625
20790,-94.2174301147461,-30.57368278503418,27.708919525146484,194.0858459472656
20791,-113.8332061767578,-72.91683197021484,10.247325897216797,157.4871826171875
20792,-133.62849426269528,-88.91986083984375,-10.20618724822998,147.22116088867188
20793,-117.51700592041016,-53.057960510253906,1.892389416694641,163.35882568359375
20794,-99.79361724853516,-33.816173553466804,30.016437530517575,184.47430419921875
20795,-117.2813949584961,-68.08113861083984,8.448433876037598,161.21212768554688
20796,-134.48118591308594,-79.73092651367188,-5.624809741973877,138.13320922851562
20797,-115.97616577148438,-57.01103591918945,12.749319076538086,170.06446838378906
20798,-89.27328491210938,-35.828243255615234,34.294883728027344,186.6322326660156
20799,-110.04094696044922,-68.70944213867189,13.964786529541016,158.16036987304688
20800,-128.43751525878906,-82.25535583496094,-3.616483211517334,146.424560546875
20801,-111.2825927734375,-54.80823516845703,17.985177993774414,170.49081420898438
20802,-85.75777435302734,-33.202831268310554,32.13322067260742,191.6997985839844
20803,-110.86746215820312,-73.08512115478516,13.97226619720459,160.6586151123047
20804,-121.8777313232422,-81.33908081054688,-2.165402173995972,149.6072235107422
20805,-106.69373321533205,-57.13071060180664,19.70553207397461,167.59239196777344
20806,-84.3403549194336,-40.33108139038086,35.91426086425781,181.2355499267578
20807,-112.2848892211914,-58.0245475769043,14.398614883422852,163.57948303222656
20808,-126.15243530273438,-89.90345764160156,-8.635429382324219,140.99423217773438
20809,-110.28778076171876,-55.98630142211914,11.855483055114744,169.17811584472656
20810,-93.23383331298828,-35.35701370239258,32.032241821289055,188.58071899414062
20811,-115.9238052368164,-67.56503295898439,11.474013328552244,168.2244415283203
20812,-135.62559509277344,-84.05425262451172,-6.642062187194824,148.0813446044922
20813,-114.63728332519531,-45.75019454956055,16.526617050170902,168.24313354492188
20814,-91.30778503417969,-34.814727783203125,33.632919311523445,183.58795166015625
20815,-110.9385223388672,-62.49372863769531,15.931973457336426,161.2757110595703
20816,-131.16015625,-81.73177337646484,1.2566063404083252,149.6782684326172
20817,-110.99462127685548,-46.00450897216797,17.532651901245114,175.99221801757812
20818,-91.31153106689452,-29.7546443939209,35.050342559814446,189.85227966308597
20819,-121.36536407470705,-53.84708023071289,14.073243141174315,166.63124084472656
20820,-142.8249053955078,-81.13713073730469,-5.961400508880615,149.76429748535156
20821,-110.1007843017578,-50.24181747436523,22.62265396118164,178.7373046875
20822,-92.84862518310548,-33.775035858154304,38.90991973876953,192.49264526367188
20823,-112.17642974853516,-75.21686553955078,15.677660942077635,166.2235870361328
20824,-129.79135131835938,-85.64744567871094,-3.6538822650909424,138.62687683105472
20825,-117.52448272705078,-55.38043975830078,12.51744556427002,159.05419921875
20826,-89.2994613647461,-52.71015167236328,31.17206573486328,174.01007080078125
20827,-113.2535171508789,-78.7884750366211,10.987826347351074,149.5997314453125
20828,-126.51520538330078,-84.58158111572266,0.9125356078147888,142.4901885986328
20829,-100.78095245361328,-49.23578262329102,26.98337745666504,174.24942016601562
20830,-75.76102447509766,-28.456899642944336,52.90462493896485,198.2633209228516
20831,-108.9937744140625,-61.12492370605469,29.55642890930176,171.51181030273438
20832,-135.46852111816406,-84.35718536376953,-1.4810004234313965,146.87709045410156
20833,-112.95806884765624,-53.33471298217773,19.00243186950684,167.60362243652344
20834,-98.57067108154295,-39.56440353393555,36.056373596191406,185.8281555175781
20835,-117.3225326538086,-65.21263885498047,18.44144630432129,167.15109252929688
20836,-127.5399398803711,-87.76797485351562,-2.861023426055908,147.75970458984375
20837,-118.52677917480469,-55.79556655883789,19.858869552612305,173.0414276123047
20838,-95.85550689697266,-43.13600540161133,33.44592666625977,185.9739990234375
20839,-113.02538299560548,-74.38661193847656,17.49525260925293,157.12815856933594
20840,-128.38516235351562,-85.8194808959961,7.476059913635254,145.3250274658203
20841,-112.53919982910156,-53.50300979614258,15.094236373901367,166.42555236816406
20842,-93.1552963256836,-39.51578140258789,41.47922897338867,173.70713806152344
20843,-109.89134979248048,-61.65599060058594,20.576929092407227,164.0133056640625
20844,-144.3021697998047,-78.63513946533203,-1.2940053939819336,137.87889099121094
20845,-120.87543487548828,-52.04070663452149,20.43107414245605,163.86746215820312
20846,-97.66188049316406,-30.083755493164066,37.52615737915039,180.99993896484372
20847,-112.70001220703124,-70.13060760498047,20.31887626647949,158.15289306640625
20848,-137.76483154296878,-79.42799377441406,3.754859447479248,145.85609436035156
20849,-118.23880767822266,-49.20586395263672,16.39946174621582,168.8976287841797
20850,-94.5577621459961,-41.86817932128906,37.02500915527344,191.0303497314453
20851,-105.9644546508789,-70.37369537353516,14.406094551086426,154.0277862548828
20852,-132.26716613769528,-81.8402328491211,-3.896975755691528,140.31356811523438
20853,-118.67263793945312,-53.72366333007813,16.335882186889652,169.55584716796875
20854,-90.23069763183594,-38.56958770751953,35.57392883300781,184.5304107666016
20855,-117.91343688964844,-67.04892730712889,19.30910301208496,166.37692260742188
20856,-132.73466491699222,-82.33390045166016,-1.6941746473312378,149.89144897460938
20857,-115.78543090820312,-58.75008773803711,17.420454025268555,173.83802795410156
20858,-96.37908935546876,-33.905933380126946,29.30959510803223,185.69351196289062
20859,-122.67433166503906,-64.84612274169922,13.684293746948242,161.3991241455078
20860,-135.07209777832028,-81.22314453125,-2.6029703617095947,145.403564453125
20861,-123.9084930419922,-52.84104537963867,11.096282958984377,168.7667236328125
20862,-97.92741394042969,-35.147579193115234,32.828842163085945,181.3140869140625
20863,-119.48793029785156,-69.84262847900389,8.549411773681639,149.42022705078125
20864,-135.40495300292972,-87.27804565429688,-8.545671463012695,144.11331176757812
20865,-117.40106964111328,-51.341346740722656,13.85258960723877,165.8084716796875
20866,-95.88168334960938,-36.32564926147461,28.56535530090332,182.73899841308597
20867,-113.53401184082031,-72.50543975830078,9.645201683044434,156.92245483398438
20868,-139.33558654785156,-89.7501220703125,-12.75679874420166,139.8984375
20869,-110.24290466308594,-59.85335922241211,15.681400299072266,166.96035766601562
20870,-98.271484375,-43.315521240234375,27.914613723754886,176.4821319580078
20871,-113.4891357421875,-61.43533706665039,13.875028610229492,158.61663818359375
20872,-127.97377014160156,-93.76303100585938,-6.473766803741455,145.7139892578125
20873,-120.7557601928711,-62.15339660644531,19.193166732788086,168.62460327148438
20874,-93.44326782226562,-48.31202697753906,36.972652435302734,188.06460571289062
20875,-118.22384643554688,-74.5549087524414,17.738346099853516,158.807373046875
20876,-137.82466125488278,-84.5516586303711,4.532758712768555,150.17193603515625
20877,-122.45741271972656,-54.49034118652344,24.12235450744629,165.86830139160156
20878,-93.18521881103516,-33.591781616210945,47.27233505249024,184.53414916992188
20879,-116.45113372802734,-71.89583587646484,26.246618270874023,154.18112182617188
20880,-130.25885009765622,-84.72369384765625,10.875629425048828,147.621337890625
20881,-113.39563751220705,-53.21129608154297,29.15999984741211,166.7209930419922
20882,-99.04937744140624,-43.39780044555664,41.02296447753906,176.788818359375
20883,-102.6546401977539,-75.41134643554688,23.785762786865234,159.03550720214844
20884,-128.13084411621094,-95.5731430053711,0.4001692831516266,135.70974731445312
20885,-108.06627655029295,-60.41808319091797,21.601661682128906,166.85189819335938
20886,-85.05467224121094,-38.08340072631836,45.4884033203125,180.2145538330078
20887,-105.30623626708984,-75.19068908691406,23.50527191162109,155.89773559570312
20888,-123.5681610107422,-87.12471008300781,7.532158374786378,144.49478149414062
20889,-107.3856201171875,-60.29840850830078,21.12669563293457,168.75177001953125
20890,-95.03646850585938,-42.417945861816406,33.40478515625,187.8888397216797
20891,-118.70255279541016,-65.44077301025389,16.25734519958496,172.6375274658203
20892,-130.73007202148438,-83.05569458007812,-2.038245439529419,147.12393188476562
20893,-113.10392761230469,-61.4577751159668,18.669580459594727,169.14071655273438
20894,-95.0663833618164,-31.74053001403809,30.81303596496582,187.27923583984372
20895,-117.67034149169922,-64.27017974853516,18.71819877624512,169.11453247070312
20896,-145.40170288085938,-88.42245483398438,9.985532760620117,139.86851501464844
20897,-119.36825561523438,-55.35052108764648,27.33866882324219,170.169189453125
20898,-101.88422393798828,-37.900146484375,38.89870071411133,187.1259002685547
20899,-116.3613739013672,-67.80812835693361,16.261085510253903,161.84042358398438
20900,-139.99380493164062,-89.17791748046875,1.1668487787246704,146.73123168945312
20901,-114.60362243652344,-51.1693115234375,18.75933837890625,175.5546417236328
20902,-99.18401336669922,-38.928619384765625,41.88314056396485,185.9253845214844
20903,-117.95457458496094,-69.22554779052734,12.693220138549805,156.6980743408203
20904,-136.0369873046875,-86.7208023071289,-11.93402099609375,144.31900024414062
20905,-116.97097778320312,-47.21997833251953,16.34336280822754,167.46524047851562
20906,-91.76031494140624,-34.738059997558594,41.92988967895508,191.9559783935547
20907,-110.91234588623048,-67.97080993652344,26.3569450378418,158.9775390625
20908,-130.00453186035156,-84.07482147216797,11.165471076965332,148.5058135986328
20909,-110.53461456298828,-59.6495361328125,25.23871421813965,174.55421447753906
20910,-101.35315704345705,-36.944602966308594,42.6367301940918,180.9868469238281
20911,-121.19332885742188,-67.32754516601561,22.72176170349121,169.26974487304688
20912,-130.93951416015622,-86.13924407958984,10.623186111450195,152.50376892089844
20913,-111.03575897216795,-59.62709426879883,24.741308212280273,169.12762451171875
20914,-89.75946807861328,-31.60402488708496,48.43731307983398,190.32537841796875
20915,-108.96011352539062,-69.24985504150389,26.46914100646973,168.7686004638672
20916,-131.02926635742188,-91.82763671875,-0.17390534281730652,149.3211212158203
20917,-115.77046966552734,-55.36360931396485,23.002254486083984,173.473388671875
20918,-90.67200469970705,-37.62900161743164,37.49810791015625,184.1096649169922
20919,-114.9963150024414,-71.13102722167969,17.695337295532227,163.19239807128906
20920,-131.47805786132812,-86.72267150878906,6.737429618835449,148.0794677734375
20921,-110.87120056152344,-50.52417755126953,31.82093811035156,174.658935546875
20922,-99.69264221191406,-43.392189025878906,37.07175827026367,181.79840087890625
20923,-114.77191925048828,-69.70612335205078,16.99223518371582,163.06150817871094
20924,-132.56636047363278,-88.33456420898438,5.48456335067749,146.3329315185547
20925,-114.3567886352539,-63.24357986450195,20.103832244873047,172.72915649414062
20926,-96.87649536132812,-27.49387359619141,45.62490844726562,188.20860290527344
20927,-115.78916931152344,-81.47559356689453,16.457429885864258,165.53358459472656
20928,-137.73117065429688,-90.01752471923828,6.236283302307129,156.1800994873047
20929,-118.17523193359376,-59.17082595825195,27.856645584106445,172.22799682617188
20930,-93.22635650634766,-39.77196502685547,47.71551513671875,189.13609313964844
20931,-121.47007751464844,-71.44143676757812,25.02554130554199,162.90817260742188
20932,-135.47225952148438,-90.81411743164062,9.362839698791504,147.4848175048828
20933,-114.03515625,-60.32645797729492,25.657583236694336,171.55856323242188
20934,-92.32129669189452,-41.00613403320313,46.0699577331543,193.1078643798828
20935,-107.19488525390624,-77.75438690185547,27.523794174194336,163.99649047851562
20936,-128.09718322753906,-88.92546844482422,9.781708717346193,153.8463897705078
20937,-114.54378509521484,-61.65412139892578,26.40930366516113,172.86752319335938
20938,-86.91340637207031,-42.805023193359375,42.44225311279297,189.0313720703125
20939,-109.91004943847656,-81.13526153564453,20.021554946899414,167.00709533691406
20940,-132.83189392089844,-95.6011962890625,9.897644996643066,149.3921661376953
20941,-120.06013488769531,-65.37905883789061,24.43837547302246,167.22027587890625
20942,-95.4852523803711,-55.92459487915039,40.34416961669922,192.65533447265625
20943,-115.40769958496094,-79.62433624267578,21.225801467895508,163.48785400390625
20944,-128.51605224609378,-93.34229278564452,12.339799880981445,150.18128967285156
20945,-119.551513671875,-62.51055908203125,28.94869613647461,170.32064819335938
20946,-94.1351547241211,-39.656028747558594,42.10566329956055,184.1096649169922
20947,-112.3035888671875,-77.40283966064453,27.38915824890137,169.060302734375
20948,-138.17994689941406,-102.5312271118164,5.420985221862793,143.5392303466797
20949,-116.50723266601562,-61.620460510253906,25.474328994750977,167.1978302001953
20950,-93.8172607421875,-43.567962646484375,43.09673690795898,188.71348571777344
20951,-108.96385192871094,-72.1370620727539,21.25946044921875,168.57786560058594
20952,-128.31410217285156,-88.42432403564453,3.524855613708496,147.96353149414062
20953,-109.5959014892578,-55.58052444458008,23.79511260986328,172.38882446289062
20954,-88.40936279296875,-46.72817993164063,38.335845947265625,186.0132751464844
20955,-110.36631774902344,-65.02002716064453,21.09864616394043,164.13485717773438
20956,-136.94578552246094,-102.54244995117188,-1.6062870025634766,147.64190673828125
20957,-107.65115356445312,-61.50826644897461,17.358745574951172,163.6823272705078
20958,-89.3854751586914,-47.26298522949219,38.05535125732422,185.82627868652344
20959,-113.60133361816406,-70.17735290527344,16.08717918395996,165.6757049560547
20960,-138.4080810546875,-84.2618179321289,4.613166809082031,142.9857177734375
20961,-114.45402526855469,-60.78646469116211,20.204809188842773,171.7792205810547
20962,-97.05227661132812,-46.7917594909668,38.98284530639648,191.8325653076172
20963,-123.2465362548828,-75.2710952758789,15.85904598236084,164.41534423828125
20964,-134.38395690917972,-92.3923568725586,-3.59217381477356,139.904052734375
20965,-112.1091079711914,-68.12040710449219,24.70764923095703,167.39231872558594
20966,-93.940673828125,-37.81973648071289,49.263832092285156,186.0768585205078
20967,-112.37838745117188,-75.12149810791016,25.433189392089844,161.79742431640625
20968,-130.32241821289062,-88.3944091796875,-5.693997859954834,142.30133056640625
20969,-115.04492950439452,-71.08988952636719,19.045440673828125,167.97947692871094
20970,-93.76863861083984,-41.4736213684082,40.42271041870117,188.5564117431641
20971,-116.42121887207031,-79.98336791992188,17.14183235168457,161.44961547851562
20972,-135.68917846679688,-94.48296356201172,2.791835308074951,153.61825561523438
20973,-108.03262329101562,-61.46712493896485,16.068479537963867,164.03762817382812
20974,-93.02066040039062,-51.017845153808594,42.83868408203125,186.7051544189453
20975,-109.2555694580078,-85.00979614257812,21.412797927856445,163.74217224121094
20976,-134.69436645507812,-96.74934387207031,5.185371398925781,141.6804962158203
20977,-118.8521499633789,-68.30366516113281,20.904170989990234,171.0050506591797
20978,-96.1023406982422,-44.779693603515625,41.43247985839844,194.8768310546875
20979,-109.00499725341795,-79.91231536865234,20.919130325317386,163.11012268066406
20980,-136.60919189453122,-97.1270751953125,10.982215881347656,144.05908203125
20981,-108.02140045166016,-65.15092468261719,26.48036193847656,173.48086547851562
20982,-96.23697662353516,-56.61647415161133,43.94569396972656,190.16830444335938
20983,-118.01067352294922,-78.20691680908203,24.105525970458984,163.72720336914062
20984,-131.86700439453122,-88.01293182373047,3.109726905822754,147.76158142089844
20985,-108.19717407226562,-56.36216354370117,21.367918014526367,170.12991333007812
20986,-90.99737548828124,-42.02338409423828,36.86232376098633,188.15249633789062
20987,-106.85455322265624,-81.04176330566406,23.78015327453613,163.18118286132812
20988,-121.70569610595705,-93.095458984375,2.571181297302246,146.50123596191406
20989,-108.79930114746094,-66.06346130371094,22.80030059814453,171.4800262451172
20990,-82.72097778320312,-35.418724060058594,52.06875610351562,199.55545043945312
20991,-114.43907165527344,-84.7218246459961,20.477821350097656,158.54745483398438
20992,-127.9214096069336,-92.9533462524414,9.041208267211914,143.7598876953125
20993,-109.97737121582031,-64.13741302490234,27.056306838989254,164.8753662109375
20994,-90.7019271850586,-47.887550354003906,41.58955764770508,185.65049743652344
20995,-111.66780090332031,-83.36424255371094,24.49821472167969,155.86593627929688
20996,-134.4288330078125,-100.77721405029295,2.4178452491760254,141.57577514648438
20997,-118.63897705078124,-67.76511383056639,16.004901885986328,165.77293395996094
20998,-95.1037826538086,-56.21256637573242,37.7000617980957,185.87863159179688
20999,-109.2518310546875,-79.23165130615234,19.38203239440918,163.4691619873047
21000,-129.22663879394528,-94.47547912597656,4.4598307609558105,147.21554565429688
21001,-109.57720184326172,-63.5165901184082,29.81635284423828,170.2608184814453
21002,-85.25662994384766,-53.00373077392578,43.20893478393555,187.2250061035156
21003,-114.42784881591795,-83.50635528564453,17.983308792114258,165.0399169921875
21004,-130.30746459960938,-93.80978393554688,6.0380682945251465,153.7566375732422
21005,-103.2941665649414,-67.93341064453125,30.175382614135746,182.0527191162109
21006,-90.15963745117188,-57.15127944946289,45.49401473999024,185.3999328613281
21007,-110.17184448242188,-84.74800109863281,20.118791580200195,162.97549438476562
21008,-127.82791137695312,-95.22720336914062,11.5731201171875,149.0106964111328
21009,-109.06857299804688,-64.39920806884766,23.593158721923828,171.61839294433594
21010,-92.7775650024414,-55.23271179199219,40.21701431274414,189.3754425048828
21011,-110.22420501708984,-75.55158996582031,19.86821937561035,167.9532928466797
21012,-136.57926940917972,-103.11839294433594,-1.3257945775985718,144.62754821777344
21013,-112.6476593017578,-67.46966552734375,16.984756469726562,176.33815002441406
21014,-100.11898803710938,-57.21112060546875,28.67942237854004,186.25636291503903
21015,-120.66226196289062,-85.05093383789062,9.303001403808594,161.1728515625
21016,-128.90873718261722,-101.33445739746094,-8.685917854309082,143.77857971191406
21017,-111.98943328857422,-75.61516571044922,12.463216781616213,168.7760772705078
21018,-91.53965759277344,-53.73675155639648,35.14197158813477,181.68995666503903
21019,-101.15868377685548,-79.25035095214844,12.384678840637207,162.60523986816406
21020,-138.39312744140622,-108.77686309814452,-2.7432165145874023,140.14714050292972
21021,-110.00354766845705,-75.43191528320312,17.77013397216797,163.88429260253906
21022,-88.34204864501953,-57.33453750610352,39.181060791015625,185.9422149658203
21023,-111.66780090332031,-75.970458984375,21.880285263061523,171.81288146972656
21024,-126.98269653320312,-102.05252075195312,-1.6623855829238892,148.86111450195312
21025,-112.8907470703125,-74.0855484008789,21.771827697753906,168.28988647460938
21026,-95.9452667236328,-60.56206893920898,27.07126617431641,178.09963989257812
21027,-109.40142059326172,-94.10149383544922,15.53741455078125,159.65072631835938
21028,-136.25016784667972,-117.90221405029295,-8.551280975341799,145.12869262695312
21029,-117.21407318115234,-89.85670471191406,10.907418251037598,156.5914764404297
21030,-99.32987213134766,-64.58620452880861,26.959068298339844,171.45384216308594
21031,-112.60651397705078,-84.01124572753906,22.613304138183594,167.18661499023438
21032,-124.88835144042969,-95.91908264160156,11.386125564575195,154.3213653564453
21033,-100.41818237304688,-52.5025863647461,40.98369216918945,187.7598114013672
21034,-87.78854370117188,-46.72069931030274,48.68414688110352,197.65557861328125
21035,-109.18824768066406,-81.20257568359375,15.197083473205565,169.12014770507812
21036,-134.46623229980472,-100.24988555908205,1.770842671394348,144.10769653320312
21037,-115.94998931884766,-69.82954406738281,19.864479064941406,169.96536254882812
21038,-89.95394134521484,-54.0808219909668,42.21411895751953,181.2598571777344
21039,-110.50469207763672,-81.81966400146484,23.215429306030273,160.4622802734375
21040,-127.16968536376952,-91.4686050415039,14.06389331817627,150.71609497070312
21041,-116.1220245361328,-62.14778900146485,25.163917541503906,170.74325561523438
21042,-92.94960021972656,-43.65772247314453,44.23740768432617,188.60128784179688
21043,-115.0748519897461,-81.17266082763672,14.493982315063475,167.0744171142578
21044,-134.86640930175778,-88.74969482421875,-2.623539924621582,154.41111755371094
21045,-124.0281753540039,-69.48172760009766,15.945063591003418,167.59800720214844
21046,-105.99811553955078,-53.85643005371094,25.06667900085449,181.75352478027344
21047,-118.19393157958984,-87.50431060791016,9.138445854187012,166.0122833251953
21048,-137.70872497558594,-102.83415985107422,-10.241716384887695,148.91346740722656
21049,-119.28224182128906,-72.10713958740234,6.352220058441162,163.802001953125
21050,-92.03707122802734,-45.47905349731445,34.607162475585945,191.88491821289062
21051,-114.89533996582031,-83.24830627441406,13.858199119567873,163.37939453125
21052,-137.3983154296875,-105.0968017578125,-17.239068984985348,143.48313903808594
21053,-102.49382781982422,-76.15745544433594,13.712343215942385,164.93145751953125
21054,-92.80001068115234,-55.475807189941406,26.16995048522949,185.1119537353516
21055,-102.2694320678711,-82.42926788330078,15.126025199890135,167.21279907226562
21056,-126.00657653808594,-106.0018539428711,-5.52196216583252,146.90513610839844
21057,-116.2005615234375,-74.65775299072266,14.673497200012207,176.3194580078125
21058,-91.30778503417969,-54.19676208496094,38.56023788452149,186.55555725097656
21059,-107.9503402709961,-80.17410278320312,18.996822357177734,165.17080688476562
21060,-131.593994140625,-102.71822357177734,-4.931057929992676,152.06246948242188
21061,-110.76274871826172,-68.40090179443361,13.94047737121582,173.5145263671875
21062,-95.9639663696289,-49.94823455810547,30.231481552124023,188.7060089111328
21063,-115.27306365966795,-73.0009765625,12.84842586517334,171.3229522705078
21064,-139.27200317382812,-105.01451873779295,-5.907172203063965,146.24317932128906
21065,-111.97821807861328,-71.9388427734375,6.086687088012695,163.16249084472656
21066,-102.81919860839844,-51.3506965637207,25.50798797607422,178.36517333984375
21067,-114.87664031982422,-78.67440795898438,18.020708084106445,162.90069580078125
21068,-131.38455200195312,-91.0871353149414,-1.194898009300232,145.5064239501953
21069,-111.7089385986328,-72.92243957519531,16.812719345092773,166.67799377441406
21070,-92.70651245117188,-56.70623397827149,35.71043395996094,184.2779541015625
21071,-106.25616455078124,-79.87491607666016,22.26923370361328,168.61526489257812
21072,-127.1360321044922,-99.84971618652344,1.2696959972381592,145.2408905029297
21073,-109.70435333251952,-61.9084358215332,24.85724449157715,172.72166442871094
21074,-91.57705688476562,-61.007118225097656,42.84616470336914,188.62745666503903
21075,-109.0536117553711,-84.23563385009766,21.319299697875977,165.51113891601562
21076,-133.24702453613278,-104.6779327392578,3.7829089164733887,154.79632568359375
21077,-110.4560775756836,-73.0234146118164,16.012382507324222,164.92398071289062
21078,-87.24999237060547,-57.70852661132813,35.59075927734375,183.5673828125
21079,-111.3835678100586,-92.82244873046876,22.714282989501953,161.08309936523438
21080,-130.52438354492188,-110.4598159790039,3.921285152435303,144.78836059570312
21081,-109.16207122802734,-78.20691680908203,16.016120910644528,161.24017333984375
21082,-91.83511352539062,-57.77958297729492,34.367809295654304,181.6637725830078
21083,-101.7047119140625,-88.14382934570312,19.17259788513184,164.5350341796875
21084,-130.83853149414062,-103.82523345947266,-2.485163450241089,146.5984649658203
21085,-114.6559829711914,-69.90434265136719,13.637545585632324,161.83482360839844
21086,-100.04793548583984,-52.543724060058594,34.67822265625,178.98226928710938
21087,-114.00897979736328,-81.78974151611328,22.49736785888672,157.38059997558594
21088,-133.75190734863278,-98.77262878417969,8.756976127624513,141.5533447265625
21089,-105.57176208496094,-70.16239166259766,31.312313079833984,160.6230926513672
21090,-83.43155670166016,-51.00662612915039,44.36082458496094,182.2845916748047
21091,-96.74560546875,-68.61033630371094,35.931087493896484,160.2902374267578
21092,-119.74972534179688,-97.30658721923828,11.935891151428224,144.2685089111328
21093,-110.53461456298828,-66.17192077636719,32.299644470214844,169.5390167236328
21094,-84.82279968261719,-46.43646621704102,41.60825729370117,187.3783416748047
21095,-108.96385192871094,-84.54978942871094,17.23158836364746,163.0540313720703
21096,-126.00283813476562,-105.1155014038086,-3.8277876377105713,149.61656188964844
21097,-121.02503204345705,-76.97274780273438,19.501708984375,176.2222137451172
21098,-91.36014556884766,-55.113037109375,32.30338668823242,175.94920349121094
21099,-111.67528533935548,-88.95165252685547,19.393251419067386,162.04051208496094
21100,-125.66250610351562,-102.16471862792969,-1.1911581754684448,143.35223388671875
21101,-111.65283966064452,-77.78430938720703,19.41195106506348,160.31268310546875
21102,-88.33831024169922,-47.99226760864258,47.42753982543945,191.103271484375
21103,-112.08293151855469,-87.7735824584961,22.43379020690918,158.57362365722656
21104,-129.26777648925778,-99.34857177734376,7.193697452545166,144.36575317382812
21105,-114.90655517578124,-71.70697021484375,25.40327072143555,179.10568237304688
21106,-91.27787017822266,-44.10651016235352,47.74543380737305,183.9451141357422
21107,-106.11405181884766,-77.12421417236328,33.42909622192383,160.4622802734375
21108,-135.05339050292972,-89.8099594116211,15.3466796875,139.4290771484375
21109,-103.72425842285156,-59.04553985595703,42.199161529541016,165.89260864257812
21110,-92.23528289794922,-39.32878875732422,54.4622917175293,190.6582336425781
21111,-124.45452117919922,-76.03216552734375,33.967639923095696,157.7134552001953
21112,-135.76397705078122,-91.74348449707031,13.61884593963623,145.1548614501953
21113,-108.96385192871094,-69.60701751708984,29.158130645751953,170.5562744140625
21114,-97.3926010131836,-49.36668014526367,46.15223693847656,193.68380737304688
21115,-114.00150299072266,-71.35355377197266,28.86267852783203,170.2944793701172
21116,-136.12675476074222,-107.80635833740234,7.836960315704347,153.28167724609375
21117,-115.138427734375,-76.53330993652344,25.7810001373291,172.41873168945312
21118,-91.89868927001952,-55.06628799438477,47.68559265136719,199.54049682617188
21119,-113.4666976928711,-83.63164520263672,27.40037727355957,169.8307342529297
21120,-130.08680725097656,-110.52152252197266,6.561654567718506,140.52487182617188
21121,-109.7342758178711,-79.6374282836914,35.23920822143555,161.92831420898438
21122,-92.21658325195312,-55.66841125488281,65.49874114990234,176.9851531982422
21123,-116.7241439819336,-85.32582092285156,46.15597534179688,151.19854736328125
21124,-124.60037994384766,-101.5158462524414,30.84108543395996,132.88050842285156
21125,-104.19174194335938,-63.01731491088867,48.79634475708008,163.39810180664062
21126,-92.38114166259766,-48.27836990356445,64.02895355224611,181.85076904296875
21127,-107.48285675048828,-76.4996566772461,45.16116333007813,164.93519592285156
21128,-123.21287536621094,-90.36346435546876,21.21084213256836,141.84130859375
21129,-117.3898468017578,-73.4104995727539,24.400978088378906,164.11990356445312
21130,-93.62652587890624,-53.858299255371094,36.70524978637695,184.86138916015625
21131,-110.64681243896484,-89.32376861572266,11.187911033630373,166.12448120117188
21132,-114.24459075927734,-105.18468475341795,-0.1552058458328247,158.38662719726562
21133,-114.25955200195312,-78.769775390625,12.34354019165039,174.80853271484375
21134,-92.56813049316406,-58.36113739013672,36.2564582824707,199.15902709960938
21135,-104.49093627929688,-84.90695190429688,25.212535858154297,181.33839416503903
21136,-122.61823272705078,-109.37337493896484,4.055921554565431,161.75254821777344
21137,-102.28065490722656,-73.36187744140625,23.701616287231445,180.515625
21138,-91.58080291748048,-55.54125595092773,42.76762771606445,195.53880310058597
21139,-109.98484802246094,-75.27670288085938,35.654335021972656,167.60922241210938
21140,-122.9810028076172,-87.41641998291016,15.690750122070312,148.27394104003906
21141,-110.5832290649414,-74.48011016845703,38.50788116455078,157.5713348388672
21142,-82.60504150390625,-44.24301528930664,58.91277313232422,183.11485290527344
21143,-109.46126556396484,-76.94096374511719,40.23197555541992,148.6815948486328
21144,-131.70619201660156,-93.1422119140625,21.5848331451416,138.3258056640625
21145,-118.30612182617188,-67.72210693359375,32.13508987426758,163.10638427734375
21146,-102.2918701171875,-40.71628952026367,44.192527770996094,178.41754150390625
21147,-113.87060546875,-83.50448608398438,19.699922561645508,159.49363708496094
21148,-129.40988159179688,-99.87776947021484,1.213597536087036,146.96498107910156
21149,-118.1490478515625,-72.19876861572266,12.754928588867188,167.6129608154297
21150,-91.76779174804688,-65.53426361083984,33.57869338989258,188.00289916992188
21151,-116.81764221191406,-88.07838439941406,14.38552474975586,165.76171875
21152,-130.8310546875,-102.25634765625,-4.231696605682373,150.73480224609375
21153,-113.69108581542969,-76.51835632324219,12.208903312683105,175.5490264892578
21154,-94.14636993408205,-63.14073181152344,29.790172576904297,191.6567840576172
21155,-110.1830596923828,-87.8839111328125,19.307233810424805,170.14488220214844
21156,-123.68035888671876,-98.36310577392578,-0.5329357385635376,155.0394287109375
21157,-116.85504150390624,-76.25656127929688,17.51582145690918,171.7044219970703
21158,-89.68840789794922,-52.36981964111328,41.70923614501953,197.14321899414062
21159,-108.80677795410156,-88.09708404541016,21.928903579711914,162.00311279296875
21160,-129.56321716308594,-107.30895233154295,8.39046573638916,143.03060913085938
21161,-107.03406524658205,-79.24474334716797,25.64636421203613,166.864990234375
21162,-77.61601257324219,-52.332420349121094,48.16430282592773,184.9922790527344
21163,-104.95468139648438,-83.93457794189453,27.22834205627441,167.09312438964844
21164,-131.29106140136722,-112.339111328125,-7.8294806480407715,142.97824096679688
21165,-115.38899993896484,-77.06437683105469,12.324840545654295,163.06150817871094
21166,-95.80314636230469,-58.89968490600586,25.650104522705078,186.1404266357422
21167,-112.7224578857422,-83.03699493408203,16.558406829833984,163.6337127685547
21168,-129.27899169921878,-96.42958068847656,4.3476338386535645,150.2897491455078
21169,-115.64331817626952,-68.32797241210939,24.96196174621582,167.60922241210938
21170,-95.83306884765624,-50.75418090820313,44.671234130859375,193.1901397705078
21171,-112.4681396484375,-78.9118881225586,28.825279235839844,172.88623046875
21172,-124.57793426513672,-96.3398208618164,13.66746425628662,154.317626953125
21173,-117.81620025634766,-66.94420623779297,23.843732833862305,173.308837890625
21174,-92.62049102783205,-44.51976776123047,44.92181015014648,194.0353546142578
21175,-102.63968658447266,-74.83165740966797,29.73781394958496,175.0404052734375
21176,-133.90524291992188,-89.8959732055664,13.798360824584961,145.74203491210938
21177,-113.9715805053711,-68.93009948730469,25.70620155334473,172.19808959960938
21178,-87.76984405517578,-51.33386611938477,48.19047927856445,180.70635986328125
21179,-106.12901306152344,-79.74214935302734,20.657337188720703,153.3340301513672
21180,-123.02961730957031,-109.9268798828125,-1.770842671394348,133.30313110351562
21181,-119.97038269042969,-71.11419677734375,14.348126411437988,157.92662048339844
21182,-93.09919738769531,-50.12213897705078,33.86292266845703,183.7281951904297
21183,-103.23806762695312,-87.35284423828125,14.022754669189453,160.761474609375
21184,-131.12275695800778,-107.64553833007812,-1.7484031915664673,146.336669921875
21185,-110.94974517822266,-75.19816589355469,24.09430503845215,165.2194366455078
21186,-94.36702728271484,-51.29646682739258,42.59185028076172,187.44940185546875
21187,-97.50106048583984,-90.18020629882812,32.99526596069336,166.6106719970703
21188,-127.5399398803711,-100.02362060546876,16.99971580505371,150.52536010742188
21189,-111.81739807128906,-72.49422454833984,31.757360458374023,170.44407653808594
21190,-91.98844909667969,-49.10114669799805,49.33863067626953,186.97442626953125
21191,-113.33953857421876,-79.3382339477539,25.822139739990234,170.06634521484375
21192,-120.87543487548828,-95.43850708007812,11.62921905517578,151.46034240722656
21193,-111.08811950683594,-66.19996643066406,17.8112735748291,167.22775268554688
21194,-91.41624450683594,-47.96047592163086,46.50004577636719,185.515869140625
21195,-97.93489074707031,-78.35464477539062,34.517406463623054,163.53273010253906
21196,-130.64031982421878,-92.080078125,10.252935409545898,149.3921661376953
21197,-108.32059478759766,-65.94565582275389,14.995128631591795,161.79742431640625
21198,-94.19873046875,-55.05506896972656,40.42271041870117,185.680419921875
21199,-101.7645492553711,-73.22724151611328,20.563838958740234,168.71249389648438
21200,-132.51026916503906,-109.0854034423828,-5.963270664215088,150.51040649414062
21201,-107.35569763183594,-70.037109375,14.370565414428713,172.0709228515625
21202,-96.7643051147461,-53.29357528686523,35.800193786621094,190.91253662109372
21203,-109.13214874267578,-83.97197723388672,15.410257339477539,168.895751953125
21204,-132.31953430175778,-100.132080078125,0.06918814778327942,149.9456787109375
21205,-118.69133758544922,-68.65708160400389,13.42811107635498,174.94317626953125
21206,-91.4499053955078,-57.55706024169922,37.225093841552734,193.1377868652344
21207,-117.91343688964844,-87.35284423828125,18.16656494140625,168.74241638183594
21208,-128.90499877929688,-100.5359878540039,8.416645050048826,150.43186950683594
21209,-112.01187133789062,-75.4188232421875,18.72380828857422,169.02664184570312
21210,-92.56439208984376,-55.52255630493164,37.59534454345703,189.78683471679688
21211,-104.64427185058594,-76.6043701171875,23.608118057250977,167.86727905273438
21212,-133.68084716796878,-99.16344451904295,-1.0827010869979858,146.5573272705078
21213,-105.13045501708984,-64.10562133789061,15.054966926574707,167.64662170410156
21214,-90.98241424560548,-50.82524108886719,36.44345474243164,185.53456115722656
21215,-111.43218994140624,-83.08561706542969,18.37225914001465,160.61187744140625
21216,-126.76951599121094,-105.77932739257812,-2.8890726566314697,144.5078582763672
21217,-107.3257827758789,-80.68460083007812,18.62657165527344,172.64686584472656
21218,-94.1388931274414,-52.75876998901367,37.85713577270508,193.990478515625
21219,-106.06917572021484,-84.9144287109375,21.835405349731445,163.3494873046875
21220,-127.22953033447266,-101.153076171875,4.931057929992676,148.883544921875
21221,-111.44715118408205,-73.85554504394531,18.996822357177734,167.7887420654297
21222,-83.83546447753906,-55.71329116821289,40.51246643066406,188.84811401367188
21223,-105.2650909423828,-83.38481140136719,21.364177703857425,169.36697387695312
21224,-131.04421997070312,-103.4792938232422,2.2308502197265625,148.98452758789062
21225,-113.02538299560548,-77.27007293701172,17.437284469604492,165.95619201660156
21226,-86.38233947753906,-51.46850204467773,42.49087524414063,188.0440368652344
21227,-108.41409301757812,-72.27730560302734,23.1518497467041,167.4110107421875
21228,-130.3673095703125,-112.23065948486328,-2.219630718231201,135.16932678222656
21229,-108.28693389892578,-81.73177337646484,19.78968048095703,158.86907958984375
21230,-97.88253021240234,-71.65648651123047,35.063430786132805,174.38218688964844
21231,-105.5007095336914,-98.00033569335938,18.21144294738769,157.56011962890625
21232,-120.78942108154295,-109.97924041748048,-2.369226694107056,140.14714050292972
21233,-102.1908950805664,-80.54622650146484,23.09575271606445,168.7274627685547
21234,-69.10025787353516,-45.78011703491211,53.33284378051758,196.7617492675781
21235,-95.30574035644531,-76.46599578857422,33.372997283935554,178.8513641357422
21236,-125.24738311767578,-96.22388458251952,13.364532470703125,163.0951690673828
21237,-113.28717803955078,-72.57649993896484,24.486995697021484,171.13595581054688
21238,-91.9734878540039,-50.87012100219727,37.54672622680664,194.1587829589844
21239,-108.9339370727539,-90.45321655273438,15.208303451538086,169.47543334960938
21240,-138.51280212402344,-110.2672119140625,-1.0415620803833008,141.02601623535156
21241,-114.57744598388672,-68.25691223144531,20.06643295288086,175.4779815673828
21242,-100.5977020263672,-48.25967025756836,39.282039642333984,200.80831909179688
21243,-113.5676727294922,-83.72139739990234,22.527286529541016,165.2082061767578
21244,-134.23435974121094,-97.40943145751952,-2.1111736297607417,146.48626708984375
21245,-122.57708740234376,-69.86507415771484,23.88113021850586,172.4561309814453
21246,-95.466552734375,-48.68975830078125,41.08840942382813,186.5331268310547
21247,-113.2310791015625,-72.73731231689453,20.212289810180664,170.27203369140625
21248,-135.70414733886722,-105.88031005859376,5.7949748039245605,145.72332763671875
21249,-114.10247802734376,-67.56877136230469,18.9856014251709,167.38108825683594
21250,-86.59925079345703,-40.10668563842773,43.7400016784668,188.0702209472656
21251,-110.4598159790039,-93.59473419189452,20.1300106048584,159.9910430908203
21252,-125.59893035888672,-97.55902862548828,3.427618265151977,149.8634033203125
21253,-109.29670715332031,-73.39927673339844,26.64865684509277,173.10687255859375
21254,-90.01377868652344,-53.00934219360352,40.83409881591797,184.18072509765625
21255,-100.9642105102539,-84.8919906616211,17.250288009643555,163.96656799316406
21256,-120.94649505615234,-105.67461395263672,-2.6945979595184326,145.14364624023438
21257,-103.23806762695312,-76.36502075195312,14.105032920837402,175.7210693359375
21258,-86.42721557617188,-54.75587463378906,37.53176498413086,195.856689453125
21259,-110.99462127685548,-87.04991149902344,19.512928009033203,166.21798706054688
21260,-125.84950256347656,-105.6671371459961,0.2636629343032837,151.79693603515625
21261,-103.88507080078124,-72.75975036621094,17.8000545501709,172.38133239746094
21262,-93.84718322753906,-57.87121200561523,35.26164627075195,188.25347900390625
21263,-98.22286224365234,-97.68618774414062,18.09550666809082,168.70501708984375
21264,-121.08113098144531,-101.18672943115234,1.4342516660690308,154.42982482910156
21265,-105.12671661376952,-72.94300842285156,17.059553146362305,171.96246337890625
21266,-80.96322631835938,-62.01128005981445,41.03979110717773,187.2923126220703
21267,-105.10801696777344,-91.04786682128906,18.21144294738769,168.62274169921875
21268,-125.03794860839844,-104.11507415771484,2.410365581512451,148.51329040527344
21269,-110.46729278564452,-71.52184295654297,19.318452835083008,177.31800842285156
21270,-88.04659271240234,-58.4284553527832,37.15029525756836,185.3587951660156
21271,-97.96480560302734,-86.95267486572266,20.533920288085934,165.9711456298828
21272,-129.75770568847656,-102.92952728271484,-0.6226933598518372,149.28746032714844
21273,-105.478271484375,-80.3966293334961,14.789434432983398,170.60862731933594
21274,-84.62458801269531,-52.867225646972656,40.96873474121094,186.89215087890625
21275,-99.4794692993164,-84.40579986572266,18.450796127319336,170.8816375732422
21276,-127.51001739501952,-109.8633041381836,-4.2167372703552255,152.7132110595703
21277,-109.28922271728516,-77.71886444091797,17.059553146362305,167.59426879882812
21278,-86.6927490234375,-56.46126937866211,28.92625617980957,186.68646240234372
21279,-110.33639526367188,-89.7688217163086,18.83226585388184,164.71453857421875
21280,-123.62800598144531,-104.59378051757812,1.591327428817749,148.2926483154297
21281,-114.97013092041016,-74.59978485107422,10.316514015197754,167.10060119628906
21282,-88.5776596069336,-47.81088256835938,39.678466796875,188.03656005859372
21283,-108.0887222290039,-80.3592300415039,20.01781463623047,170.36927795410156
21284,-111.82113647460938,-96.34730529785156,5.514482498168945,156.04171752929688
21285,-106.57405853271484,-69.70051574707031,15.90766429901123,168.95184326171875
21286,-95.20850372314452,-52.332420349121094,35.97222900390625,189.48764038085938
21287,-102.1048812866211,-78.52294158935547,17.829973220825195,165.7205810546875
21288,-124.129150390625,-102.24512481689452,-5.720177173614503,157.2310028076172
21289,-106.71991729736328,-81.85519409179688,10.017321586608887,166.71539306640625
21290,-82.70975494384766,-47.49298858642578,38.23860549926758,185.54579162597656
21291,-97.23926544189452,-95.32257080078124,15.260662078857422,161.72262573242188
21292,-121.44763946533205,-100.0086669921875,3.9399845600128174,152.08863830566406
21293,-105.61290740966795,-79.27839660644531,16.65938377380371,176.96646118164062
21294,-84.83776092529297,-47.186317443847656,35.76653289794922,192.78623962402344
21295,-103.92247009277344,-82.10576629638672,19.98041534423828,168.03932189941406
21296,-121.91886901855469,-100.0311050415039,-6.131566047668457,147.8588104248047
21297,-105.2800521850586,-74.16221618652344,11.876051902770994,168.88453674316406
21298,-94.26604461669922,-57.523399353027344,30.287580490112305,186.5630340576172
21299,-106.2636489868164,-89.31629180908203,10.275375366210938,164.93893432617188
21300,-124.17776489257812,-101.72528076171876,1.969057321548462,152.17465209960938
21301,-114.21467590332031,-77.62162017822266,9.871465682983398,169.71104431152344
21302,-82.073974609375,-49.74814987182617,35.946048736572266,189.7157745361328
21303,-111.50698852539062,-87.49495697021484,19.778461456298828,170.7993621826172
21304,-127.16594696044922,-101.5382843017578,0.6488726139068604,152.68328857421875
21305,-113.87434387207031,-74.40531158447266,13.128918647766113,169.20616149902344
21306,-84.8265380859375,-48.34942626953125,34.184555053710945,195.96514892578125
21307,-106.88072967529295,-82.55455017089844,12.807287216186525,168.10662841796875
21308,-129.21914672851562,-108.6534423828125,-0.921885311603546,146.19830322265625
21309,-111.51072692871094,-82.29463195800781,18.87340545654297,170.5600128173828
21310,-88.66741943359375,-57.24103927612305,34.865219116210945,189.1136474609375
21311,-108.92271423339844,-87.86708068847656,15.649611473083494,168.6863250732422
21312,-125.53909301757812,-111.14421844482422,-3.5136361122131348,144.0179443359375
21313,-111.5630874633789,-82.06649780273438,12.98680305480957,161.42343139648438
21314,-84.6432876586914,-61.14175415039063,35.4299430847168,195.3144073486328
21315,-106.41324615478516,-90.73932647705078,17.62053871154785,164.0226593017578
21316,-124.31614685058594,-118.02189636230469,-7.354513168334961,143.71127319335938
21317,-107.5726089477539,-80.00581359863281,7.780861854553223,161.31871032714844
21318,-91.59575653076172,-52.28193283081055,27.41533660888672,177.81915283203125
21319,-109.54727935791016,-82.07023620605469,16.270435333251953,168.62648010253906
21320,-131.17886352539062,-100.8632354736328,-9.220723152160645,140.02372741699222
21321,-109.6931381225586,-69.38823699951172,20.212289810180664,169.72601318359375
21322,-93.1141586303711,-48.34381866455078,39.78318405151367,190.4151306152344
21323,-111.2003173828125,-83.8990478515625,18.843486785888672,162.73239135742188
21324,-122.3826141357422,-101.39804077148438,2.2009310722351074,155.18902587890625
21325,-114.42411041259766,-75.9068832397461,17.048334121704098,178.41380310058594
21326,-92.45594024658205,-57.90674209594727,32.53900146484375,191.8213348388672
21327,-105.0781021118164,-91.39754486083984,23.955928802490234,172.36264038085938
21328,-127.39408111572266,-108.43653106689452,10.092120170593262,154.0595703125
21329,-114.92151641845705,-78.2405776977539,21.51377487182617,168.1328125
21330,-88.09147644042969,-56.70623397827149,40.0487174987793,192.48704528808597
21331,-113.41433715820312,-83.89530944824219,15.440176963806152,169.29966735839844
21332,-135.25535583496094,-106.8059310913086,-2.129873037338257,144.1824951171875
21333,-116.04722595214844,-78.81652069091797,8.899091720581055,168.47314453125
21334,-87.92317962646484,-57.15127944946289,25.881977081298828,188.1749420166016
21335,-115.12347412109376,-88.80579376220703,-0.35716044902801514,159.16453552246094
21336,-130.150390625,-105.41842651367188,-15.578553199768065,140.07234191894528
21337,-120.47900390625,-79.09327697753906,3.8315274715423584,160.36129760742188
21338,-90.5037078857422,-53.88261032104492,22.848918914794922,170.6647186279297
21339,-111.6827621459961,-86.41600036621094,6.288641929626465,153.74542236328125
21340,-128.90873718261722,-105.1603775024414,-15.02504825592041,141.08212280273438
21341,-111.9408187866211,-55.73386001586914,7.900538444519043,166.99588012695312
21342,-92.6092758178711,-44.55903625488281,36.884761810302734,184.1919403076172
21343,-100.60891723632812,-82.74715423583984,23.907310485839844,169.34454345703125
21344,-123.57190704345705,-98.89978790283205,0.9630242586135864,150.1214599609375
21345,-105.09305572509766,-73.46098327636719,16.51352882385254,171.40896606445312
21346,-91.51348114013672,-61.6279411315918,34.25187301635742,183.90023803710938
21347,-103.55970001220705,-90.01377868652344,9.460077285766602,165.5410614013672
21348,-117.8087158203125,-101.22225952148438,-6.456937313079834,151.07513427734375
21349,-108.01017761230469,-78.96611785888672,4.7814621925354,165.99732971191406
21350,-78.43505096435547,-61.34370803833008,25.837099075317386,187.34841918945312
21351,-101.73088836669922,-95.11500549316406,7.047841548919678,169.142578125
21352,-118.99427032470705,-104.24036407470705,-9.448857307434082,150.8694305419922
21353,-101.98146057128906,-75.59272766113281,11.98824977874756,170.7582244873047
21354,-82.4330062866211,-49.45830535888672,26.67483711242676,184.7641448974609
21355,-96.72315979003906,-79.63929748535156,11.614259719848633,167.2726287841797
21356,-120.93527221679688,-96.11355590820312,-3.738029956817627,148.01962280273438
21357,-97.92366790771484,-66.96103668212889,23.17803001403809,174.0269012451172
21358,-80.53313446044922,-46.27191162109375,45.407997131347656,197.6780242919922
21359,-98.095703125,-70.84679412841797,27.59485244750977,184.1433258056641
21360,-121.4401626586914,-100.91932678222656,1.9241784811019895,164.3629913330078
21361,-109.04987335205078,-66.96103668212889,15.57481288909912,169.32957458496094
21362,-89.75572967529297,-50.408241271972656,42.96583938598633,196.31295776367188
21363,-110.56827545166016,-81.71868133544922,25.68002319335937,165.43260192871094
21364,-134.74298095703122,-95.93778228759766,1.830681085586548,141.73660278320312
21365,-122.11334228515624,-57.1026611328125,19.023000717163086,171.1060333251953
21366,-99.88711547851562,-55.28133010864258,34.58098602294922,184.1470642089844
21367,-117.22903442382812,-89.93524169921875,13.529088020324707,162.59776306152344
21368,-132.62246704101562,-106.4244613647461,-10.727903366088867,146.14593505859375
21369,-117.49082946777344,-76.56510162353516,3.4837167263031006,160.8063507080078
21370,-96.88397979736328,-56.05923080444336,16.621984481811527,185.42236328125
21371,-112.25496673583984,-89.9838638305664,-11.11685276031494,156.6438446044922
21372,-125.5914535522461,-107.98026275634766,-29.59195899963379,141.26162719726562
21373,-107.3669204711914,-75.58150482177734,-0.7311504483222961,159.7030792236328
21374,-89.3443374633789,-53.75171279907226,14.609919548034668,184.93618774414062
21375,-98.89978790283205,-84.81532287597656,3.666971921920776,173.0919189453125
21376,-114.88785552978516,-105.2576141357422,-11.85735321044922,155.95196533203125
21377,-104.36003875732422,-72.17072296142578,6.198884010314941,183.8067321777344
21378,-84.69564056396484,-53.76293182373047,24.84976577758789,191.7801971435547
21379,-95.0813446044922,-84.89012145996094,11.053274154663086,175.1189422607422
21380,-128.07473754882812,-101.41674041748048,-12.414597511291506,152.3130340576172
21381,-111.2825927734375,-73.65545654296875,6.326040744781494,172.26539611816406
21382,-92.7139892578125,-54.03594589233398,25.814659118652344,192.44964599609372
21383,-102.98375701904295,-77.09990692138672,12.36971950531006,170.36927795410156
21384,-132.29335021972656,-109.00873565673828,-18.38347816467285,143.2400360107422
21385,-117.95083618164062,-79.0409164428711,10.76156234741211,166.25164794921875
21386,-93.26001739501952,-54.3613166809082,31.84711837768555,180.8821258544922
21387,-109.36776733398438,-86.43470001220703,8.308187484741211,156.3109893798828
21388,-133.78182983398438,-93.36846923828124,-6.348480224609375,138.48661804199222
21389,-109.34532165527344,-76.50152587890625,9.437637329101562,154.36624145507812
21390,-92.46715545654295,-58.2657699584961,25.474328994750977,174.7786102294922
21391,-107.1088638305664,-88.26351165771484,3.663232088088989,155.327392578125
21392,-128.61703491210938,-107.89798736572266,-11.38238525390625,146.98367309570312
21393,-101.15120697021484,-73.4460220336914,12.14532470703125,170.7245635986328
21394,-78.58838653564453,-62.06924819946289,28.51860618591309,199.65643310546875
21395,-102.57610321044922,-94.49044036865234,14.366826057434082,172.07839965820312
21396,-117.37489318847656,-111.24519348144531,-8.943970680236816,154.67665100097656
21397,-101.92536163330078,-90.8477783203125,1.699784517288208,174.98057556152344
21398,-83.38294219970703,-64.44034576416016,24.01950836181641,189.96261596679688
21399,-107.8269271850586,-94.12393188476562,2.6609387397766118,165.35406494140625
21400,-128.98353576660156,-107.4716339111328,-11.722716331481935,158.56240844726562
21401,-112.1278076171875,-89.9015884399414,5.050734996795653,165.75050354003906
21402,-86.87226867675781,-59.518638610839844,29.78269386291504,183.5860748291016
21403,-104.3525619506836,-78.04610443115234,10.50350856781006,161.59921264648438
21404,-129.892333984375,-115.23941040039062,-8.315667152404785,135.45730590820312
21405,-106.5441436767578,-71.99868774414062,4.1830782890319815,151.45286560058594
21406,-94.48296356201172,-51.46663284301758,23.56698036193848,173.2527313232422
21407,-104.50963592529295,-79.59442138671875,10.716683387756348,156.1875762939453
21408,-122.52473449707031,-93.85466003417969,-3.1994843482971187,139.88534545898438
21409,-110.0185089111328,-74.02197265625,14.045194625854492,165.02120971679688
21410,-83.00147247314453,-55.93207550048828,27.632251739501953,187.05670166015625
21411,-98.32758331298828,-87.19015502929688,3.659492015838623,170.10748291015625
21412,-125.64755249023438,-103.98230743408205,-13.9292573928833,158.70079040527344
21413,-106.98918914794922,-79.867431640625,-1.7446633577346802,174.3971405029297
21414,-93.8583984375,-71.04875183105469,17.859891891479492,187.3184967041016
21415,-103.84767150878906,-93.23009490966795,6.595313549041747,163.48037719726562
21416,-120.79315948486328,-105.6802215576172,-8.072573661804201,148.8872833251953
21417,-112.94684600830078,-78.25553894042969,9.041208267211914,166.019775390625
21418,-91.09835052490234,-60.8350830078125,26.09515190124512,183.74688720703125
21419,-104.36377716064452,-86.3299789428711,8.603639602661133,166.37132263183594
21420,-122.9884796142578,-99.17279815673828,-8.207210540771483,141.7552947998047
21421,-111.5219497680664,-83.85042572021484,7.406871795654298,155.69390869140625
21422,-92.2315444946289,-53.87138748168945,27.81550598144531,180.95318603515625
21423,-106.49925994873048,-76.9166488647461,17.77761459350586,162.42945861816406
21424,-125.96543884277344,-93.31985473632812,-2.2046709060668945,146.23944091796875
21425,-102.9126968383789,-52.1846923828125,18.97064208984375,170.94522094726562
21426,-85.55582427978516,-53.20942687988281,33.61983108520508,191.7914123535156
21427,-102.89773559570312,-81.69998168945312,16.10213851928711,179.0271453857422
21428,-119.00174713134766,-102.086181640625,-0.7087110280990601,151.57254028320312
21429,-105.9195785522461,-79.78889465332031,11.651658058166506,175.1675567626953
21430,-85.69419860839844,-65.96622467041016,24.54309272766113,184.4163360595703
21431,-103.78409576416016,-84.13092041015625,4.478530406951903,164.62852478027344
21432,-123.84117889404295,-110.47103118896484,-8.487703323364258,149.23883056640625
21433,-112.05300903320312,-78.51732635498047,4.605686664581299,166.853759765625
21434,-82.79203796386719,-58.27325057983398,17.680377960205078,185.95343017578125
21435,-103.78409576416016,-77.87032318115234,6.1427855491638175,163.45045471191406
21436,-133.789306640625,-104.7751693725586,-12.79980754852295,139.87786865234378
21437,-111.29381561279295,-62.63023376464844,12.814766883850098,172.08963012695312
21438,-93.21887969970705,-52.925193786621094,27.026386260986328,183.3130645751953
21439,-115.72933197021484,-78.77164459228516,6.673851490020753,164.66966247558594
21440,-129.49964904785156,-98.3350601196289,-15.40651798248291,142.3948211669922
21441,-113.28343963623048,-71.26940155029297,2.597360610961914,158.8017578125
21442,-82.15625,-47.74543380737305,32.060291290283196,187.3671112060547
21443,-98.4771728515625,-85.68671417236328,16.240514755249027,165.52984619140625
21444,-118.58287811279295,-98.8362045288086,-15.253182411193848,149.20143127441406
21445,-100.9455108642578,-80.4845199584961,5.42472505569458,180.7512359619141
21446,-87.82594299316406,-46.09613800048828,16.977275848388672,184.98106384277344
21447,-104.08702850341795,-87.3098373413086,-2.6160600185394287,162.81468200683594
21448,-126.44789123535156,-103.70181274414062,-20.062692642211914,147.42124938964844
21449,-106.49552154541016,-88.5813980102539,1.5015698671340942,159.43380737304688
21450,-87.6539077758789,-60.11702346801758,22.88631820678711,180.74002075195312
21451,-106.17762756347656,-89.022705078125,5.144232273101807,166.0048065185547
21452,-128.5010986328125,-116.78024291992188,-14.153651237487793,134.48118591308594
21453,-115.81535339355469,-97.86383056640624,0.8919661641120911,152.8179168701172
21454,-92.63919067382812,-77.20088195800781,20.40676498413086,167.9645233154297
21455,-104.9172821044922,-102.28439331054688,7.9379377365112305,164.72203063964844
21456,-117.18789672851562,-109.96988677978516,-4.467310428619385,142.67530822753906
21457,-96.26315307617188,-78.65196228027344,15.974982261657715,170.32814025878906
21458,-72.62324523925781,-46.98997116088867,43.429588317871094,199.34976196289062
21459,-92.6354522705078,-83.80928802490234,22.272974014282227,169.8793487548828
21460,-117.16171264648438,-95.7620086669922,4.579507350921631,151.4678192138672
21461,-106.8657684326172,-81.81591796875,14.280808448791506,175.0778045654297
21462,-79.48970031738281,-58.23959350585938,33.93398284912109,190.87139892578125
21463,-102.9687957763672,-90.14093780517578,10.006102561950684,171.3042449951172
21464,-119.12516021728516,-109.36028289794922,-13.596405982971193,141.10081481933594
21465,-106.27486419677734,-78.03488159179688,3.4575374126434326,167.78126525878906
21466,-87.94561767578125,-54.97840118408203,19.576505661010746,183.36541748046875
21467,-104.04962921142578,-85.19305419921875,3.1022469997406006,162.80345153808594
21468,-127.45765686035156,-106.17015075683594,-20.926610946655273,137.10659790039062
21469,-112.78229522705078,-72.3203125,-7.922977924346924,159.1794891357422
21470,-88.67489624023438,-67.03583526611328,18.521854400634766,179.77511596679688
21471,-107.54269409179688,-84.48621368408203,3.2892420291900635,159.80030822753906
21472,-124.9968032836914,-108.5711669921875,-17.115652084350586,141.10081481933594
21473,-112.73367309570312,-71.69575500488281,1.2285571098327637,163.0465545654297
21474,-90.73184204101562,-60.79020309448242,26.798254013061523,180.63156127929688
21475,-103.04359436035156,-81.30729675292969,6.872066020965576,171.29676818847656
21476,-130.41966247558594,-101.91414642333984,-17.44476318359375,141.6730194091797
21477,-96.2070541381836,-68.68887329101561,1.8157213926315308,164.56869506835938
21478,-82.02161407470703,-63.60260772705078,18.73502922058105,184.95114135742188
21479,-95.11126708984376,-80.55931854248047,7.6387457847595215,167.5381622314453
21480,-119.8544464111328,-103.90003204345705,-11.662878036499025,151.3032684326172
21481,-102.22081756591795,-79.527099609375,0.6226933598518372,162.44068908691406
21482,-96.32299041748048,-65.62215423583984,8.895352363586426,183.5636444091797
21483,-96.90641784667969,-86.49453735351562,-2.429064989089966,167.9645233154297
21484,-129.97087097167972,-110.05964660644531,-23.32388687133789,137.21505737304688
21485,-111.5406494140625,-73.95465087890625,-2.350527048110962,163.6935577392578
21486,-93.4731903076172,-54.372535705566406,12.302400588989258,182.4229736328125
21487,-101.60747528076172,-76.81193542480469,3.105986833572388,169.0154266357422
21488,-140.65576171875,-103.44002532958984,-16.240514755249027,140.27055358886722
21489,-123.57564544677734,-79.22791290283203,7.268495559692383,161.1466827392578
21490,-92.6541519165039,-49.645301818847656,20.967748641967773,172.68426513671875
21491,-111.82113647460938,-83.45025634765625,8.790635108947754,158.68582153320312
21492,-129.74273681640622,-105.1566390991211,3.3715198040008545,146.08984375
21493,-115.83031463623048,-68.20642852783203,6.195144176483153,161.66278076171875
21494,-89.23588562011719,-46.92265319824219,29.34138488769531,187.02679443359372
21495,-112.81969451904295,-74.15660858154297,7.429311275482178,164.6547088623047
21496,-132.03903198242188,-98.95587921142578,-16.29287338256836,143.46817016601562
21497,-109.034912109375,-69.81084442138672,0.16642554104328156,169.52780151367188
21498,-91.25543212890624,-54.69790649414063,17.07077407836914,187.23622131347656
21499,-110.1980209350586,-81.72242736816406,0.8620469570159912,163.24102783203125
21500,-125.89812469482422,-102.86033630371094,-17.90477180480957,138.96907043457028
21501,-109.95492553710938,-74.41465759277344,0.09162754565477373,165.6644744873047
21502,-89.30693817138672,-54.772705078125,15.855305671691895,180.8970947265625
21503,-102.38536834716795,-82.36568450927734,-2.3879261016845703,161.9507598876953
21504,-126.15617370605469,-105.44834899902344,-22.082239151000977,138.71475219726562
21505,-103.60832214355469,-79.27652740478516,1.1275798082351685,162.04425048828125
21506,-88.5813980102539,-60.22547912597656,20.4703426361084,174.3223419189453
21507,-106.61519622802734,-88.31961059570312,7.249795913696289,156.4344024658203
21508,-131.08161926269528,-109.04987335205078,-18.06932640075684,137.71620178222656
21509,-112.13529205322266,-71.55550384521484,2.1317429542541504,154.67291259765625
21510,-88.84319305419922,-49.90148544311523,26.34759521484375,184.4088592529297
21511,-90.91883850097656,-84.8957290649414,17.94029998779297,159.6993408203125
21512,-122.01610565185548,-100.7716064453125,-9.76487922668457,149.45948791503906
21513,-96.24445343017578,-72.08283233642578,4.1475491523742685,166.49847412109375
21514,-76.31826782226562,-53.99667739868164,19.09218978881836,195.4789581298828
21515,-101.33819580078124,-86.23461151123047,-2.7824854850769043,160.57447814941406
21516,-118.73621368408205,-110.5290069580078,-25.128387451171875,146.49374389648438
21517,-102.61724853515624,-97.47301483154295,-18.5573844909668,158.63720703125
21518,-81.80470275878906,-71.57794189453125,10.352043151855467,181.42816162109372
21519,-99.76370239257812,-96.85967254638672,-6.623363018035889,159.25428771972656
21520,-123.17921447753906,-109.87451934814452,-26.53458976745605,146.10479736328125
21521,-102.37415313720705,-82.85000610351562,-10.920507431030273,165.89260864257812
21522,-87.4743881225586,-64.76384735107422,11.773204803466795,179.68910217285156
21523,-102.03008270263672,-87.2032470703125,0.09723740071058272,156.2548828125
21524,-127.76058959960938,-111.31812286376952,-15.97311305999756,138.04158020019528
21525,-113.6536865234375,-74.84661865234375,5.546271800994873,157.2310028076172
21526,-88.63375854492188,-51.05337524414063,36.95769119262695,180.48944091796875
21527,-103.57839965820312,-83.21277618408203,16.82954978942871,156.40447998046875
21528,-114.92151641845705,-101.84121704101562,-6.926294803619385,145.46153259277344
21529,-112.19139099121094,-76.53330993652344,1.9671874046325684,160.5445556640625
21530,-88.06529235839844,-56.72680282592773,32.02850341796875,184.2854461669922
21531,-98.88108825683594,-83.5306625366211,6.664501667022705,164.46023559570312
21532,-133.70329284667972,-105.99250793457031,-17.405494689941403,138.83818054199222
21533,-116.21178436279295,-79.72344970703125,-5.568710803985597,157.0327911376953
21534,-94.93174743652344,-65.38092803955078,17.050203323364258,179.21414184570312
21535,-109.00499725341795,-94.4736099243164,0.5983840227127075,159.5385284423828
21536,-134.75045776367188,-115.09168243408205,-33.064456939697266,134.74671936035156
21537,-113.70230865478516,-83.7513198852539,-13.545917510986328,157.46287536621094
21538,-94.69239807128906,-58.87724685668945,4.1138901710510245,178.58583068847656
21539,-110.8001480102539,-82.16934204101562,-8.684047698974611,163.3868865966797
21540,-133.15727233886722,-111.0077133178711,-39.1156120300293,132.78327941894528
21541,-114.68964385986328,-67.28453826904297,-15.56920337677002,163.9403839111328
21542,-96.03501892089844,-73.73960876464844,3.695021152496338,169.28469848632812
21543,-112.62147521972656,-90.66265106201172,-6.039938449859619,151.66976928710938
21544,-136.88969421386722,-102.11422729492188,-24.634721755981445,133.79678344726562
21545,-112.89823150634766,-73.52268981933594,-4.095190525054932,166.97344970703125
21546,-91.95852661132812,-53.48431015014648,21.721338272094727,176.88418579101562
21547,-102.34423065185548,-83.16415405273438,3.1789150238037114,157.54515075683594
21548,-133.90898132324222,-103.8046646118164,-22.084108352661133,136.59797668457028
21549,-113.02538299560548,-78.16017150878906,-6.144655704498291,161.0232696533203
21550,-85.51467895507812,-59.51302719116211,13.867548942565918,183.04379272460938
21551,-112.87953186035156,-87.10601043701172,-9.308610916137695,158.4240264892578
21552,-127.4202651977539,-104.45914459228516,-20.311397552490234,139.09248352050778
21553,-114.02767944335938,-80.17223358154297,-7.633135795593263,162.14149475097656
21554,-88.36448669433594,-56.19947814941406,16.89312744140625,182.58004760742188
21555,-107.28089904785156,-90.6963119506836,-4.4691805839538565,160.29397583007812
21556,-129.79884338378906,-102.92952728271484,-17.390535354614258,144.4667205810547
21557,-120.47526550292969,-79.26344299316406,-8.253959655761719,163.4167938232422
21558,-95.39550018310548,-61.69712829589844,27.009557723999023,186.2975006103516
21559,-110.17184448242188,-87.31918334960938,9.43576717376709,152.30555725097656
21560,-127.6409149169922,-112.17082214355469,-10.251066207885742,139.98258972167972
21561,-112.87953186035156,-79.10262298583984,7.0534515380859375,151.53514099121094
21562,-90.69444274902344,-43.266902923583984,28.07916831970215,184.18072509765625
21563,-110.81884765625,-100.02362060546876,8.81494426727295,156.73733520507812
21564,-134.62704467773438,-112.9188003540039,-8.167941093444824,142.110595703125
21565,-109.21817016601562,-77.80487823486328,9.705039978027344,162.37710571289062
21566,-90.09232330322266,-66.64875793457031,24.896514892578125,177.56109619140625
21567,-112.47562408447266,-95.70404052734376,1.5445786714553833,160.4473114013672
21568,-131.46682739257812,-111.7145538330078,-12.281831741333008,144.986572265625
21569,-112.05300903320312,-87.5660171508789,-0.4039092063903809,158.1360626220703
21570,-89.1573486328125,-66.20745086669922,24.522523880004886,180.27626037597656
21571,-113.6312484741211,-88.92733764648438,8.86356258392334,154.40737915039062
21572,-135.1094970703125,-105.15850830078124,-11.227179527282717,136.88595581054688
21573,-123.4260482788086,-79.9141845703125,0.6844016909599304,153.35272216796875
21574,-97.02609252929688,-51.86493301391602,27.574281692504886,183.2307891845703
21575,-109.04613494873048,-84.98175048828125,10.965386390686037,156.3932647705078
21576,-130.68519592285156,-116.10519409179688,-12.480046272277832,139.95640563964844
21577,-109.86517333984376,-76.8437271118164,9.495606422424316,162.5865478515625
21578,-103.6943359375,-55.234580993652344,18.542423248291016,167.5718231201172
21579,-109.22938537597656,-83.82611846923828,11.900362014770508,153.8800506591797
21580,-131.19007873535156,-104.82565307617188,-16.425640106201172,141.87123107910156
21581,-120.8006362915039,-62.89763641357422,4.46544075012207,165.86643981933594
21582,-90.79916381835938,-64.61425018310547,17.513952255249027,175.87066650390625
21583,-114.02394104003906,-81.80657196044922,0.5123662948608398,162.5902862548828
21584,-134.87388610839844,-111.22462463378906,-15.083016395568848,135.12071228027344
21585,-117.87977600097656,-87.2219467163086,-6.425148010253906,156.8495330810547
21586,-93.4993667602539,-57.64681625366211,16.219945907592773,179.7975616455078
21587,-113.78084564208984,-87.59219360351562,7.636875629425049,162.2088165283203
21588,-133.96882629394528,-103.47555541992188,-13.998445510864258,141.1269989013672
21589,-117.25521087646484,-79.55889129638672,0.8788765072822571,162.12278747558594
21590,-92.00714874267578,-54.21358871459961,26.23913764953613,180.4782257080078
21591,-116.87374114990234,-87.73805236816406,-0.7292804718017578,156.6737518310547
21592,-135.84999084472656,-109.82964324951172,-16.597675323486328,139.31687927246094
21593,-117.83863830566406,-74.81669616699219,0.9499346017837524,161.35984802246094
21594,-105.43712615966795,-54.84189224243164,26.153120040893555,178.58583068847656
21595,-110.32891845703124,-85.86062622070312,4.356983661651611,155.0244598388672
21596,-145.21844482421875,-111.02266693115234,-14.488372802734375,130.49072265625
21597,-116.83634185791016,-79.82442474365234,2.96574068069458,152.16343688964844
21598,-88.48042297363281,-54.84189224243164,26.06336212158203,181.05416870117188
21599,-107.47537231445312,-85.03410339355469,-7.292804718017577,150.64877319335938
21600,-130.60665893554688,-101.2764892578125,-22.013051986694336,135.31144714355472
21601,-109.45378112792969,-84.89946746826172,-2.161662101745605,159.43006896972656
21602,-94.5839385986328,-54.6137580871582,14.507071495056152,175.27601623535156
21603,-104.7564697265625,-74.91767883300781,1.5969372987747192,159.75917053222656
21604,-139.98258972167972,-114.59427642822266,-29.66862678527832,128.49736022949222
21605,-118.0667724609375,-81.53730010986328,-6.982393264770508,155.08804321289062
21606,-95.4254150390625,-53.29731369018555,18.658361434936523,175.2124481201172
21607,-107.44171905517578,-81.17826843261719,3.698760986328125,162.11904907226562
21608,-138.43426513671878,-103.83832550048828,-20.53205108642578,138.77833557128906
21609,-118.43328094482422,-78.22748565673828,2.7824854850769043,163.15126037597656
21610,-105.9644546508789,-54.35570526123047,12.868995666503904,175.24610900878906
21611,-119.891845703125,-78.37708282470703,5.033905506134033,147.71670532226562
21612,-147.4923095703125,-99.9301300048828,-15.554244041442873,136.26138305664062
21613,-131.85578918457028,-69.19562530517578,1.0022932291030884,163.0951690673828
21614,-100.41070556640624,-44.35147476196289,29.735944747924805,177.1497039794922
21615,-112.49432373046876,-74.81295776367188,10.168787956237793,157.4479217529297
21616,-130.29998779296878,-97.7011489868164,-9.720000267028807,141.8787078857422
21617,-118.88207244873048,-72.66251373291016,3.4556674957275386,162.41824340820312
21618,-87.96431732177734,-47.21997833251953,28.853328704833984,183.9750213623047
21619,-117.03456115722656,-80.46768951416016,1.0060330629348757,159.1458282470703
21620,-133.07124328613278,-99.07369232177734,-14.252758979797365,143.61029052734375
21621,-121.02877044677734,-82.79016876220703,-3.0667178630828857,165.87391662597656
21622,-97.57585906982422,-41.14637756347656,20.707826614379886,178.3053436279297
21623,-116.04722595214844,-94.88874053955078,1.7278337478637695,157.8705291748047
21624,-131.70245361328122,-108.66653442382812,-17.267118453979492,136.12675476074222
21625,-111.7276382446289,-77.72260284423828,3.0741977691650386,159.67689514160156
21626,-98.85116577148438,-62.34039306640625,11.634828567504885,167.6279296875
21627,-112.43447875976562,-82.6256103515625,11.23091983795166,155.46951293945312
21628,-129.47346496582028,-102.97066497802734,-14.110642433166506,135.14689636230472
21629,-123.07823944091795,-78.67627716064453,2.6478490829467773,151.35935974121094
21630,-96.76055908203124,-52.78120803833008,31.91630554199219,180.17529296875
21631,-108.44026947021484,-75.54598236083984,14.787564277648926,157.03652954101562
21632,-134.16703796386722,-94.47735595703124,-2.3860561847686768,136.60919189453122
21633,-113.68360900878906,-71.05062103271484,14.776344299316404,157.0552215576172
21634,-93.38716888427734,-41.64752578735352,46.99932098388672,187.1464691162109
21635,-104.59564971923828,-73.14496612548828,28.78974914550781,170.52635192871094
21636,-128.89752197265622,-95.8723373413086,4.267225742340088,148.99574279785156
21637,-116.67552947998048,-84.68629455566406,11.414175033569336,165.82904052734375
21638,-95.24964141845705,-57.62811660766602,21.21271324157715,183.6907958984375
21639,-110.25038146972656,-87.64081573486328,6.18205451965332,160.5894317626953
21640,-132.88800048828122,-108.26262664794922,-20.756444931030273,140.49494934082028
21641,-114.94021606445312,-79.02034759521484,-1.8549903631210327,166.02725219726562
21642,-95.8480224609375,-51.17304992675781,17.61492919921875,175.14886474609375
21643,-107.07520294189452,-86.07006072998047,12.786718368530273,159.58340454101562
21644,-127.95507049560548,-108.56929779052734,-12.562323570251465,143.08670043945312
21645,-121.30926513671876,-83.65408325195312,2.7824854850769043,158.06500244140625
21646,-106.74609375,-57.60942077636719,18.071197509765625,173.45843505859375
21647,-116.74284362792969,-80.4789047241211,9.592843055725098,156.99913024902344
21648,-129.49964904785156,-98.50896453857422,-6.211973667144775,140.10600280761722
21649,-122.11708068847656,-73.24594116210938,11.328157424926758,162.78102111816406
21650,-97.2729263305664,-51.08329391479492,31.21694564819336,182.7408599853516
21651,-108.76937866210938,-74.01261901855469,23.467872619628906,162.43321228027344
21652,-129.48094177246094,-95.47216796875,6.578484058380128,142.34994506835938
21653,-114.86167907714844,-74.42774963378906,20.42733383178711,162.73239135742188
21654,-86.15046691894531,-56.29671478271485,35.46547317504883,184.68560791015625
21655,-107.41553497314452,-90.74493408203124,7.064671039581299,158.4988250732422
21656,-129.44354248046878,-108.3187255859375,-14.596829414367676,147.28660583496094
21657,-112.01560974121094,-81.54851531982422,-5.138622760772705,162.30978393554688
21658,-98.52579498291016,-59.120338439941406,14.346256256103516,182.82687377929688
21659,-103.46994018554688,-94.00238800048828,-4.951627731323242,159.48989868164062
21660,-128.97232055664062,-103.19132232666016,-26.10076141357422,140.61836242675778
21661,-120.62860107421876,-86.10371398925781,-6.608403205871582,155.64903259277344
21662,-93.7574234008789,-56.59216690063477,17.080123901367188,175.87440490722656
21663,-99.48694610595705,-80.70703887939453,6.256852626800537,157.74337768554688
21664,-138.23979187011722,-105.6484375,-20.46099281311035,134.41014099121094
21665,-120.36681365966795,-74.28562927246094,-0.3590303957462311,150.16259765625
21666,-94.6026382446289,-39.00341796875,27.42094612121582,178.84388732910156
21667,-111.05072021484376,-80.26199340820312,13.463640213012695,156.36334228515625
21668,-135.73031616210938,-94.19312286376952,-6.37278938293457,138.18370056152344
21669,-115.80413055419922,-65.38092803955078,10.79335117340088,166.46481323242188
21670,-90.20451354980469,-47.29851531982422,34.122848510742195,178.27542114257812
21671,-110.25411987304688,-76.39119720458984,16.560277938842773,160.57073974609375
21672,-126.28333282470705,-99.76183319091795,-3.313551425933838,139.31314086914062
21673,-106.48429870605469,-68.41024780273439,16.952966690063473,174.18771362304688
21674,-97.05227661132812,-69.3153076171875,23.58380889892578,173.6117706298828
21675,-104.59191131591795,-83.72139739990234,8.201601028442383,159.9087677001953
21676,-129.29768371582028,-103.53164672851562,-10.535298347473145,148.5918426513672
21677,-111.0207977294922,-75.1420669555664,-0.8863562941551208,162.01808166503906
21678,-89.69963073730469,-59.07172012329102,22.68623352050781,180.7774200439453
21679,-109.28548431396484,-85.98777770996094,9.0056791305542,161.2626190185547
21680,-130.913330078125,-110.54396057128906,-19.989765167236328,138.14254760742188
21681,-115.7143783569336,-78.69497680664062,3.414528608322144,158.884033203125
21682,-89.58743286132812,-49.3330192565918,29.94911956787109,189.18096923828125
21683,-111.69772338867188,-79.30084228515625,12.45012664794922,159.9910430908203
21684,-126.20105743408205,-97.9030990600586,-12.532404899597168,143.40084838867188
21685,-120.50892639160156,-68.79545593261719,7.547118186950684,160.65675354003906
21686,-95.18980407714844,-50.65320587158203,33.12429428100586,188.4703826904297
21687,-119.77964782714844,-68.74310302734375,17.932819366455078,160.245361328125
21688,-135.1917724609375,-110.99275207519531,0.20569449663162231,138.17994689941406
21689,-124.77615356445312,-76.08826446533203,12.824116706848145,159.92373657226562
21690,-98.48839569091795,-48.76829528808594,28.146486282348636,179.86488342285156
21691,-110.5832290649414,-79.96653747558594,12.2332124710083,163.79078674316406
21692,-130.3560791015625,-104.25344848632812,-7.887448787689209,141.429931640625
21693,-116.7054443359375,-85.09768676757812,5.138622760772705,170.9639129638672
21694,-96.41648864746094,-64.17668151855469,26.77768325805664,172.60946655273438
21695,-105.6839599609375,-89.19661712646484,3.6912813186645512,154.3849334716797
21696,-128.4898681640625,-114.88972473144531,-17.715906143188477,134.09971618652344
21697,-112.23626708984376,-92.1847915649414,2.980700254440308,156.1464385986328
21698,-91.77527618408205,-69.49855804443361,21.646541595458984,170.27951049804688
21699,-106.19632720947266,-92.09129333496094,8.478353500366211,154.0221710205078
21700,-129.37248229980472,-124.4040298461914,-15.337329864501953,130.85348510742188
21701,-113.76962280273438,-87.80162811279297,4.1438093185424805,155.98187255859375
21702,-86.30754089355469,-64.38611602783203,26.02222442626953,183.133544921875
21703,-102.99871826171876,-80.90525817871094,22.66753387451172,169.67364501953125
21704,-112.67009735107422,-94.09588623046876,11.945240020751953,150.59268188476562
21705,-109.64451599121094,-76.21916198730469,19.80651092529297,165.163330078125
21706,-84.18328094482422,-56.94745635986328,35.304656982421875,182.14247131347656
21707,-109.84273529052734,-88.88246154785156,14.144301414489744,159.21315002441406
21708,-138.81573486328122,-105.18468475341795,-13.003632545471193,139.52632141113278
21709,-118.5492172241211,-82.25910186767578,5.87164306640625,149.3211212158203
21710,-98.98954010009766,-72.65690612792969,24.74691772460937,180.5866851806641
21711,-107.49781799316406,-85.0621566772461,9.914474487304688,153.99224853515625
21712,-133.99501037597656,-115.0935516357422,-14.649188041687012,134.28297424316406
21713,-115.4338836669922,-82.11137390136719,2.4271950721740723,151.2957763671875
21714,-90.89266204833984,-63.37821578979492,25.83896827697754,177.65086364746094
21715,-113.18620300292969,-91.87625122070312,1.7053943872451782,150.09527587890625
21716,-134.05484008789062,-113.96410369873048,-21.504425048828125,132.30082702636722
21717,-110.97966003417969,-84.3814926147461,2.6478490829467773,155.4882049560547
21718,-92.77008819580078,-63.18000030517578,23.778284072875977,178.6344451904297
21719,-105.1977767944336,-89.6846694946289,8.216560363769531,164.8791046142578
21720,-130.67771911621094,-110.81884765625,-10.860669136047363,137.06172180175778
21721,-117.69277954101562,-82.50780487060547,8.134282112121582,162.7361297607422
21722,-88.68985748291016,-55.27011108398438,35.40937423706055,185.08204650878903
21723,-114.26703643798828,-89.22840118408203,21.2688102722168,153.5845947265625
21724,-130.64779663085938,-105.84477996826172,-3.6015236377716064,145.04641723632812
21725,-116.04348754882812,-78.87261962890625,13.848849296569824,163.3868865966797
21726,-97.01487731933594,-59.21196746826172,35.08026123046875,184.0273895263672
21727,-108.44400787353516,-89.19474029541016,16.89312744140625,163.56639099121094
21728,-133.26197814941406,-106.19258880615234,1.2416467666625977,138.39312744140622
21729,-114.44654846191406,-85.85875701904297,14.166741371154785,161.05691528320312
21730,-91.23673248291016,-62.44697952270508,32.671764373779304,178.54095458984375
21731,-106.51795959472656,-85.80265808105469,8.807464599609375,156.86074829101562
21732,-135.88739013671878,-106.71617889404295,-13.553397178649902,133.20588684082028
21733,-110.44859313964844,-81.7934799194336,2.718907356262207,155.5069122314453
21734,-90.67948150634766,-57.40559387207031,29.85188102722168,175.2984619140625
21735,-112.98424530029295,-83.02017211914062,23.81194305419922,161.19903564453125
21736,-128.8302001953125,-117.19537353515624,-5.32561731338501,148.07199096679688
21737,-111.86975860595705,-76.61746215820312,8.138022422790527,159.63575744628906
21738,-91.03477478027344,-56.79598999023438,34.03683090209961,191.3650665283203
21739,-115.0785903930664,-76.6698226928711,14.914721488952635,168.5591583251953
21740,-133.26573181152344,-108.8516616821289,-5.411635398864746,139.48518371582028
21741,-120.20973205566406,-84.79662322998047,5.905302047729492,152.70945739746094
21742,-97.01487731933594,-56.75859069824219,30.35302734375,178.68307495117188
21743,-111.746337890625,-94.0790557861328,19.791549682617188,154.76266479492188
21744,-140.16209411621094,-113.1450653076172,-1.2154674530029297,135.04217529296878
21745,-112.79351043701172,-72.86634063720703,12.94753360748291,157.9191436767578
21746,-97.6543960571289,-56.78477096557617,33.95081329345703,177.875244140625
21747,-118.9306869506836,-85.19679260253906,12.910134315490724,151.96522521972656
21748,-133.448974609375,-107.52399444580078,-5.531311988830566,137.04302978515622
21749,-132.53643798828122,-82.02535247802734,6.817837715148926,150.1925048828125
21750,-101.01282501220705,-60.45735168457031,31.086048126220703,179.2403106689453
21751,-116.89244079589844,-87.0143814086914,16.855728149414062,151.07887268066406
21752,-130.50567626953122,-111.44715118408205,1.5857175588607788,135.22543334960938
21753,-123.63922119140624,-85.35760498046875,7.928587913513184,152.780517578125
21754,-91.8500747680664,-55.9470329284668,33.59552001953125,180.82603454589844
21755,-112.25496673583984,-91.22177124023438,13.72169303894043,154.83372497558594
21756,-135.34884643554688,-106.58528137207031,-5.2321200370788565,135.51341247558594
21757,-114.00524139404295,-73.69285583496094,15.59164333343506,159.4786834716797
21758,-101.19608306884766,-56.10784912109375,31.437599182128906,175.1376495361328
21759,-113.38815307617188,-88.30838775634766,28.26242446899414,161.8236083984375
21760,-138.63247680664062,-101.30828094482422,-4.106410026550293,125.2735595703125
21761,-120.2770538330078,-82.16747283935547,15.359768867492676,145.33811950683594
21762,-103.55596160888672,-56.65387344360352,35.34579467773437,171.0237579345703
21763,-114.3156509399414,-80.74256896972656,16.833290100097653,154.7664031982422
21764,-137.60400390625,-103.13335418701172,-8.504532814025879,126.73211669921876
21765,-126.18609619140624,-74.32864379882812,15.4495267868042,151.94651794433594
21766,-99.22515869140624,-49.77619934082031,34.579116821289055,175.68740844726562
21767,-120.89413452148438,-78.65570831298828,29.380653381347656,160.83253479003906
21768,-135.65925598144528,-101.43169403076172,1.5034397840499878,135.995849609375
21769,-126.90789794921876,-78.80530548095703,7.917368412017822,158.4689178466797
21770,-102.25447082519531,-61.17915344238281,24.571142196655273,179.236572265625
21771,-121.08486938476562,-86.80494689941406,4.229826927185059,161.7749786376953
21772,-136.1192626953125,-108.3131103515625,-19.017391204833984,135.26283264160156
21773,-125.20249938964844,-75.51045227050781,-5.112443447113037,158.06874084472656
21774,-99.29247283935548,-63.68114471435547,19.799030303955078,176.28579711914062
21775,-117.25147247314452,-85.85875701904297,7.326464176177978,157.07766723632812
21776,-137.63018798828122,-113.29466247558594,-17.835582733154297,137.36839294433594
21777,-129.53704833984378,-78.62952423095703,-2.7338669300079346,152.74685668945312
21778,-107.01162719726562,-60.54336929321289,19.600814819335934,177.710693359375
21779,-115.34412384033205,-90.17833709716795,17.214759826660153,160.00601196289062
21780,-147.52597045898438,-104.92476654052734,-13.011112213134766,132.54393005371094
21781,-123.54572296142578,-75.21873474121094,7.464840412139893,155.51438903808594
21782,-110.81136322021484,-53.51235961914063,22.84330940246582,167.5381622314453
21783,-122.1208267211914,-84.92377471923828,7.43118143081665,151.7744903564453
21784,-149.10794067382812,-100.11151123046876,-16.560277938842773,137.09164428710938
21785,-126.4628448486328,-69.46677398681639,23.84934234619141,156.96920776367188
21786,-112.37090301513672,-55.07937622070313,37.309242248535156,182.52394104003903
21787,-128.13458251953122,-87.04430389404297,12.652081489562988,153.22557067871094
21788,-146.61343383789062,-100.85575103759766,-10.370742797851562,142.51075744628906
21789,-121.8178939819336,-85.77647399902344,10.598875999450684,159.7367401123047
21790,-104.36003875732422,-71.20208740234375,27.387287139892575,170.937744140625
21791,-108.97881317138672,-92.21658325195312,11.795644760131836,159.80030822753906
21792,-133.42654418945312,-121.26812744140624,-6.645802021026611,132.00538635253906
21793,-124.60411834716795,-82.70227813720703,2.827364444732666,157.42921447753906
21794,-100.35086822509766,-63.41935348510742,19.32406234741211,171.07611083984375
21795,-120.2733154296875,-89.61735534667969,6.963693618774414,151.88294982910156
21796,-137.17018127441406,-109.30044555664062,-6.541085243225098,131.36585998535156
21797,-119.00174713134766,-87.837158203125,12.913874626159668,159.96861267089844
21798,-98.75019073486328,-58.65846252441406,34.167724609375,169.17623901367188
21799,-115.4563217163086,-83.76815032958984,15.445786476135256,151.28456115722656
21800,-137.55912780761722,-104.0720672607422,7.992166042327881,138.09767150878906
21801,-116.97846221923828,-75.44686889648438,21.81857681274414,159.3964080810547
21802,-94.09400939941406,-53.5684585571289,38.12080001831055,174.51681518554688
21803,-117.23651123046876,-79.4261245727539,23.617467880249023,157.9528045654297
21804,-137.16270446777344,-99.18401336669922,6.406448841094972,141.86749267578125
21805,-135.80885314941406,-75.90313720703125,12.229473114013672,157.1150665283203
21806,-111.86975860595705,-58.1535758972168,33.50576400756836,180.5567626953125
21807,-129.84745788574222,-92.48211669921876,6.021238803863525,156.2174835205078
21808,-147.7353973388672,-119.58517456054688,-14.611788749694824,132.02407836914062
21809,-127.7231903076172,-90.8702163696289,1.4099422693252563,148.52078247070312
21810,-106.21128845214844,-63.30341720581055,19.350242614746094,173.91844177246094
21811,-131.96049499511722,-94.4979248046875,2.5393919944763184,150.55528259277344
21812,-143.01937866210938,-117.03456115722656,-10.77839183807373,127.81668853759766
21813,-132.74214172363278,-94.80085754394531,-7.52841854095459,147.67181396484375
21814,-102.73318481445312,-67.52950286865234,26.23913764953613,161.57302856445312
21815,-122.55091094970705,-91.39380645751952,8.67282772064209,150.99659729003906
21816,-137.3160400390625,-114.91777801513672,-7.805171012878418,123.54198455810548
21817,-127.73815155029295,-82.42178344726562,10.871889114379883,146.11227416992188
21818,-110.06338500976562,-57.29713821411133,37.05492782592773,175.9005889892578
21819,-120.6734848022461,-97.49358367919922,13.755352020263672,152.59727478027344
21820,-139.84046936035156,-120.12371826171876,0.3141515851020813,140.44259643554688
21821,-128.34776306152344,-86.64787292480469,15.655220985412598,159.71803283691406
21822,-107.00788879394531,-72.74292755126953,33.741378784179695,173.57810974121094
21823,-133.94638061523438,-97.26544952392578,9.843416213989258,154.66917419433594
21824,-149.2799835205078,-114.5138702392578,-12.165894508361815,135.99958801269528
21825,-126.76203918457031,-96.17713928222656,-2.12052321434021,147.50726318359375
21826,-102.34049224853516,-66.18313598632811,23.299575805664066,172.35516357421875
21827,-125.3333969116211,-97.2317886352539,6.877676010131836,156.36708068847656
21828,-142.12181091308594,-116.61569213867188,-16.952966690063473,135.38998413085938
21829,-132.81320190429688,-92.7102508544922,-6.200754165649414,141.9385528564453
21830,-106.51048278808594,-67.97080993652344,20.894821166992188,172.77403259277344
21831,-117.52448272705078,-98.96336364746094,-0.7105810046195984,145.18104553222656
21832,-136.4296875,-116.36511993408205,-14.832443237304688,130.01200866699222
21833,-127.40904235839844,-86.62169647216797,4.917968273162842,143.13531494140625
21834,-102.5686264038086,-63.4941520690918,30.491403579711914,171.9849090576172
21835,-124.45452117919922,-84.19075775146484,16.036691665649414,153.95858764648438
21836,-134.02491760253906,-109.21443176269531,1.525879144668579,134.36151123046878
21837,-133.18344116210938,-89.11620330810547,11.48149299621582,150.69740295410156
21838,-108.27945709228516,-61.76257705688477,37.98990249633789,180.61659240722656
21839,-123.85987854003906,-84.93499755859375,14.952119827270508,158.62225341796875
21840,-145.21470642089844,-111.84357452392578,-9.742439270019533,138.83070373535156
21841,-133.96134948730472,-87.02186584472656,3.070457935333252,155.6265869140625
21842,-117.83489990234376,-74.27628326416016,17.502731323242188,174.3971405029297
21843,-124.28996276855469,-100.19378662109376,4.2560062408447275,152.7767791748047
21844,-149.2650146484375,-116.20803833007812,-21.37352752685547,132.95906066894528
21845,-119.94046020507812,-87.48561096191406,-4.989026546478272,147.7428741455078
21846,-108.96759796142578,-72.39511108398438,5.804324626922607,166.41619873046875
21847,-122.18814086914062,-94.5577621459961,0.8003385663032532,148.1580047607422
21848,-144.1376190185547,-109.22564697265624,-16.141408920288086,131.85203552246094
21849,-130.97691345214844,-89.78564453125,-7.165648460388184,139.90031433105472
21850,-103.7317352294922,-67.43974304199219,20.95092010498047,167.03701782226562
21851,-115.11225128173828,-93.70132446289062,3.403308868408203,147.54840087890625
21852,-138.84939575195312,-116.82886505126952,-13.415020942687988,130.36355590820312
21853,-124.78736877441406,-85.38752746582031,3.2200539112091064,148.68533325195312
21854,-108.5936050415039,-58.78187942504883,17.78322410583496,173.7351837158203
21855,-121.5186996459961,-93.09172058105469,12.016298294067385,161.29254150390625
21856,-146.2132568359375,-105.4969711303711,-1.6118968725204468,133.72947692871094
21857,-132.43173217773438,-74.07807159423828,12.057437896728516,157.26840209960938
21858,-117.57310485839844,-57.001686096191406,28.4456787109375,177.37783813476562
21859,-127.4801025390625,-86.81243133544922,13.254205703735352,155.27503967285156
21860,-150.14389038085938,-106.50674438476562,-18.579822540283203,134.19322204589844
21861,-125.0155029296875,-85.12947082519531,-5.142362594604492,157.193603515625
21862,-103.54847717285156,-60.513450622558594,16.941747665405273,172.47483825683594
21863,-126.67227935791016,-89.60987091064453,7.4611005783081055,154.4784393310547
21864,-137.13278198242188,-109.7978515625,-11.758245468139648,133.44523620605472
21865,-126.36186981201172,-82.75837707519531,0.2505733072757721,152.3541717529297
21866,-97.28414916992188,-40.0487174987793,24.94513320922852,169.38194274902344
21867,-120.22843170166016,-96.62218475341795,9.514305114746094,147.88125610351562
21868,-137.862060546875,-97.29911041259766,-5.9688801765441895,131.19381713867188
21869,-128.88630676269528,-74.96068572998047,14.884801864624025,159.7367401123047
21870,-101.3606414794922,-55.8871955871582,29.7546443939209,178.5147705078125
