,T7,F8,Cz,P4
1000,-89.96516418457031,-126.87610626220705,23.41364288330078,134.72988891601562
1001,-76.93161010742188,-118.7380828857422,31.607765197753906,139.22525024414062
1002,-76.89047241210938,-119.39256286621094,32.019153594970696,133.90711975097656
1003,-76.86429595947266,-132.74774169921878,31.45442771911621,138.02101135253906
1004,-79.11571502685547,-115.5442123413086,33.96016311645508,145.826171875
1005,-85.58760833740234,-127.97750854492188,26.93475914001465,142.8623046875
1006,-80.46768951416016,-128.89378356933594,29.95285797119141,149.03688049316406
1007,-82.6256103515625,-144.33209228515625,28.064208984375,143.0418243408203
1008,-87.01998901367188,-125.2772979736328,20.812543869018555,140.19949340820312
1009,-93.2469253540039,-123.3849105834961,24.20089340209961,147.15945434570312
1010,-81.35030364990234,-118.69507598876952,29.021623611450195,149.46322631835938
1011,-87.35658264160156,-128.74418640136722,16.283523559570312,133.71076965332028
1012,-83.53440856933594,-112.52050018310548,17.300777435302734,145.65602111816406
1013,-76.81754302978516,-121.8777313232422,23.856821060180664,142.87353515625
1014,-71.02818298339844,-134.10720825195312,26.19425964355469,138.3370361328125
1015,-81.57096099853516,-134.31289672851562,13.366402626037598,136.52691650390622
1016,-80.16849517822266,-119.78712463378906,16.190027236938473,136.14170837402344
1017,-81.49241638183594,-119.77964782714844,21.34734916687012,140.06112670898438
1018,-77.63284301757812,-127.19586944580078,22.34590148925781,139.17851257324222
1019,-78.81465148925781,-124.97810363769531,22.96298599243164,137.64889526367188
1020,-82.33390045166016,-111.08811950683594,26.01474380493164,141.69546508789062
1021,-84.49929809570312,-116.33145904541016,28.29234313964844,141.20179748535156
1022,-77.72260284423828,-121.26812744140624,27.18907356262207,140.31918334960938
1023,-85.22857666015625,-120.8567352294922,27.963232040405273,138.883056640625
1024,-84.86955261230469,-118.0480728149414,25.37148094177246,150.4131622314453
1025,-88.37383270263672,-112.5279769897461,26.624347686767575,148.73020935058594
1026,-75.50483703613281,-123.89727783203124,28.225025177001953,148.68533325195312
1027,-85.88680267333984,-119.29719543457031,19.82147026062012,143.04556274414062
1028,-82.71537017822266,-114.77191925048828,17.068902969360348,145.01275634765625
1029,-75.4599609375,-123.18295288085938,23.198598861694336,143.70004272460938
1030,-70.44475555419922,-123.73645782470705,21.276290893554688,143.45321655273438
1031,-63.58951950073242,-132.02781677246094,17.525171279907227,143.10166931152344
1032,-75.47492218017578,-128.10466003417972,15.905794143676758,144.0964813232422
1033,-85.213623046875,-131.52667236328122,13.669334411621096,138.89053344726562
1034,-82.00852966308594,-132.46913146972656,14.660408020019533,137.64140319824222
1035,-75.76663208007812,-130.10177612304688,11.189780235290527,134.77664184570312
1036,-85.04158782958984,-124.046875,17.22597885131836,138.56517028808594
1037,-83.98319244384766,-130.21771240234378,21.093036651611328,138.16499328613278
1038,-75.4375228881836,-128.75166320800778,21.395967483520508,142.02830505371094
1039,-83.22025299072266,-132.95156860351562,17.9814395904541,135.79763793945312
1040,-92.42041015625,-116.5371551513672,18.007617950439453,138.883056640625
1041,-81.77291107177734,-117.7040023803711,26.82630157470703,139.18598937988278
1042,-81.29794311523438,-120.24339294433594,27.10305404663086,145.12120056152344
1043,-92.35682678222656,-124.54428100585938,24.24951171875,140.80909729003906
1044,-87.6258544921875,-114.6111068725586,24.53374290466309,148.2552490234375
1045,-85.68484497070312,-122.55838775634766,23.422992706298828,142.16294860839844
1046,-68.74310302734375,-126.27584838867188,26.16434097290039,141.07089233398438
1047,-85.02288818359375,-132.72343444824222,14.04332447052002,135.03469848632812
1048,-89.28636932373047,-122.7491226196289,13.889988899230955,136.2127685546875
1049,-80.0151596069336,-121.06243133544922,26.22043800354004,144.470458984375
1050,-72.325927734375,-129.11070251464844,25.55847549438477,137.50677490234378
1051,-87.37902069091797,-124.89208984375,14.237798690795898,132.65986633300778
1052,-80.80427551269531,-127.89522552490234,17.323217391967773,140.63333129882812
1053,-87.3042221069336,-129.716552734375,17.10630226135254,140.5323486328125
1054,-78.10407257080078,-131.50422668457028,22.09532928466797,133.4078369140625
1055,-81.23436737060547,-132.54393005371094,16.904348373413086,138.04158020019528
1056,-84.57035827636719,-123.63174438476562,16.219945907592773,134.51858520507812
1057,-77.58422088623047,-124.66021728515624,26.96841812133789,141.07089233398438
1058,-83.14545440673828,-125.36705780029295,25.22562599182129,136.0482177734375
1059,-79.82816314697266,-126.18609619140624,23.284616470336914,133.06002807617188
1060,-86.4590072631836,-114.0127182006836,25.65571403503418,138.55393981933594
1061,-80.48638916015625,-124.5517578125,28.168926239013672,138.68110656738278
1062,-81.88884735107422,-129.4697265625,26.17181968688965,135.22543334960938
1063,-82.12820434570312,-134.60087585449222,22.56655693054199,140.36405944824222
1064,-79.90670013427734,-124.2488250732422,29.825702667236328,140.37527465820312
1065,-77.63284301757812,-120.23591613769531,26.886140823364254,138.81947326660156
1066,-76.71282958984375,-131.93058776855472,25.883848190307614,138.37068176269528
1067,-79.3157958984375,-131.91561889648438,19.454959869384766,136.24642944335938
1068,-77.85723876953125,-124.13288879394531,23.995197296142575,138.93914794921878
1069,-75.38516235351562,-122.1993637084961,28.51673698425293,139.87786865234378
1070,-80.89777374267578,-145.02023315429688,26.201738357543945,130.43461608886722
1071,-81.33160400390625,-132.944091796875,19.7429313659668,131.07040405273438
1072,-81.45502471923828,-123.42230987548828,24.00267791748047,132.46163940429688
1073,-83.93083190917969,-133.28068542480472,22.92184638977051,134.55224609375
1074,-77.31494903564453,-125.2735595703125,27.36484718322754,136.08186340332028
1075,-89.60052490234375,-136.41098022460938,20.73026466369629,129.65298461914062
1076,-84.33474731445312,-126.7358627319336,23.149980545043945,134.28671264648438
1077,-77.09056091308594,-118.99427032470705,31.65451240539551,133.80801391601562
1078,-74.16221618652344,-130.55429077148438,31.987363815307614,136.46333312988278
1079,-85.20240020751953,-144.69859313964844,24.51504325866699,124.9332275390625
1080,-75.60581970214844,-128.90873718261722,24.48138427734375,136.16789245605472
1081,-76.65299224853516,-124.78736877441406,29.36943435668945,136.4708251953125
1082,-78.48554229736328,-135.16184997558594,31.912567138671875,135.17308044433594
1083,-82.71537017822266,-135.10575866699222,19.780330657958984,136.841064453125
1084,-84.98175048828125,-121.79544830322266,25.24806404113769,135.34510803222656
1085,-80.81549835205078,-134.15208435058594,20.120662689208984,135.91357421875
1086,-73.41423797607422,-135.42738342285156,23.02656364440918,138.95785522460938
1087,-80.5013427734375,-127.1210708618164,17.454113006591793,132.57009887695312
1088,-82.10950469970703,-121.39527893066406,20.124401092529297,132.36814880371094
1089,-83.2875747680664,-128.39263916015622,20.52831077575684,133.2021484375
1090,-68.25691223144531,-129.19671630859378,29.937898635864254,137.35343933105472
1091,-86.96763610839844,-131.05918884277344,16.504179000854492,128.45246887207028
1092,-77.56178283691406,-127.39034271240234,21.908334732055664,131.85203552246094
1093,-77.17657470703125,-121.4551239013672,29.784563064575195,134.98982238769528
1094,-77.38227081298828,-136.05943298339844,30.50636482238769,132.21107482910156
1095,-78.5528564453125,-131.86700439453122,26.13816070556641,134.4288330078125
1096,-80.57988739013672,-128.25051879882812,20.99205780029297,127.59603881835938
1097,-82.326416015625,-133.48263549804688,22.910627365112305,131.69869995117188
1098,-77.81610107421875,-137.49180603027344,22.60769462585449,128.83767700195312
1099,-80.9015121459961,-144.73599243164062,17.132482528686527,128.19442749023438
1100,-82.30023956298828,-130.71885681152344,15.094236373901367,133.50881958007812
1101,-75.60581970214844,-133.4190673828125,21.186532974243164,134.64201354980472
1102,-57.88617324829102,-125.90560150146484,33.68901824951172,141.3513946533203
1103,-71.82852172851562,-124.96315002441406,25.37522125244141,138.07524108886722
1104,-77.09803771972656,-118.22384643554688,24.619760513305664,145.93650817871094
1105,-80.81175994873047,-112.59529876708984,23.591289520263672,140.01625061035156
1106,-84.20011138916016,-127.71197509765624,19.44373893737793,130.12420654296878
1107,-86.05509948730469,-132.63368225097656,20.120662689208984,127.97750854492188
1108,-90.56541442871094,-119.20370483398438,16.642555236816403,133.789306640625
1109,-80.38540649414062,-117.92091369628906,27.03573608398437,134.16703796386722
1110,-78.68375396728516,-132.51774597167972,23.09014320373535,127.44644165039062
1111,-80.71826171875,-133.44149780273438,20.34131622314453,128.03733825683594
1112,-80.96509552001953,-117.82367706298828,27.20403289794922,134.22314453125
1113,-76.5033950805664,-116.6830062866211,29.50032997131348,131.4593505859375
1114,-81.23436737060547,-124.47695922851562,23.441692352294922,123.56068420410156
1115,-81.9262466430664,-126.64984130859376,23.576330184936523,122.1395263671875
1116,-82.79016876220703,-118.52677917480469,27.0955753326416,134.91876220703122
1117,-77.96195220947266,-129.52957153320312,23.681047439575195,134.94868469238278
1118,-76.69786834716797,-127.4838409423828,23.494050979614254,132.75335693359378
1119,-76.99331665039062,-134.75794982910156,24.20837211608887,129.51460266113278
1120,-85.68484497070312,-130.52064514160156,15.05683708190918,127.93262481689452
1121,-83.71765899658203,-132.38685607910156,17.59248924255371,124.64899444580078
1122,-77.92455291748047,-134.52607727050778,22.798429489135746,130.33364868164062
1123,-83.28382873535156,-138.23979187011722,12.278091430664062,123.07450103759766
1124,-84.8957290649414,-131.15267944335938,16.549057006835938,129.37248229980472
1125,-88.53839111328125,-126.0551986694336,16.25734519958496,136.96823120117188
1126,-78.74732971191406,-140.913818359375,18.59104347229004,134.59712219238278
1127,-88.82262420654297,-138.66239929199222,12.214512825012207,130.4383544921875
1128,-79.25969696044922,-123.6691436767578,16.197505950927734,135.07957458496094
1129,-78.52667999267578,-126.8630142211914,19.68683242797852,131.758544921875
1130,-83.10057830810547,-133.13482666015622,20.61806869506836,125.7373046875
1131,-85.1537857055664,-134.96363830566406,16.021732330322266,120.82682037353516
1132,-86.51884460449219,-135.91357421875,22.1663875579834,124.82102966308594
1133,-84.76856994628906,-126.1150360107422,23.62868881225586,128.26547241210938
1134,-79.18115997314453,-141.50473022460938,25.390180587768555,124.0693130493164
1135,-82.87618255615234,-126.78447723388672,27.544363021850586,122.79026794433594
1136,-85.21736145019531,-110.9422607421875,27.07687568664551,130.56178283691406
1137,-84.5553970336914,-118.8297119140625,27.66029930114746,130.48324584960938
1138,-79.1923828125,-142.34994506835938,24.76935768127441,126.8817138671875
1139,-91.59388732910156,-139.07752990722656,16.736051559448242,124.55923461914062
1140,-76.38745880126953,-131.60894775390622,16.421899795532227,131.80342102050778
1141,-85.0191421508789,-128.94987487792972,14.047063827514648,133.95387268066406
1142,-91.22737884521484,-146.19830322265625,15.554244041442873,129.40988159179688
1143,-85.48663330078125,-137.62644958496094,11.747025489807127,130.92080688476562
1144,-88.45611572265625,-126.00283813476562,12.300531387329102,131.23121643066406
1145,-86.5412826538086,-129.98583984375,15.288710594177244,130.2738037109375
1146,-71.82103729248047,-139.67965698242188,18.96503257751465,129.03964233398438
1147,-92.87667846679688,-138.7596435546875,8.055744171142576,121.582275390625
1148,-85.96533966064453,-133.75564575195312,16.197505950927734,128.98353576660156
1149,-82.53958892822266,-136.18284606933594,17.409235000610348,133.01515197753906
1150,-85.00418853759766,-142.2714080810547,16.44808006286621,123.77385711669922
1151,-87.6258544921875,-130.43087768554688,16.560277938842773,126.1786117553711
1152,-81.05485534667969,-109.10223388671876,26.197999954223636,133.8304443359375
1153,-82.80138397216797,-129.716552734375,26.287755966186523,131.68748474121094
1154,-71.01696014404297,-137.53294372558594,36.25458908081055,134.54476928710938
1155,-78.5341567993164,-127.19586944580078,25.382701873779297,126.840576171875
1156,-87.71187591552734,-116.58950805664062,21.620361328125,127.83912658691406
1157,-76.11444091796875,-120.38925170898438,25.92498588562012,137.66011047363278
1158,-77.31494903564453,-138.378173828125,29.212358474731445,131.35838317871094
1159,-83.82611846923828,-136.40724182128906,19.862607955932614,131.2947998046875
1160,-83.57180786132812,-129.54826354980472,19.638214111328125,132.46913146972656
1161,-87.11348724365234,-129.387451171875,24.85537528991699,135.18429565429688
1162,-85.43427276611328,-142.62669372558594,21.470766067504886,131.84829711914062
1163,-90.80850982666016,-127.97002410888672,18.224533081054688,129.57070922851562
1164,-90.2363052368164,-129.79510498046878,17.573789596557614,131.582763671875
1165,-85.18743896484375,-125.64755249023438,27.24143218994141,131.85578918457028
1166,-83.43716430664062,-139.51884460449222,21.298730850219727,130.3673095703125
1167,-89.17791748046875,-123.37742614746094,18.673320770263672,127.70075225830078
1168,-92.57748413085938,-129.09947204589844,17.66354751586914,129.56697082519528
1169,-88.83758544921875,-122.34521484375,27.21899223327637,132.0577392578125
1170,-85.10890197753906,-127.65213775634766,25.74173164367676,130.28875732421878
1171,-84.92938995361328,-128.1083984375,22.34590148925781,129.56697082519528
1172,-78.27236938476562,-116.2005615234375,27.959491729736328,136.90838623046878
1173,-85.2547607421875,-122.76034545898438,24.675859451293945,136.48577880859378
1174,-74.39408874511719,-138.44174194335938,22.51045799255371,130.96194458007812
1175,-86.27949523925781,-133.15727233886722,20.195459365844727,134.05857849121094
1176,-91.2760009765625,-132.96279907226562,16.597675323486328,135.03096008300778
1177,-85.55020904541016,-131.69869995117188,16.807109832763672,128.79280090332028
1178,-79.27839660644531,-135.96592712402344,22.58151626586914,135.43112182617188
1179,-92.08381652832031,-141.07089233398438,14.024624824523926,131.50048828125
1180,-87.85772705078125,-131.69496154785156,16.074090957641598,144.3096466064453
1181,-85.08646392822266,-125.74478912353516,23.68852615356445,136.65032958984378
1182,-82.14690399169922,-126.7396011352539,27.772497177124023,135.09454345703122
1183,-84.64515686035156,-122.47237396240234,19.178207397460934,130.03071594238278
1184,-97.63756561279295,-107.03032684326172,23.3220157623291,134.51484680175778
1185,-90.34102630615234,-127.5661163330078,26.72158432006836,140.45381164550778
1186,-88.51969146728516,-127.07244873046876,24.08121490478516,132.71221923828122
1187,-92.75325775146484,-128.31784057617188,17.121261596679688,126.0963363647461
1188,-81.42510223388672,-100.48550415039062,31.76671028137207,142.9857177734375
1189,-75.80029296875,-117.5843276977539,39.3848876953125,141.54212951660156
1190,-78.67253875732422,-126.27584838867188,35.01668167114258,140.60714721679688
1191,-84.54043579101562,-124.0655746459961,31.27304267883301,140.65950012207028
1192,-83.88221740722656,-124.37598419189452,29.35073471069336,141.10829162597656
1193,-76.23786163330078,-125.91307830810548,28.10534858703613,145.41665649414062
1194,-87.57349395751953,-138.366943359375,20.771404266357425,141.11203002929688
1195,-87.21446990966797,-135.03469848632812,14.503332138061525,137.27116394042972
1196,-88.60196685791016,-127.99246978759766,14.129342079162598,147.0547332763672
1197,-88.95352172851562,-136.44837951660156,15.931973457336426,141.28033447265625
1198,-84.03555297851562,-141.8076629638672,17.001585006713867,137.03929138183594
1199,-94.3875961303711,-142.2377471923828,13.190627098083494,133.43402099609378
1200,-88.89742279052734,-130.32991027832028,23.651126861572266,137.83213806152344
1201,-83.72514343261719,-132.88426208496094,20.74522590637207,135.24038696289062
1202,-77.33739471435547,-130.07933044433594,27.495744705200195,133.965087890625
1203,-87.92131042480469,-139.72079467773438,19.858869552612305,128.06352233886722
1204,-85.49037170410156,-121.37284088134766,23.06396293640137,133.58735656738278
1205,-79.18115997314453,-117.19537353515624,30.839214324951172,133.94264221191406
1206,-84.18515014648438,-141.259765625,27.841684341430664,129.17988586425778
1207,-80.40410614013672,-128.07661437988278,25.881977081298828,137.17579650878906
1208,-81.64201354980469,-117.01399230957031,25.30229377746582,140.8296661376953
1209,-87.2219467163086,-129.77452087402344,21.9962215423584,140.59031677246094
1210,-83.84855651855469,-128.80215454101562,18.480714797973636,143.25686645507812
1211,-92.95521545410156,-133.99313354492188,12.399638175964355,142.8716583251953
1212,-99.93386840820312,-124.85655975341795,15.750588417053224,143.1110076904297
1213,-90.14654541015624,-135.50032043457028,17.82623291015625,141.22984313964844
1214,-80.07125854492188,-149.96998596191406,23.50714111328125,137.54229736328122
1215,-90.2325668334961,-127.19773864746094,11.63295841217041,133.09556579589844
1216,-84.11408996582031,-121.39715576171876,15.795467376708984,138.35011291503906
1217,-96.30990600585938,-129.804443359375,12.75118923187256,133.98939514160156
1218,-93.92010498046876,-130.8665771484375,13.409411430358887,131.61830139160156
1219,-92.8617172241211,-125.66063690185548,10.039761543273926,130.16348266601562
1220,-93.84156799316406,-124.63216400146484,10.754082679748537,129.01533508300778
1221,-95.0719985961914,-131.70057678222656,10.634405136108398,130.66462707519528
1222,-83.92335510253906,-127.8110809326172,22.639484405517575,126.28146362304688
1223,-87.63333892822266,-126.09820556640624,16.63320541381836,125.24176788330078
1224,-90.77484893798828,-108.5019760131836,25.62018394470215,133.73507690429688
1225,-89.0058822631836,-123.5812530517578,25.2536735534668,138.06588745117188
1226,-83.4296875,-129.67729187011722,23.79885292053223,138.43614196777344
1227,-89.36116790771484,-135.67608642578122,16.966056823730472,136.61106872558594
1228,-91.81454467773438,-118.71564483642578,15.496275901794435,144.59201049804688
1229,-95.40858459472656,-130.660888671875,12.283700942993164,135.9490966796875
1230,-96.76991271972656,-139.80494689941406,16.06100082397461,134.90567016601562
1231,-95.22907257080078,-134.71867370605472,17.310127258300778,136.59983825683594
1232,-96.20518493652344,-116.0939712524414,14.912851333618164,140.07795715332028
1233,-91.26477813720705,-125.99723052978516,23.76893424987793,142.26205444335938
1234,-92.8654556274414,-129.1761474609375,19.65130424499512,133.67524719238278
1235,-89.8136978149414,-127.04440307617188,21.13978385925293,129.72964477539062
1236,-86.60111999511719,-116.63999938964844,29.61813735961914,132.73652648925778
1237,-90.62525939941406,-125.43624114990234,25.220014572143555,132.9908447265625
1238,-90.30736541748048,-134.78973388671878,24.86098480224609,118.46507263183594
1239,-98.12749481201172,-126.45723724365234,22.54598617553711,118.35287475585938
1240,-88.68051147460938,-117.0513916015625,27.445255279541016,135.97528076171878
1241,-82.88740539550781,-113.82759857177734,29.289026260375977,138.03596496582028
1242,-91.23485565185548,-131.3004150390625,14.561300277709961,125.91869354248048
1243,-84.36840057373047,-132.02969360351562,12.410858154296875,124.88273620605469
1244,-79.76458740234375,-114.89346313476562,13.330873489379885,132.29522705078122
1245,-93.2431869506836,-139.07940673828122,8.861693382263184,128.72361755371094
1246,-90.81224822998048,-144.58827209472656,15.4551362991333,128.52540588378906
1247,-91.69112396240234,-130.35047912597656,16.049779891967773,131.77537536621094
1248,-88.57952880859375,-133.56304931640622,17.05581283569336,134.2586669921875
1249,-90.89826965332031,-139.19534301757812,14.591219902038574,132.23538208007812
1250,-83.33245086669922,-142.61734008789062,17.930950164794922,131.52479553222656
1251,-91.4368133544922,-144.91738891601562,9.20202350616455,121.88333892822266
1252,-96.09298706054688,-134.99168395996094,11.038314819335938,129.07890319824222
1253,-90.636474609375,-129.30703735351562,16.700523376464847,130.04380798339844
1254,-89.99695587158203,-130.90397644042972,17.852413177490234,126.330078125
1255,-98.2022933959961,-122.82953643798828,10.48480987548828,124.11231994628906
1256,-91.0142059326172,-127.19400024414062,16.326532363891598,126.03462982177734
1257,-86.25704956054688,-122.03667449951172,27.63973045349121,132.14936828613278
1258,-80.15727233886719,-134.8046875,29.93228912353516,127.3735122680664
1259,-91.0142059326172,-141.5215606689453,25.35465240478516,127.79985809326172
1260,-95.82371520996094,-120.2041244506836,22.07476043701172,127.76994323730469
1261,-88.68051147460938,-131.41635131835938,23.163070678710934,128.06913757324222
1262,-88.89742279052734,-142.5724639892578,17.51582145690918,126.12064361572266
1263,-94.3240203857422,-134.88322448730472,16.65938377380371,130.20088195800778
1264,-93.01131439208984,-135.00291442871094,17.624279022216797,129.64363098144528
1265,-88.14196014404297,-135.05900573730472,26.94784927368164,133.79118347167972
1266,-85.58013153076172,-143.77671813964844,25.96799468994141,130.49258422851562
1267,-96.85592651367188,-133.536865234375,23.03591346740723,128.30474853515622
1268,-98.19855499267578,-129.64363098144528,20.889211654663086,131.46122741699222
1269,-89.49580383300781,-133.1553955078125,23.929750442504886,133.06190490722656
1270,-104.08141326904295,-147.77467346191406,20.212289810180664,124.34793090820312
1271,-96.8783721923828,-126.6479721069336,20.245948791503906,129.0003662109375
1272,-104.87801361083984,-132.25408935546878,12.754928588867188,124.28435516357422
1273,-90.5766372680664,-128.794677734375,26.132551193237305,132.42985534667972
1274,-82.95098114013672,-131.2891845703125,26.36442565917969,135.03657531738278
1275,-103.27359771728516,-128.55532836914062,15.189603805541992,131.94366455078122
1276,-101.06705474853516,-132.13066101074222,11.801254272460938,135.80325317382812
1277,-78.18634796142578,-128.47303771972656,26.1213321685791,141.27471923828125
1278,-90.30362701416016,-136.26699829101562,11.947110176086426,129.80818176269528
1279,-94.45491027832031,-125.61949920654295,3.696891069412232,123.14368438720705
1280,-100.04232025146484,-117.75074768066406,7.36573314666748,137.10847473144528
1281,-92.1025161743164,-125.94113159179688,15.372859001159668,137.66571044921878
1282,-102.72756958007812,-133.12547302246094,11.49832248687744,125.06599426269531
1283,-93.08985137939452,-136.67463684082028,11.161731719970703,130.82170104980472
1284,-97.1214599609375,-120.45469665527344,12.399638175964355,127.62034606933594
1285,-105.55867767333984,-127.90457916259766,14.82309341430664,127.13416290283205
1286,-94.98223876953124,-132.49343872070312,18.824787139892575,131.13958740234378
1287,-102.15536499023438,-129.30329895019528,12.66891098022461,124.041259765625
1288,-101.9795913696289,-118.10230255126952,13.233635902404785,129.79696655273438
1289,-94.46613311767578,-122.48920440673828,18.14786529541016,132.29522705078122
1290,-88.22798156738281,-133.67898559570312,24.071866989135746,127.74750518798828
1291,-97.1999969482422,-128.21499633789062,18.51063537597656,132.81880187988278
1292,-99.79549407958984,-119.72541809082031,26.259708404541016,136.86163330078122
1293,-97.18504333496094,-112.8739242553711,28.851457595825195,140.60902404785156
1294,-96.03314971923828,-126.07950592041016,24.789926528930664,138.43988037109378
1295,-96.01071166992188,-128.15141296386722,20.156190872192386,132.18302917480472
1296,-94.71670532226562,-123.11750793457031,16.027341842651367,134.64761352539062
1297,-91.18624114990234,-130.47015380859378,15.687010765075685,133.06190490722656
1298,-96.25006866455078,-140.42576599121094,11.38238525390625,127.79985809326172
1299,-98.76327514648438,-129.33695983886722,8.173551559448242,123.74207305908205
1300,-97.02422332763672,-127.84474182128906,9.572274208068848,131.06105041503906
1301,-91.08526611328124,-136.81675720214844,16.064741134643555,132.49717712402344
1302,-88.74408721923828,-133.26011657714844,16.764101028442386,129.51274108886722
1303,-103.95800018310548,-138.85501098632812,9.2843017578125,122.08155059814452
1304,-96.75495147705078,-114.11930847167969,16.708003997802734,130.01014709472656
1305,-96.39218139648438,-136.17349243164062,17.291427612304688,123.12124633789062
1306,-88.33643341064453,-122.4555435180664,22.714282989501953,122.26480865478516
1307,-99.85533142089844,-134.38957214355472,12.504355430603027,117.88538360595705
1308,-90.08296966552734,-123.61865234375,18.70137023925781,124.6620864868164
1309,-91.99405670166016,-116.99154663085938,23.724056243896484,132.66546630859378
1310,-89.30133056640625,-141.2635040283203,23.36502456665039,129.15744018554688
1311,-92.71959686279295,-131.1246337890625,15.627171516418455,131.17324829101562
1312,-96.56047821044922,-123.43539428710938,16.782800674438473,132.63555908203122
1313,-96.5380401611328,-121.99553680419922,18.5629940032959,132.77766418457028
1314,-91.822021484375,-139.33744812011722,16.99971580505371,128.93679809570312
1315,-101.34007263183594,-139.35615539550778,11.666618347167967,119.7852554321289
1316,-99.70199584960938,-126.71903228759766,9.512435913085938,125.42876434326172
1317,-94.3913345336914,-130.72445678710938,15.874005317687988,127.92327880859376
1318,-96.1752700805664,-132.74026489257812,13.196236610412598,123.88792419433594
1319,-103.35961151123048,-131.00495910644528,7.085240364074707,117.257080078125
1320,-99.23450469970705,-120.2677001953125,11.184170722961426,123.36808013916016
1321,-94.58206939697266,-131.96611022949222,17.037115097045902,125.7242202758789
1322,-97.7011489868164,-136.71952819824222,10.522208213806152,116.43804168701172
1323,-90.2774429321289,-124.35167694091795,17.504602432250973,125.79901123046876
1324,-97.05040740966795,-124.08988189697266,15.425217628479006,126.35252380371094
1325,-91.2984390258789,-120.81746673583984,28.42510986328125,134.42697143554688
1326,-86.75445556640625,-135.21234130859378,32.509078979492195,139.88348388671878
1327,-94.6905288696289,-131.45375061035156,24.65903091430664,135.5264892578125
1328,-94.88126373291016,-112.75798034667969,17.44476318359375,132.40742492675778
1329,-96.53429412841795,-138.30523681640622,18.83600616455078,134.10159301757812
1330,-94.12206268310548,-131.61456298828122,17.781354904174805,131.81651306152344
1331,-93.46383666992188,-146.19642639160156,7.077760696411133,126.26276397705078
1332,-92.14739227294922,-130.17469787597656,16.094659805297848,135.28340148925778
1333,-88.429931640625,-126.95838165283205,24.91708374023437,133.76126098632812
1334,-86.63478088378906,-138.81011962890622,16.599546432495114,132.97962951660156
1335,-96.16778564453124,-129.25468444824222,12.867125511169435,133.62663269042972
1336,-106.9536590576172,-124.11979675292969,8.091273307800293,137.81904602050778
1337,-97.4842300415039,-126.44976043701172,10.877498626708984,133.49198913574222
1338,-92.57374572753906,-142.50140380859375,14.209750175476074,131.74171447753906
1339,-96.16030883789062,-134.53915405273438,9.501215934753418,128.876953125
1340,-99.33922576904295,-125.23055267333984,10.18935775756836,133.619140625
1341,-84.50678253173828,-132.60563659667972,16.457429885864258,139.93209838867188
1342,-86.35428619384766,-129.69224548339844,21.73442840576172,135.48908996582028
1343,-92.1212158203125,-121.85716247558594,15.492535591125488,135.91545104980472
1344,-92.55878448486328,-118.85775756835938,21.188404083251953,144.50225830078125
1345,-87.03868865966797,-123.96646118164062,18.319900512695312,143.01751708984375
1346,-92.843017578125,-135.578857421875,13.18127727508545,133.32369995117188
1347,-89.94459533691406,-139.11680603027344,10.525948524475098,131.52853393554688
1348,-105.7120132446289,-130.76559448242188,8.599900245666504,130.85162353515622
1349,-92.68968200683594,-128.44313049316406,12.721269607543945,132.71783447265622
1350,-95.52078247070312,-134.84208679199222,17.927209854125977,135.23478698730472
1351,-102.1179656982422,-130.41404724121094,6.602793216705322,131.44625854492188
1352,-98.59498596191406,-128.20002746582028,14.983909606933596,132.48970031738278
1353,-96.66145324707031,-139.19534301757812,13.102739334106445,132.73652648925778
1354,-90.81973266601562,-139.46461486816406,7.156298637390138,125.77657318115234
1355,-105.11737060546876,-148.3880157470703,0.6189534664154053,120.42852020263672
1356,-96.66519165039062,-143.78793334960938,5.342447280883789,122.22367095947266
1357,-92.162353515625,-147.9130401611328,10.959776878356934,126.70033264160156
1358,-88.91986083984375,-146.0991973876953,11.96207046508789,121.56170654296876
1359,-81.93373107910156,-141.4280548095703,18.46201705932617,133.06938171386722
1360,-74.58108520507812,-124.71444702148438,28.137136459350586,149.147216796875
1361,-66.57022094726561,-125.1220932006836,36.82866668701172,149.93258666992188
1362,-73.20480346679688,-128.19255065917972,32.13883209228516,147.7484893798828
1363,-92.4428482055664,-126.1468276977539,12.48939609527588,134.22500610351562
1364,-93.29928588867188,-124.93509674072266,10.36887264251709,138.2379150390625
1365,-93.37408447265624,-135.80325317382812,12.455737113952635,138.21548461914062
1366,-87.71935272216797,-143.86273193359375,13.626325607299805,136.58114624023438
1367,-92.86919403076172,-132.66920471191406,9.512435913085938,129.45663452148438
1368,-92.57000732421876,-136.09121704101562,11.797513961791992,136.73074340820312
1369,-90.2774429321289,-140.02932739257812,12.46695613861084,139.8572998046875
1370,-100.54347229003906,-133.78370666503906,10.507248878479004,130.90397644042972
1371,-96.31364440917969,-138.9185791015625,9.662031173706056,125.59706115722656
1372,-109.11531829833984,-136.5474853515625,4.803901672363281,128.36459350585938
1373,-95.08321380615234,-136.77188110351562,11.300107955932615,129.97274780273438
1374,-91.1002197265625,-140.07795715332028,14.359345436096193,128.36833190917972
1375,-92.55130767822266,-131.55471801757812,16.737922668457028,133.66403198242188
1376,-96.28372192382812,-128.96670532226562,12.40711784362793,136.259521484375
1377,-87.9474868774414,-126.71529388427734,19.61390495300293,138.537109375
1378,-90.78233337402344,-140.8670654296875,19.31097412109375,132.83003234863278
1379,-90.10540771484376,-143.36532592773438,18.742507934570312,135.14875793457028
1380,-98.6436004638672,-136.30439758300778,13.401931762695312,140.81471252441406
1381,-94.0921401977539,-135.062744140625,15.27562141418457,137.59466552734378
1382,-88.73660278320312,-148.82183837890625,12.960623741149902,136.00146484375
1383,-94.33523559570312,-139.49452209472656,7.930458068847656,131.65196228027344
1384,-95.48712921142578,-123.25214385986328,5.473343372344972,136.49887084960938
1385,-92.0389404296875,-135.23104858398438,9.688210487365724,134.96177673339844
1386,-91.24981689453124,-140.5791015625,8.577460289001465,129.11630249023438
1387,-102.7799301147461,-134.31851196289062,-0.03926894813776016,127.52684783935548
1388,-102.34609985351562,-126.26276397705078,8.872912406921387,134.45687866210938
1389,-94.15198516845705,-132.74400329589844,14.546340942382812,135.58259582519528
1390,-97.8656997680664,-140.45942687988278,11.752635955810547,128.09530639648438
1391,-98.2434310913086,-138.68670654296878,-2.0662946701049805,123.4952392578125
1392,-99.627197265625,-123.33441925048828,10.578307151794434,131.53602600097656
1393,-90.56541442871094,-129.12753295898438,21.453935623168945,131.80903625488278
1394,-93.00382995605469,-131.05731201171878,15.22700309753418,133.13670349121094
1395,-88.87872314453125,-127.42587280273438,20.14497184753418,137.57969665527344
1396,-76.45103454589844,-127.02570343017578,26.10263252258301,148.34312438964844
1397,-94.8289031982422,-136.74943542480472,25.92311668395996,141.2447967529297
1398,-91.54901123046876,-145.59803771972656,12.702569961547852,135.75462341308594
1399,-100.52851104736328,-144.96600341796875,-0.3683801591396332,126.5694351196289
1400,-95.38240814208984,-134.22500610351562,7.59386682510376,134.19134521484378
1401,-96.66519165039062,-139.24021911621094,8.940230369567871,133.15165710449222
1402,-90.44573974609376,-142.1835174560547,10.563347816467283,136.33432006835938
1403,-98.2247314453125,-147.1089630126953,5.376106262207031,133.17784118652344
1404,-98.1387176513672,-133.16661071777344,5.106833457946777,144.03475952148438
1405,-86.96763610839844,-135.57511901855472,11.431004524230955,140.47064208984378
1406,-93.15342712402344,-145.239013671875,8.65225887298584,130.32803344726562
1407,-96.1023406982422,-137.88824462890622,11.236529350280762,134.14646911621094
1408,-97.66561889648438,-129.44354248046878,9.91634464263916,129.98396301269528
1409,-84.58345031738281,-140.13218688964844,8.887872695922852,133.46580505371094
1410,-94.97289276123048,-146.88644409179688,2.1784918308258057,128.05416870117188
1411,-99.73377990722656,-132.08016967773438,0.5067564249038696,127.42213439941406
1412,-95.16362762451172,-130.6552734375,8.098752975463867,136.15106201171878
1413,-88.38692474365234,-129.14810180664062,10.039761543273926,138.08457946777344
1414,-86.85730743408203,-136.86724853515622,9.665771484375,141.67489624023438
1415,-90.4214324951172,-142.12928771972656,5.61545991897583,137.75173950195312
1416,-97.35520935058594,-124.33484649658205,3.8165678977966313,137.22441101074222
1417,-85.81013488769531,-130.12794494628906,7.4218316078186035,140.60528564453122
1418,-86.85730743408203,-139.552490234375,8.917791366577148,140.13031005859378
1419,-94.33710479736328,-133.5836181640625,10.223016738891602,141.95164489746094
1420,-99.29995727539062,-130.32615661621094,2.0101962089538574,137.4039306640625
1421,-88.82075500488281,-133.41157531738278,12.66891098022461,143.5336151123047
1422,-95.99388122558594,-135.04965209960938,14.105032920837402,145.30633544921875
1423,-98.08822631835938,-131.05545043945312,9.852766036987305,139.09809875488278
1424,-94.78215789794922,-125.00802612304688,17.2540283203125,144.38258361816406
1425,-92.54195404052734,-124.78363037109376,24.15414428710937,144.7715301513672
1426,-88.98530578613281,-138.16499328613278,21.16222381591797,133.94078063964844
1427,-97.27666473388672,-136.86351013183594,13.472990036010742,129.17988586425778
1428,-98.08074951171876,-117.35619354248048,23.406164169311523,137.91629028320312
1429,-84.4263687133789,-122.07968139648438,25.608964920043945,142.7893829345703
1430,-100.71363830566406,-131.70245361328122,18.353559494018555,140.90072631835938
1431,-90.6832275390625,-123.53824615478516,17.57192039489746,142.84547424316406
1432,-92.2726821899414,-125.90186309814452,14.912851333618164,140.8221893310547
1433,-86.88348388671875,-132.88800048828122,19.243656158447266,143.56353759765625
1434,-87.73992156982422,-140.92503356933594,16.749141693115234,142.29945373535156
1435,-86.02704620361328,-144.0216827392578,11.876051902770994,142.5313262939453
1436,-97.27666473388672,-129.32012939453122,10.851319313049316,143.032470703125
1437,-84.71808624267578,-140.244384765625,15.249442100524902,144.37135314941406
1438,-92.70651245117188,-135.48722839355472,14.781954765319824,142.54254150390625
1439,-98.96710205078124,-137.03553771972656,11.83491325378418,144.56582641601562
1440,-92.92716217041016,-124.82102966308594,16.521007537841793,140.39958190917972
1441,-89.45279693603516,-130.08306884765622,19.086580276489254,142.4901885986328
1442,-90.46257019042969,-130.60665893554688,21.588571548461914,143.19703674316406
1443,-99.60662841796876,-130.72259521484378,13.308433532714846,136.50260925292972
1444,-91.9473114013672,-116.24543762207031,15.642131805419922,140.89324951171875
1445,-89.03766632080078,-122.2180633544922,16.049779891967773,144.6481170654297
1446,-86.5506362915039,-128.87507629394528,15.948802947998047,137.60214233398438
1447,-87.93439483642578,-117.9844970703125,9.59471321105957,138.69418334960938
1448,-90.0848388671875,-121.83284759521484,11.50206184387207,136.45773315429688
1449,-89.54255676269531,-116.24169921875,15.051227569580078,141.83197021484375
1450,-90.21573638916016,-132.21855163574222,12.680130958557127,145.28762817382812
1451,-84.02619934082031,-124.2525634765625,6.8234477043151855,146.85464477539062
1452,-101.98894500732422,-122.34521484375,10.260415077209473,145.61300659179688
1453,-83.09870910644531,-122.5022964477539,20.55261993408203,149.0948486328125
1454,-90.63834381103516,-147.17066955566406,7.014182567596436,137.16456604003906
1455,-96.79421997070312,-126.84431457519531,3.9773836135864262,145.51202392578125
1456,-93.98181915283205,-109.880126953125,11.11685276031494,148.72085571289062
1457,-92.85610961914062,-133.56491088867188,10.593266487121582,143.09231567382812
1458,-87.56414794921875,-122.43497467041016,11.124332427978516,144.03851318359375
1459,-89.86418914794922,-112.20635223388672,13.962916374206545,144.8612823486328
1460,-87.80724334716797,-115.70315551757812,16.995975494384766,149.70445251464844
1461,-89.61735534667969,-131.72114562988278,15.743108749389648,141.2859344482422
1462,-87.44447326660156,-135.64804077148438,18.30867958068848,141.85813903808594
1463,-85.87371063232422,-119.64875030517578,13.214936256408693,142.9875946044922
1464,-91.09087371826172,-121.72439575195312,10.563347816467283,141.07650756835938
1465,-79.63929748535156,-113.31336212158205,22.250534057617188,145.22406005859375
1466,-80.53687286376953,-132.83189392089844,13.061600685119627,136.85041809082028
1467,-87.0106430053711,-126.66854095458984,11.232789993286133,138.72410583496094
1468,-86.06070709228516,-126.335693359375,14.718376159667967,141.49537658691406
1469,-82.05901336669922,-124.88835144042969,18.634052276611328,144.29281616210938
1470,-89.0040054321289,-137.35343933105472,19.569026947021484,143.22320556640625
1471,-86.89844512939453,-127.40904235839844,10.907418251037598,140.1153564453125
1472,-91.09835052490234,-123.3849105834961,10.507248878479004,141.45423889160156
1473,-89.06385040283203,-127.77181243896484,13.805840492248535,145.34747314453125
1474,-90.2830581665039,-130.1915283203125,14.546340942382812,143.5897216796875
1475,-88.19245147705078,-136.56805419921878,15.021307945251465,142.351806640625
1476,-96.75308227539062,-125.68120574951172,12.414597511291506,145.5344696044922
1477,-82.0926742553711,-129.50712585449222,14.198530197143555,146.0056915283203
1478,-82.74715423583984,-132.61497497558594,17.987049102783203,143.2531280517578
1479,-84.29547882080078,-117.6441650390625,18.050626754760746,144.218017578125
1480,-91.4648666381836,-131.05169677734378,16.356452941894528,143.7505340576172
1481,-83.67091369628906,-124.04312896728516,22.94241714477539,151.48464965820312
1482,-84.53482818603516,-140.913818359375,17.605579376220703,144.898681640625
1483,-92.64667510986328,-133.19841003417972,8.719576835632324,143.68321228027344
1484,-87.42951202392578,-119.45801544189452,14.860492706298828,149.08737182617188
1485,-81.87576293945312,-125.1912841796875,19.38951110839844,146.1739959716797
1486,-78.56968688964844,-125.49420928955078,22.127117156982425,146.9257049560547
1487,-86.79747009277344,-122.65937042236328,12.762408256530762,143.6757354736328
1488,-89.83052825927734,-111.67902374267578,18.248842239379886,150.34771728515625
1489,-79.71409606933594,-127.685791015625,24.78618621826172,146.01690673828125
1490,-93.76863861083984,-139.36550903320312,23.64177703857422,143.80288696289062
1491,-87.55292510986328,-121.1970672607422,14.19105052947998,144.41622924804688
1492,-86.03826904296875,-112.55416107177734,22.36273193359375,147.81581115722656
1493,-76.1163101196289,-123.4260482788086,20.02529525756836,146.52928161621094
1494,-86.3711166381836,-136.8934326171875,11.722716331481935,137.07481384277344
1495,-85.21549224853516,-126.8592758178711,17.51582145690918,142.1461181640625
1496,-83.2370834350586,-121.32048797607422,16.479869842529293,143.0736083984375
1497,-75.28605651855469,-125.40445709228516,21.296859741210934,145.7850341796875
1498,-81.43070983886719,-131.12649536132812,17.145570755004886,138.75776672363278
1499,-91.92112731933594,-125.84950256347656,11.756375312805176,138.35011291503906
1500,-84.31043243408203,-120.21347045898438,15.354159355163574,141.9030303955078
1501,-76.56884002685547,-120.314453125,15.53741455078125,140.43324279785156
1502,-84.73678588867188,-135.05714416503906,19.64756393432617,140.97178649902344
1503,-88.09147644042969,-120.0339584350586,10.043500900268556,140.39210510253906
1504,-81.15769958496094,-104.52833557128906,17.474681854248047,150.72918701171875
1505,-87.30609130859375,-123.75889587402344,13.49168872833252,142.3480682373047
1506,-86.10558319091797,-126.23097229003906,15.66831111907959,142.37425231933594
1507,-97.13829040527344,-129.23037719726562,2.664678812026977,140.20137023925778
1508,-93.58164978027344,-111.03575897216795,15.006348609924315,146.11415100097656
1509,-87.3135757446289,-117.21033477783205,20.952789306640625,144.2329864501953
1510,-87.89325714111328,-122.02732849121094,18.162824630737305,149.04623413085938
1511,-100.04045104980469,-121.50747680664062,12.223862648010256,138.59321594238278
1512,-92.1904067993164,-108.2532730102539,18.686410903930664,142.80807495117188
1513,-74.84101104736328,-118.73621368408205,27.14232444763184,145.43722534179688
1514,-90.54110717773438,-126.33943176269531,13.630064964294435,136.27073669433594
1515,-89.83800506591797,-121.73561096191406,17.84867286682129,137.53855895996094
1516,-80.2900390625,-121.57853698730469,27.022647857666016,144.2666473388672
1517,-85.74281311035156,-118.870849609375,23.664216995239254,137.13839721679688
1518,-78.681884765625,-129.32760620117188,24.0681266784668,137.38522338867188
1519,-84.93125915527344,-123.84117889404295,15.888964653015135,136.19967651367188
1520,-86.74884796142578,-111.41349029541016,19.950496673583984,143.26808166503906
1521,-82.76211547851562,-119.13264465332031,22.048580169677734,148.27207946777344
1522,-85.78021240234375,-131.69869995117188,17.61305809020996,141.15504455566406
1523,-90.67200469970705,-117.33374786376952,19.27357482910156,146.16650390625
1524,-86.21404266357422,-123.52702331542969,14.651058197021484,142.3218994140625
1525,-87.56414794921875,-128.97232055664062,17.62053871154785,140.88577270507812
1526,-81.04924011230469,-122.52473449707031,19.030481338500977,141.40187072753906
1527,-88.03911590576172,-123.0632781982422,15.7281494140625,141.9441680908203
1528,-86.65534973144531,-110.69542694091795,22.097198486328125,143.93753051757812
1529,-84.9836196899414,-122.1993637084961,23.47348213195801,143.34288024902344
1530,-81.393310546875,-128.17572021484378,25.751081466674805,139.79371643066406
1531,-85.4847640991211,-116.43617248535156,18.035667419433594,140.69129943847656
1532,-88.88806915283203,-110.26534271240234,22.160778045654297,144.0946044921875
1533,-85.01353454589844,-104.38996124267578,28.529827117919922,140.7473907470703
1534,-82.81073760986328,-119.18500518798828,29.70415496826172,139.72265625
1535,-92.82992553710938,-118.80353546142578,15.15968418121338,134.21379089355472
1536,-83.67465209960938,-114.85794067382812,23.39120483398437,141.9815673828125
1537,-86.15794372558594,-114.7345199584961,24.04568672180176,143.2119903564453
1538,-82.02909851074219,-121.5,20.593759536743164,142.90158081054688
1539,-86.9508056640625,-113.71726989746094,17.384925842285153,140.92691040039062
1540,-91.86128997802734,-110.9609603881836,15.866525650024414,149.86526489257812
1541,-87.23503875732422,-121.32048797607422,16.124578475952152,147.2660369873047
1542,-82.4741439819336,-136.96073913574222,12.448257446289062,145.32876586914062
1543,-84.83776092529297,-130.9544677734375,10.454890251159668,146.764892578125
1544,-84.74800109863281,-119.43931579589844,8.136152267456055,144.52468872070312
1545,-81.01932525634766,-124.81729125976562,21.682069778442386,145.755126953125
1546,-82.42552185058594,-130.748779296875,13.719822883605955,138.18556213378906
1547,-84.1234359741211,-117.65912628173828,17.39614486694336,142.64352416992188
1548,-85.25662994384766,-120.65103912353516,16.360193252563473,144.24420166015625
1549,-77.9413833618164,-124.05435180664062,24.73008918762207,147.3894500732422
1550,-80.55183410644531,-137.49554443359378,15.750588417053224,137.64328002929688
1551,-85.89989471435547,-118.190185546875,17.478422164916992,140.17518615722656
1552,-81.7934799194336,-110.31769561767578,22.44126892089844,146.78359985351562
1553,-78.7828598022461,-113.612548828125,27.52753448486328,145.18292236328125
1554,-83.45025634765625,-119.12516021728516,26.5439395904541,142.55751037597656
1555,-84.80036163330078,-108.60856628417969,22.979814529418945,143.4513397216797
1556,-81.11282348632812,-112.70001220703124,30.96824073791504,155.32179260253906
1557,-81.66258239746094,-115.0187530517578,26.577598571777344,150.332763671875
1558,-77.35421752929688,-117.04952239990234,30.10432434082031,149.80169677734375
1559,-86.14298248291016,-115.63957977294922,25.691242218017575,153.06288146972656
1560,-80.11052703857422,-105.1192398071289,33.58991241455078,159.6488494873047
1561,-86.26266479492188,-126.3730926513672,30.074405670166016,152.90206909179688
1562,-82.15998840332031,-132.29708862304688,29.348865509033203,151.87359619140625
1563,-84.00749969482422,-117.74140167236328,27.871604919433594,151.18545532226562
1564,-87.04430389404297,-120.81185913085938,23.23412895202637,150.98724365234375
1565,-84.6806869506836,-122.13578033447266,22.336551666259766,149.2706298828125
1566,-81.27737426757812,-124.17776489257812,26.158729553222656,150.7815399169922
1567,-89.97264099121094,-120.8006362915039,15.945063591003418,143.5747528076172
1568,-87.73992156982422,-111.40601348876952,27.609811782836914,142.79685974121094
1569,-86.73388671875,-114.29695129394531,26.13629150390625,146.64895629882812
1570,-80.2676010131836,-106.75357055664062,27.34427833557129,144.96600341796875
1571,-84.620849609375,-108.42904663085938,24.08682632446289,143.24191284179688
1572,-92.74016571044922,-105.89339447021484,16.565887451171875,145.3661651611328
1573,-79.16807556152344,-111.11055755615234,21.704509735107425,150.94610595703125
1574,-83.42781829833984,-117.3898468017578,19.785940170288086,146.8022918701172
1575,-80.63410949707031,-117.49456787109376,18.08054542541504,148.25711059570312
1576,-88.40188598632812,-105.78494262695312,18.600393295288086,152.1204376220703
1577,-87.23129272460938,-121.1409683227539,21.001407623291016,144.90989685058594
1578,-83.35301971435547,-121.32796478271484,17.71403694152832,138.80638122558594
1579,-88.1587905883789,-117.78253936767578,14.232189178466795,147.2847442626953
1580,-84.82279968261719,-107.87928771972656,20.664817810058594,151.65293884277344
1581,-84.2618179321289,-111.51446533203124,22.78160095214844,150.14202880859375
1582,-88.4991226196289,-119.1513442993164,24.430896759033203,149.68202209472656
1583,-88.72351837158203,-120.08631896972656,12.298661231994627,142.45278930664062
1584,-85.7465591430664,-116.31649780273438,21.001407623291016,147.445556640625
1585,-86.46087646484375,-126.1225128173828,21.001407623291016,140.14152526855472
1586,-76.14249420166016,-123.62052154541016,24.161623001098636,136.57366943359378
1587,-84.27677917480469,-106.8470687866211,19.25487518310547,138.1556396484375
1588,-81.34095764160156,-111.86975860595705,23.89609146118164,143.455078125
1589,-79.96841430664062,-116.5446319580078,27.785587310791016,144.08712768554688
1590,-75.79842376708984,-125.11273956298828,28.69438171386719,144.7715301513672
1591,-86.43096160888672,-130.8310546875,17.949649810791016,144.66307067871094
1592,-69.86319732666016,-116.99716186523438,25.156436920166016,154.1511993408203
1593,-81.07916259765625,-126.23845672607422,19.17259788513184,147.46424865722656
1594,-77.34300231933594,-139.58241271972656,21.04254722595215,143.43638610839844
1595,-90.14842224121094,-127.67083740234376,13.674943923950195,145.1604766845703
1596,-80.02825164794922,-121.5373992919922,22.063539505004886,151.06204223632812
1597,-82.45918273925781,-116.10332489013672,21.40157699584961,154.4316864013672
1598,-82.49284362792969,-124.5068817138672,25.73986053466797,145.77008056640625
1599,-83.1174087524414,-125.13892364501952,20.75457572937012,147.84571838378906
1600,-81.28111267089844,-118.97930908203124,17.8000545501709,150.87130737304688
1601,-80.93704223632812,-124.05435180664062,23.286487579345703,144.9772186279297
1602,-79.99832916259766,-133.97630310058594,19.520408630371094,137.01496887207028
1603,-94.6811752319336,-124.2525634765625,14.587479591369627,135.1038818359375
1604,-90.548583984375,-117.3636703491211,18.035667419433594,138.06962585449222
1605,-80.37232208251953,-120.50144958496094,28.94121551513672,145.14552307128906
1606,-81.89820098876953,-144.71730041503906,26.96654891967773,138.51467895507812
1607,-75.05792236328125,-117.4870834350586,32.47916030883789,151.3462677001953
1608,-65.46694946289061,-95.0813446044922,45.75393676757813,168.57786560058594
1609,-68.65708160400389,-112.62895965576172,41.97663879394531,164.3143768310547
1610,-75.6993179321289,-117.09813690185548,26.082061767578125,149.07801818847656
1611,-88.14944458007812,-121.71317291259766,16.949226379394528,145.11746215820312
1612,-83.4708251953125,-117.47212982177734,18.463886260986328,149.5230712890625
1613,-79.87678527832031,-120.29949188232422,27.23021125793457,151.9764404296875
1614,-87.31918334960938,-123.95711517333984,23.213558197021484,148.7227325439453
1615,-84.30482482910156,-130.55804443359378,20.82002258300781,146.56106567382812
1616,-94.81768035888672,-125.40819549560548,20.3001766204834,149.89706420898438
1617,-77.85350036621094,-111.80243682861328,22.488018035888672,149.05184936523438
1618,-88.53091430664062,-120.8006362915039,28.80097007751465,145.15859985351562
1619,-95.98453521728516,-114.55874633789062,16.91556739807129,143.35223388671875
1620,-81.33160400390625,-110.56827545166016,33.78999710083008,152.56735229492188
1621,-86.36550903320312,-115.29924774169922,32.200538635253906,146.1758575439453
1622,-85.72224426269531,-130.38226318359378,26.945980072021484,143.47938537597656
1623,-92.30072784423828,-123.26148986816406,21.4146671295166,143.636474609375
1624,-87.21446990966797,-111.46958923339844,24.859115600585934,148.53199768066406
1625,-85.85688018798828,-118.25003051757812,30.00895690917969,146.66952514648438
1626,-85.45297241210938,-120.7819366455078,33.13177490234375,147.45864868164062
1627,-85.6998062133789,-112.1240692138672,26.46727180480957,144.1675262451172
1628,-81.85144805908203,-109.880126953125,27.417205810546875,150.0316925048828
1629,-78.01057434082031,-121.1147918701172,31.437599182128906,150.34585571289062
1630,-74.36042785644531,-120.38551330566406,30.117414474487305,147.22303771972656
1631,-88.42245483398438,-126.67601776123048,18.692020416259766,150.5290985107422
1632,-85.34077453613281,-108.38043212890624,16.878168106079098,148.718994140625
1633,-83.59424591064453,-125.2137222290039,16.6612548828125,148.4571990966797
1634,-75.83020782470703,-127.04627227783205,11.926541328430176,146.8901824951172
1635,-94.0921401977539,-124.634033203125,7.292804718017577,136.23895263671878
1636,-89.29010772705078,-124.68639373779295,14.881061553955078,148.62548828125
1637,-75.10466766357422,-122.86880493164062,21.074337005615234,153.0834503173828
1638,-77.43463134765625,-124.129150390625,20.251558303833008,144.23858642578125
1639,-87.2256851196289,-121.16715240478516,12.569804191589355,140.44259643554688
1640,-83.4296875,-117.20659637451172,20.22911834716797,148.8798065185547
1641,-80.10865783691406,-116.21552276611328,19.286664962768555,146.01504516601562
1642,-82.11324310302734,-132.91790771484378,15.655220985412598,138.83444213867188
1643,-85.50907135009766,-123.11937713623048,19.208126068115234,143.08670043945312
1644,-83.50074768066406,-110.73282623291016,20.217899322509766,149.4258270263672
1645,-81.29046630859375,-115.48624420166016,23.149980545043945,151.87173461914062
1646,-79.07270812988281,-127.67457580566406,17.895421981811523,142.10684204101562
1647,-88.37383270263672,-111.13299560546876,18.463886260986328,145.0651092529297
1648,-77.58048248291016,-121.12600708007812,18.318029403686523,150.95919799804688
1649,-79.71222686767578,-119.01670837402344,19.088449478149414,149.02940368652344
1650,-71.1628189086914,-130.24388122558594,25.580915451049805,160.0770721435547
1651,-81.7616958618164,-116.37259674072266,17.517690658569336,142.58181762695312
1652,-80.26947021484375,-109.79411315917969,20.48343276977539,148.06077575683594
1653,-79.45791625976562,-124.72005462646484,20.49839210510254,145.5475616455078
1654,-68.22325134277344,-131.242431640625,19.368942260742188,145.5886993408203
1655,-90.38216400146484,-117.3262710571289,12.289311408996582,144.24232482910156
1656,-87.33040618896484,-111.75382232666016,19.941146850585934,147.79150390625
1657,-76.83998107910156,-125.96170043945312,21.156614303588867,147.18190002441406
1658,-80.460205078125,-131.42568969726562,19.5073184967041,143.82345581054688
1659,-83.39228820800781,-119.44679260253906,20.438552856445312,144.0964813232422
1660,-75.85265350341797,-126.25714874267578,20.92099952697754,146.95001220703125
1661,-74.74564361572266,-123.3886489868164,21.272550582885746,150.09153747558594
1662,-75.85265350341797,-124.05809020996094,21.56426239013672,145.22218322753906
1663,-73.41423797607422,-115.7816925048828,21.21645164489746,146.95001220703125
1664,-71.77989959716797,-101.77202606201172,28.987964630126953,160.61187744140625
1665,-75.72923278808594,-116.90740203857422,32.77648162841797,152.17091369628906
1666,-77.03446197509766,-115.9612045288086,31.224424362182614,152.5748291015625
1667,-80.75566101074219,-125.1912841796875,18.523723602294922,151.6735076904297
1668,-75.0971908569336,-108.40287017822266,26.84126281738281,151.3369140625
1669,-72.31844329833984,-118.8895492553711,24.39910697937012,149.59786987304688
1670,-81.79534912109375,-128.43003845214844,16.01799201965332,147.51100158691406
1671,-91.15258026123048,-121.56732177734376,17.86924171447754,145.42413330078125
1672,-83.90839385986328,-110.10452270507812,22.60395622253418,152.69076538085938
1673,-77.83480072021484,-132.53643798828122,29.96407890319824,153.4200439453125
1674,-87.39398193359375,-113.79954528808594,22.13646697998047,144.49290466308594
1675,-82.62934875488281,-109.48744201660156,25.644493103027344,145.71958923339844
1676,-83.6690444946289,-104.99208068847656,23.26217842102051,144.3620147705078
1677,-76.37249755859375,-104.53581237792969,31.142147064208984,151.50148010253906
1678,-83.65782165527344,-116.02852630615234,22.41695976257324,142.9184112548828
1679,-85.96533966064453,-110.28404235839844,23.632427215576172,148.3412628173828
1680,-84.19636535644531,-110.05964660644531,24.79179763793945,152.017578125
1681,-82.3862533569336,-106.81715393066406,33.55438232421875,152.16343688964844
1682,-80.81549835205078,-124.3311004638672,26.44483184814453,147.7353973388672
1683,-85.26972198486328,-112.32976531982422,21.86719512939453,152.4476776123047
1684,-77.97691345214844,-99.5168685913086,22.035490036010746,150.8843994140625
1685,-80.99127197265625,-109.89134979248048,25.76043128967285,155.58544921875
1686,-80.85289764404297,-119.28598022460938,18.58356285095215,143.0343475341797
1687,-92.843017578125,-111.87349700927734,15.404647827148438,148.79005432128906
1688,-82.82756805419922,-113.44051361083984,21.134174346923828,155.1665802001953
1689,-80.52752685546875,-115.0187530517578,17.8056640625,154.8599090576172
1690,-81.23436737060547,-123.10067749023438,20.943439483642575,152.26815795898438
1691,-82.89488220214844,-117.85733795166016,18.61722183227539,147.6605987548828
1692,-90.15776824951172,-115.68819427490234,21.822317123413086,152.7393798828125
1693,-79.21855926513672,-108.66466522216795,24.73943901062012,151.92782592773438
1694,-84.60027313232422,-128.18693542480472,18.579822540283203,145.6298370361328
1695,-80.66216278076172,-113.60507202148438,24.500083923339844,147.84759521484375
1696,-83.73262023925781,-112.23626708984376,25.79409027099609,150.1925048828125
1697,-75.11589050292969,-113.26847839355469,33.15421295166016,149.02566528320312
1698,-83.57554626464844,-112.39334106445312,33.225269317626946,149.0106964111328
1699,-91.6986083984375,-111.2638931274414,28.58779525756836,147.36888122558594
1700,-83.01455688476562,-99.46450805664062,37.387779235839844,158.22207641601562
1701,-74.49132537841797,-112.51676177978516,37.01752853393555,162.029296875
1702,-73.74708557128906,-120.76323699951172,30.700838088989254,152.4065399169922
1703,-87.17707061767578,-113.2535171508789,19.28292465209961,146.7293701171875
1704,-83.59798431396484,-117.43473052978516,23.44543266296387,154.77389526367188
1705,-76.06582641601562,-120.57998657226562,29.743423461914066,158.0425567626953
1706,-73.25716400146484,-118.66141510009766,24.148534774780273,146.5087127685547
1707,-82.9435043334961,-123.14181518554688,13.867548942565918,145.04266357421875
1708,-85.84940338134766,-117.49456787109376,17.872982025146484,147.07717895507812
1709,-80.17223358154297,-116.4586181640625,22.790950775146484,146.15342712402344
1710,-80.24703216552734,-122.55464935302734,19.036090850830078,147.38011169433594
1711,-84.86580657958984,-112.69627380371094,15.277491569519045,145.6260986328125
1712,-82.11324310302734,-107.88302612304688,18.59478187561035,148.91720581054688
1713,-74.44644927978516,-106.17762756347656,25.33034324645996,142.45840454101562
1714,-80.42280578613281,-115.23566436767578,22.66379356384277,146.75180053710938
1715,-83.3885498046875,-116.90740203857422,20.80880355834961,145.5438232421875
1716,-79.72344970703125,-106.77601623535156,26.14937973022461,150.8058624267578
1717,-74.14351654052734,-112.86457061767578,28.49429702758789,156.02301025390625
1718,-72.83829498291016,-111.15169525146484,25.150827407836914,154.39990234375
1719,-84.77979278564453,-109.19198608398438,18.860315322875977,146.10853576660156
1720,-73.52643585205078,-117.09439849853516,28.95430564880371,158.04629516601562
1721,-79.1923828125,-119.42061614990234,19.178207397460934,153.8576202392578
1722,-77.35983276367188,-120.20225524902344,20.423593521118164,141.26536560058594
1723,-83.38481140136719,-117.71896362304688,18.860315322875977,150.4879608154297
1724,-79.84312438964844,-116.43617248535156,14.72024631500244,147.3614044189453
1725,-80.93891143798828,-111.67902374267578,14.458453178405762,144.3620147705078
1726,-81.66445922851562,-121.15966796875,15.2438325881958,142.6192169189453
1727,-85.28093719482422,-117.12057495117188,13.714213371276855,147.08465576171875
1728,-80.58362579345703,-119.96289825439452,18.03379821777344,144.1824951171875
1729,-68.32797241210939,-116.3052749633789,31.71435165405273,150.09901428222656
1730,-73.54887390136719,-117.3225326538086,23.422992706298828,139.43655395507812
1731,-76.51461029052734,-114.31938934326172,20.80880355834961,139.728271484375
1732,-69.88377380371094,-105.6016845703125,28.37462043762207,155.72756958007812
1733,-69.49481964111328,-119.82078552246094,38.10210037231445,154.7813720703125
1734,-65.44077301025389,-118.13783264160156,32.297775268554695,148.9246826171875
1735,-76.6043701171875,-110.1793212890625,20.576929092407227,150.0316925048828
1736,-77.9881362915039,-106.84333038330078,21.235151290893555,154.41859436035156
1737,-64.25896453857422,-126.7209014892578,18.692020416259766,154.49339294433594
1738,-83.7288818359375,-135.77519226074222,13.291604042053224,148.73394775390625
1739,-83.79994201660156,-127.77555084228516,-0.968634068965912,142.06570434570312
1740,-75.29540252685547,-118.73995208740234,13.515998840332033,150.8694305419922
1741,-70.23532104492189,-124.17776489257812,16.63133430480957,152.52621459960938
1742,-73.48529052734375,-126.99391174316406,17.117521286010742,148.77882385253906
1743,-82.27031707763672,-121.5224380493164,5.4228549003601065,141.19430541992188
1744,-78.3883056640625,-113.272216796875,17.652328491210938,149.0854949951172
1745,-71.52932739257812,-121.64959716796876,24.4664249420166,147.80271911621094
1746,-77.4682846069336,-137.76107788085938,16.283523559570312,144.32086181640625
1747,-77.73381805419922,-115.6994171142578,13.489819526672365,146.65830993652344
1748,-75.72175598144531,-99.95443725585938,20.599369049072266,150.00177001953125
1749,-73.96400451660156,-103.90003204345705,26.7028865814209,146.32919311523438
1750,-73.21601867675781,-117.46839141845705,25.64823341369629,147.42498779296875
1751,-74.64092254638672,-109.74549102783205,26.437353134155273,150.03916931152344
1752,-74.4576644897461,-108.52628326416016,30.857913970947266,151.50521850585938
1753,-69.83889007568361,-113.8294677734375,33.711456298828125,160.34634399414062
1754,-73.27960205078125,-119.82826232910156,24.26821136474609,153.76785278320312
1755,-75.63947296142578,-112.767333984375,17.772005081176758,151.0938262939453
1756,-75.13459014892578,-103.09220886230469,18.90145492553711,160.4660186767578
1757,-69.36766815185547,-125.62510681152344,18.34046936035156,156.6027069091797
1758,-83.05569458007812,-132.43547058105472,11.915321350097654,145.6223602294922
1759,-85.89427947998047,-120.7183609008789,5.0413851737976065,149.57168579101562
1760,-82.71910858154297,-117.90221405029295,6.335390567779541,147.25668334960938
1761,-72.5503158569336,-118.26498413085938,13.717952728271484,147.1071014404297
1762,-72.96544647216797,-125.22493743896484,10.65871524810791,148.1168670654297
1763,-87.24064636230469,-122.36017608642578,2.8984224796295166,144.8182830810547
1764,-82.15064239501953,-115.71063232421876,10.9803466796875,146.8153839111328
1765,-68.41773223876953,-123.71028137207031,16.384502410888672,146.36659240722656
1766,-80.52378845214844,-128.77037048339844,17.78322410583496,138.31832885742188
1767,-80.18345642089844,-122.05350494384766,14.144301414489744,148.65167236328125
1768,-83.68025970458984,-116.5595932006836,21.197751998901367,152.89271545410156
1769,-74.7157211303711,-106.94805145263672,20.442293167114254,154.20542907714844
1770,-79.91792297363281,-111.26763153076172,16.956707000732422,147.96353149414062
1771,-81.45127868652344,-125.74852752685548,11.750765800476074,149.4407958984375
1772,-74.17717742919922,-114.34557342529295,16.788410186767578,157.8780059814453
1773,-81.36152648925781,-125.7560043334961,11.649787902832033,147.70547485351562
1774,-81.00997161865234,-126.33943176269531,15.299930572509766,151.28829956054688
1775,-74.2557144165039,-116.14446258544922,15.356029510498047,150.77967834472656
1776,-86.24209594726562,-111.6640625,14.660408020019533,151.03773498535156
1777,-75.95736694335938,-128.03359985351562,14.368695259094238,154.08200073242188
1778,-82.67422485351562,-119.6524887084961,10.812050819396973,141.60195922851562
1779,-82.46853637695312,-123.91597747802734,10.165047645568848,148.13182067871094
1780,-84.77605438232422,-121.1372299194336,5.673428058624268,146.05618286132812
1781,-77.94325256347656,-123.22783660888672,20.32261657714844,149.68014526367188
1782,-77.63284301757812,-127.9849853515625,15.37846851348877,146.35911560058594
1783,-84.31230163574219,-111.9595184326172,14.458453178405762,143.25125122070312
1784,-78.33594512939453,-109.23686981201172,16.126447677612305,141.96099853515625
1785,-69.41254425048828,-110.75152587890624,30.55498313903809,149.09298706054688
1786,-74.07245635986328,-117.21033477783205,21.743778228759766,146.8976593017578
1787,-82.62934875488281,-113.05530548095705,15.692620277404785,149.80355834960938
1788,-75.1009292602539,-113.51531219482422,19.76911163330078,156.1277313232422
1789,-77.97691345214844,-124.57793426513672,12.573543548583984,148.6778564453125
1790,-74.46888732910156,-124.95940399169922,13.403800964355467,151.1873321533203
1791,-84.34222412109375,-133.98004150390622,9.929434776306152,146.69944763183594
1792,-78.089111328125,-124.55923461914062,14.626749038696287,154.1455841064453
1793,-77.19153594970703,-124.81729125976562,15.782378196716307,148.6628875732422
1794,-78.39204406738281,-129.61932373046878,12.06491756439209,146.22073364257812
1795,-79.38311767578125,-109.22190856933594,18.276891708374023,150.52162170410156
1796,-80.81175994873047,-108.50384521484376,14.462193489074707,147.697998046875
1797,-77.82357788085938,-112.01935577392578,20.034643173217773,146.52740478515625
1798,-80.34426879882812,-126.98269653320312,13.744132041931152,148.77508544921875
1799,-79.96279907226562,-117.8872528076172,14.09194278717041,143.82720947265625
1800,-69.68181610107422,-112.35220336914062,25.50611686706543,147.28286743164062
1801,-79.22978210449219,-126.99765014648438,19.256744384765625,135.12818908691406
1802,-70.64671325683594,-118.5679168701172,29.07398223876953,140.43136596679688
1803,-77.60292053222656,-114.51760864257812,23.26965713500977,141.11952209472656
1804,-80.93891143798828,-120.93901824951172,26.052143096923828,145.77943420410156
1805,-71.39842987060547,-113.40685272216795,32.16313934326172,155.26007080078125
1806,-68.64960479736328,-129.727783203125,23.3107967376709,150.81707763671875
1807,-80.37045288085938,-123.86735534667969,14.320076942443848,149.72128295898438
1808,-87.2855224609375,-119.71232604980469,8.242739677429201,150.00926208496094
1809,-73.15057373046875,-127.03131103515624,22.069149017333984,153.02362060546875
1810,-81.58778381347656,-131.09284973144528,16.627595901489258,141.0484619140625
1811,-82.08145141601562,-128.91996765136722,17.517690658569336,141.53839111328125
1812,-82.06649780273438,-114.92899322509766,16.53409767150879,143.2475128173828
1813,-79.56449890136719,-128.27296447753906,19.683094024658203,145.74951171875
1814,-78.91001892089844,-138.10140991210938,12.940053939819336,133.800537109375
1815,-83.27074432373047,-129.64176940917972,8.777544975280763,134.92623901367188
1816,-84.99109649658203,-124.0655746459961,7.236706256866455,136.83732604980472
1817,-72.87007904052734,-149.7250213623047,6.836536884307861,130.49819946289062
1818,-77.30186462402344,-132.95156860351562,9.166494369506836,131.98294067382812
1819,-78.16204071044922,-122.71173095703124,11.586210250854492,137.91816711425778
1820,-57.40559387207031,-101.88048553466795,28.531696319580078,157.14498901367188
1821,-64.18229675292969,-114.38297271728516,28.29234313964844,159.85267639160156
1822,-72.14827728271484,-122.34521484375,21.934513092041016,152.63467407226562
1823,-74.66522979736328,-111.92585754394531,21.81109619140625,153.57337951660156
1824,-69.06660461425781,-115.30298614501952,32.5595703125,155.4208984375
1825,-72.49234771728516,-123.55320739746094,22.24118423461914,148.06825256347656
1826,-75.2673568725586,-134.49241638183594,21.81109619140625,149.57542419433594
1827,-79.28026580810547,-110.71038818359376,16.691173553466793,149.32485961914062
1828,-75.92557525634766,-129.72030639648438,20.23659896850586,149.16029357910156
1829,-80.92208862304688,-121.27186584472656,20.636768341064453,146.11976623535156
1830,-80.32369995117188,-129.13313293457028,13.762831687927244,140.02372741699222
1831,-78.3639907836914,-117.8049774169922,16.44059944152832,147.1893768310547
1832,-83.05008697509766,-120.22095489501952,17.809404373168945,146.23944091796875
1833,-76.56510162353516,-123.7514190673828,17.985177993774414,145.44284057617188
1834,-80.35736083984375,-123.97207641601562,10.322123527526855,137.31230163574222
1835,-84.95369720458984,-122.01984405517578,8.665348052978517,134.77664184570312
1836,-73.07203674316406,-131.27983093261722,22.44688034057617,142.75384521484375
1837,-80.5892333984375,-126.7770004272461,19.552196502685547,143.83468627929688
1838,-74.83726501464844,-131.10032653808594,9.742439270019533,142.97450256347656
1839,-80.21898651123047,-125.66625213623048,7.745332717895508,144.48916625976562
1840,-84.83028411865234,-124.85842895507812,10.41188144683838,142.780029296875
1841,-75.70118713378906,-136.0369873046875,18.516244888305664,146.26560974121094
1842,-73.30390930175781,-155.40966796875,14.073243141174315,137.02806091308594
1843,-81.2885971069336,-118.85588836669922,9.985532760620117,145.18478393554688
1844,-79.4635238647461,-115.82656860351562,15.726279258728027,147.71295166015625
1845,-71.71819305419922,-130.52438354492188,18.228271484375,150.23739624023438
1846,-85.02849578857422,-123.05953979492188,14.667887687683105,137.6563720703125
1847,-89.03018951416016,-123.77759552001952,7.098330020904541,138.97654724121094
1848,-84.99109649658203,-110.50469207763672,9.536745071411133,138.30711364746094
1849,-76.36688995361328,-129.05085754394528,13.108349800109865,141.06341552734375
1850,-91.4274673461914,-126.3543930053711,4.888049125671387,136.8934326171875
1851,-87.45195007324219,-126.18983459472656,6.698160648345947,140.77545166015625
1852,-85.01353454589844,-115.5198974609375,12.648341178894045,140.03120422363278
1853,-77.10364532470703,-113.4928741455078,20.58066940307617,137.79473876953122
1854,-80.4882583618164,-120.84925842285156,12.360369682312012,132.19985961914062
1855,-85.17060852050781,-109.53605651855469,14.645448684692385,144.04037475585938
1856,-79.4672622680664,-98.84742736816406,16.212467193603516,146.46009826660156
1857,-75.65630340576172,-133.76687622070312,16.739791870117188,145.55877685546875
1858,-76.43046569824219,-134.82901000976562,18.73689842224121,145.6223602294922
1859,-79.32514953613281,-121.8590316772461,14.60056972503662,150.37950134277344
1860,-80.07312774658203,-109.4949188232422,15.131635665893555,145.25210571289062
1861,-71.75933074951172,-123.69532012939452,19.14828872680664,148.52452087402344
1862,-82.12259674072266,-132.70474243164062,7.7640323638916025,141.24667358398438
1863,-77.62349700927734,-126.67976379394531,9.24503231048584,136.96073913574222
1864,-77.23080444335938,-128.59832763671878,5.564970970153809,140.3154296875
1865,-74.86344909667969,-144.0628204345703,8.283878326416017,140.6968994140625
1866,-80.42467498779297,-126.52642822265624,4.020392417907715,139.892822265625
1867,-77.57487487792969,-118.07798767089844,6.3241705894470215,142.20034790039062
1868,-77.39161682128906,-120.81559753417969,12.352890014648438,146.1683807373047
1869,-73.39366912841797,-122.69676971435548,16.27230453491211,145.34185791015625
1870,-66.09712219238281,-124.07305145263672,14.320076942443848,144.75469970703125
1871,-90.12223815917969,-120.2733154296875,3.006879568099976,133.03759765625
1872,-75.74232482910156,-116.49601745605469,16.20124626159668,145.51390075683594
1873,-80.92208862304688,-129.88485717773438,14.821223258972168,130.7786865234375
1874,-73.35253143310547,-127.37164306640624,17.895421981811523,139.38420104980472
1875,-81.06420135498047,-123.59808349609376,18.228271484375,145.82057189941406
1876,-79.78141784667969,-109.98484802246094,20.543270111083984,151.5126953125
1877,-73.2403335571289,-127.26318359375,17.899160385131836,154.50836181640625
1878,-76.27339172363281,-128.04109191894528,7.232966423034668,150.25982666015625
1879,-79.47100067138672,-121.65707397460938,10.27724552154541,149.38095092773438
1880,-78.12464141845703,-122.86132049560548,16.339622497558597,150.71609497070312
1881,-78.177001953125,-132.88426208496094,14.245279312133787,146.22073364257812
1882,-70.86175537109375,-128.00743103027344,16.571496963500973,153.7154998779297
1883,-82.39934539794922,-125.314697265625,4.8244709968566895,142.89222717285156
1884,-77.79178619384766,-123.69158172607422,9.25625228881836,149.7250213623047
1885,-77.77308654785156,-126.3543930053711,18.29185104370117,146.90887451171875
1886,-79.93475341796875,-124.15906524658205,12.180853843688965,137.85458374023438
1887,-89.25458526611328,-123.4709243774414,3.616483211517334,139.92648315429688
1888,-81.85331726074219,-115.3740463256836,10.740992546081543,141.56082153320312
1889,-80.80240631103516,-123.75889587402344,16.545316696166992,140.51365661621094
1890,-74.4034423828125,-146.66952514648438,17.551349639892578,137.49180603027344
1891,-79.96841430664062,-115.396484375,15.535544395446776,138.90174865722656
1892,-76.36314392089844,-131.06666564941406,12.81289768218994,146.7293701171875
1893,-74.37351989746094,-127.61473846435548,16.597675323486328,143.2176055908203
1894,-85.54460144042969,-122.943603515625,8.283878326416017,146.6807403564453
1895,-92.34374237060548,-130.93576049804688,1.4847402572631836,140.16584777832028
1896,-86.02704620361328,-116.06966400146484,4.588857173919678,149.49314880371094
1897,-86.50575256347656,-125.18753814697266,8.478353500366211,145.4540557861328
1898,-86.26266479492188,-129.43606567382812,7.240446090698242,144.481689453125
1899,-91.1881103515625,-130.572998046875,-4.570157527923584,141.0334930419922
1900,-83.08000946044922,-122.5434341430664,6.907595157623291,149.4370574951172
1901,-82.72097778320312,-132.57009887695312,11.881662368774414,143.57289123535156
1902,-77.156005859375,-130.05314636230472,15.359768867492676,143.9207000732422
1903,-77.58235168457031,-135.10202026367188,7.229226589202881,138.2435302734375
1904,-77.06999206542969,-116.74284362792969,15.352289199829102,141.35887145996094
1905,-76.01533508300781,-124.0880126953125,11.631089210510256,142.357421875
1906,-84.3852310180664,-130.748779296875,12.663301467895508,135.29275512695312
1907,-77.96756744384766,-119.31964111328124,15.165294647216795,137.71994018554688
1908,-80.06938934326172,-109.24060821533205,21.66897964477539,146.49374389648438
1909,-79.11571502685547,-135.25535583496094,25.883848190307614,138.41557312011722
1910,-84.61710357666016,-118.1453094482422,22.862009048461914,141.14942932128906
1911,-87.73992156982422,-116.79894256591795,18.729419708251953,149.8260040283203
1912,-88.27472686767578,-121.3990249633789,18.101116180419922,147.04725646972656
1913,-86.95828247070312,-128.35150146484378,22.966726303100586,147.5596160888672
1914,-77.88528442382812,-135.15437316894528,19.40260124206543,145.59617614746094
1915,-80.76126861572266,-128.21685791015622,12.45012664794922,149.41461181640625
1916,-86.68153381347656,-119.64875030517578,17.921600341796875,151.594970703125
1917,-80.09556579589844,-127.4838409423828,19.50357818603516,145.59617614746094
1918,-79.28401184082031,-132.49530029296878,10.176267623901367,141.86749267578125
1919,-89.86044311523438,-133.81922912597656,8.437213897705076,141.14942932128906
1920,-77.31681823730469,-127.53620147705078,21.971912384033203,147.08839416503906
1921,-79.79263305664062,-121.60845947265624,19.787811279296875,137.2225341796875
1922,-84.28799438476562,-136.84480285644528,12.75679874420166,139.21217346191406
1923,-88.08773040771484,-115.83405303955078,16.006771087646484,145.6634979248047
1924,-82.26097106933594,-108.75816345214844,23.04900360107422,146.347900390625
1925,-80.8472900390625,-134.36898803710938,24.20837211608887,147.21554565429688
1926,-85.47354125976562,-137.71246337890622,14.29389762878418,139.19346618652344
1927,-89.83800506591797,-108.58238220214844,9.159014701843262,138.82695007324222
1928,-94.72979736328124,-107.52399444580078,12.31923007965088,145.63357543945312
1929,-91.22177124023438,-133.57987976074222,11.6759672164917,144.6873779296875
1930,-83.56245422363281,-131.55659484863278,10.232366561889648,141.4972381591797
1931,-91.1881103515625,-128.76663208007812,4.487879753112793,143.31109619140625
1932,-79.63929748535156,-106.75357055664062,14.630488395690918,148.1580047607422
1933,-78.599609375,-138.06401062011722,14.09194278717041,149.62030029296875
1934,-77.76934814453125,-138.75590515136722,14.944640159606935,148.23654174804688
1935,-88.86189270019531,-125.06786346435548,13.515998840332033,145.33438110351562
1936,-82.48910522460938,-124.70883178710938,15.860916137695312,151.7333526611328
1937,-89.56499481201172,-134.49241638183594,17.682247161865234,145.26705932617188
1938,-83.22212219238281,-132.40180969238278,11.657268524169922,143.93939208984375
1939,-86.07192993164062,-112.28862762451172,8.485833168029785,144.1450958251953
1940,-86.84234619140625,-124.19646453857422,9.417068481445312,143.93191528320312
1941,-78.79782104492188,-130.98439025878906,16.44059944152832,145.60739135742188
1942,-81.78974151611328,-126.840576171875,12.349149703979492,140.82406616210938
1943,-87.58658599853516,-133.27694702148438,15.49814510345459,138.23979187011722
1944,-83.5400161743164,-114.98135375976562,18.430227279663086,146.9911651611328
1945,-89.3443374633789,-127.33424377441406,18.778038024902344,144.31712341308594
1946,-88.19245147705078,-120.31071472167969,13.392581939697266,141.96099853515625
1947,-93.78359985351562,-109.91378784179688,16.294744491577152,146.0487060546875
1948,-86.146728515625,-128.38516235351562,24.735698699951172,148.57687377929688
1949,-80.12174987792969,-134.54103088378906,18.69576072692871,144.36949157714844
1950,-89.4228744506836,-143.1240997314453,16.567756652832028,146.8565216064453
1951,-91.13201141357422,-131.65008544921878,9.9443941116333,139.16354370117188
1952,-83.68212890625,-118.59410095214844,18.80421638488769,152.33921813964844
1953,-78.49114990234375,-139.60111999511722,23.55014991760254,148.8050079345703
1954,-80.00581359863281,-140.73429870605472,15.969372749328613,137.83963012695312
1955,-95.63111114501952,-120.94649505615234,11.586210250854492,141.17935180664062
1956,-83.57367706298828,-136.42219543457028,18.50128555297852,147.04725646972656
1957,-79.60189819335938,-130.64405822753906,15.767417907714846,146.4339141845703
1958,-80.39476013183594,-126.7209014892578,11.197260856628418,142.58929443359375
1959,-84.3440933227539,-121.6421127319336,13.964786529541016,141.53089904785156
1960,-83.88408660888672,-124.43582153320312,21.470766067504886,153.82022094726562
1961,-76.72217559814453,-118.94564819335938,18.748119354248047,144.3096466064453
1962,-88.70108032226562,-126.6984634399414,12.225732803344727,137.92564392089844
1963,-88.63749694824219,-117.17667388916016,19.036090850830078,143.86460876464844
1964,-85.96720886230469,-109.3528060913086,21.467025756835934,148.30760192871094
1965,-82.48910522460938,-122.83514404296876,24.339269638061523,145.38299560546875
1966,-87.24625396728516,-129.93721008300778,7.861269474029541,138.78581237792972
1967,-97.83016967773438,-127.14724731445312,0.8377375602722168,136.11178588867188
1968,-81.46810913085938,-127.15473175048828,17.577529907226562,151.54261779785156
1969,-81.72990417480469,-135.7078857421875,19.563417434692386,150.1251983642578
1970,-84.54978942871094,-132.07643127441406,10.984086036682127,144.822021484375
1971,-83.98506164550781,-131.06292724609378,11.27953815460205,145.6223602294922
1972,-83.52131652832031,-121.47382354736328,16.762231826782227,145.98138427734375
1973,-84.35531616210938,-139.80307006835938,15.797337532043455,142.40977478027344
1974,-80.72013092041016,-135.02348327636722,10.879368782043457,144.88558959960938
1975,-90.6869659423828,-126.09259796142578,6.522385597229004,142.98947143554688
1976,-81.3708724975586,-117.1056137084961,12.940053939819336,142.5780792236328
1977,-83.1174087524414,-127.08740997314452,22.170127868652344,143.98802185058594
1978,-76.76331329345703,-137.14399719238278,16.414421081542972,138.87557983398438
1979,-85.83631134033203,-125.44933319091795,18.845355987548828,142.26766967773438
1980,-86.7151870727539,-112.93563079833984,28.064208984375,143.05677795410156
1981,-77.38040161132812,-121.57479858398438,31.508657455444336,148.65167236328125
1982,-88.2410659790039,-144.11517333984375,23.00786399841309,135.83503723144528
1983,-87.34723663330078,-112.14276885986328,33.04575729370117,150.3682861328125
1984,-86.73014831542969,-111.40975189208984,24.11113548278809,146.17959594726562
1985,-82.26097106933594,-131.28358459472656,23.58754920959473,146.54237365722656
1986,-85.66801452636719,-137.21505737304688,21.87093544006348,142.1517333984375
1987,-86.76380920410156,-125.94673919677734,16.20872688293457,146.22073364257812
1988,-82.36194610595703,-125.08282470703124,21.19027328491211,152.8740234375
1989,-85.34638977050781,-135.74153137207028,20.35627555847168,143.20263671875
1990,-83.98506164550781,-133.2021484375,24.567401885986328,144.9491729736328
1991,-89.0414047241211,-126.84805297851562,13.871289253234865,141.35513305664062
1992,-84.33287048339844,-125.24363708496094,25.644493103027344,145.31568908691406
1993,-86.94332122802734,-132.26716613769528,27.01329803466797,138.14630126953122
1994,-84.51986694335938,-127.6222152709961,26.358814239501953,139.39915466308594
1995,-84.96492004394531,-123.82247924804688,22.805910110473636,137.61897277832028
1996,-90.57102966308594,-119.62631225585938,23.531450271606445,140.09478759765622
1997,-74.29124450683594,-124.129150390625,27.74631690979004,140.42015075683594
1998,-86.6104736328125,-133.24702453613278,25.64823341369629,135.90609741210938
1999,-85.85875701904297,-122.0048828125,24.526264190673828,141.44488525390625
2000,-88.48789978027344,-119.16255950927734,25.158306121826172,141.99090576171875
2001,-84.93125915527344,-125.2959976196289,25.057329177856445,138.32954406738278
2002,-75.08036041259766,-135.76397705078122,23.116321563720703,137.80970764160156
2003,-85.95599365234375,-127.83912658691406,22.125247955322266,142.2601776123047
2004,-86.80120849609375,-121.36536407470705,24.73195838928223,140.44259643554688
2005,-78.70806121826172,-131.70245361328122,24.859115600585934,139.91900634765622
2006,-80.58175659179688,-128.0784912109375,14.768864631652832,136.83358764648438
2007,-82.8780517578125,-132.91790771484378,19.33154296875,139.0064697265625
2008,-80.25638580322266,-118.28368377685548,26.583208084106445,146.3441619873047
2009,-75.33467102050781,-143.3260498046875,23.576330184936523,140.01625061035156
2010,-82.06275177001953,-130.91519165039062,16.687433242797848,139.84234619140622
2011,-85.90363311767578,-126.64049530029295,8.7999849319458,138.56329345703122
2012,-82.59008026123047,-120.05078887939452,19.42877960205078,146.4806671142578
2013,-70.6897201538086,-132.8262939453125,24.29813003540039,142.29945373535156
2014,-85.30150604248047,-135.17494201660156,18.35542869567871,138.54084777832028
2015,-85.4249267578125,-110.51778411865234,16.515398025512695,140.91195678710938
2016,-83.15106201171875,-129.10882568359378,17.887941360473633,144.89120483398438
2017,-78.60708618164062,-136.50260925292972,17.86924171447754,138.18182373046878
2018,-85.33516693115234,-136.24081420898438,18.157215118408203,138.08084106445312
2019,-83.55123138427734,-121.91326141357422,21.339868545532227,141.5926055908203
2020,-78.37147521972656,-123.69345092773438,19.496097564697266,145.59429931640625
2021,-84.23189544677734,-128.89939880371094,24.881553649902344,137.48246765136722
2022,-91.78649139404295,-150.0298309326172,13.736652374267578,136.05007934570312
2023,-86.05696868896484,-124.5798110961914,14.335036277770994,139.53192138671878
2024,-87.26121520996094,-124.46012878417969,13.38884162902832,140.17144775390622
2025,-75.55158996582031,-139.65534973144528,22.450618743896484,139.64785766601562
2026,-87.4781265258789,-131.74171447753906,14.492112159729006,132.54205322265622
2027,-92.56065368652344,-116.56520080566406,11.48149299621582,136.62602233886722
2028,-88.60758209228516,-114.62793731689452,16.908086776733402,143.35411071777344
2029,-78.89505767822266,-138.86996459960938,20.202939987182614,140.27243041992188
2030,-86.41600036621094,-135.68731689453122,22.65257453918457,139.17289733886722
2031,-89.7445068359375,-121.6888656616211,15.681400299072266,137.23936462402344
2032,-92.87854766845705,-120.61551666259766,12.977453231811525,137.90507507324222
2033,-79.41864776611328,-127.86717987060548,25.36774063110352,146.25253295898438
2034,-86.15794372558594,-136.39041137695312,17.525171279907227,142.7332763671875
2035,-88.52529907226562,-123.92532348632812,14.551950454711914,140.4033203125
2036,-95.89664459228516,-120.11810302734376,19.795289993286133,143.46255493164062
2037,-86.30754089355469,-131.87635803222656,20.85368156433105,142.37425231933594
2038,-86.34494018554688,-133.17036437988278,17.169879913330078,134.15394592285156
2039,-86.61421203613281,-126.2104034423828,14.690326690673828,139.74884033203122
2040,-88.9217300415039,-129.99143981933594,17.41671371459961,144.76405334472656
2041,-88.2784652709961,-139.29257202148438,22.31598281860352,142.41165161132812
2042,-86.47957611083984,-140.28738403320312,15.587903022766113,135.79951477050778
2043,-81.98421478271484,-129.4342041015625,17.6298885345459,141.63375854492188
2044,-84.01872253417969,-126.84992980957031,11.761985778808596,139.311279296875
2045,-89.22840118408203,-134.87948608398438,18.048757553100586,136.24455261230472
2046,-88.63375854492188,-136.89903259277344,10.127649307250977,132.38871765136722
2047,-88.74969482421875,-128.61141967773438,8.085663795471191,138.01353454589844
2048,-88.40188598632812,-135.45542907714844,13.714213371276855,136.24081420898438
2049,-77.96756744384766,-139.64785766601562,16.44059944152832,139.20655822753906
2050,-81.5503921508789,-130.38038635253906,18.523723602294922,137.19448852539062
2051,-92.04828643798828,-119.83013153076172,11.717106819152832,135.44047546386722
2052,-89.03766632080078,-121.88707733154295,17.20353889465332,141.4691925048828
2053,-86.05696868896484,-133.8360595703125,17.992658615112305,141.09893798828125
2054,-86.52445220947266,-132.90107727050778,17.196060180664062,138.92607116699222
2055,-85.5670394897461,-124.22077941894531,17.371835708618164,142.9950714111328
2056,-90.11849975585938,-112.68692779541016,24.316829681396484,148.7507781982422
2057,-83.8990478515625,-126.69659423828124,19.58211708068848,139.44964599609378
2058,-86.03453063964844,-132.00350952148438,17.072643280029293,142.3069305419922
2059,-94.54280090332031,-123.58873748779295,13.815190315246582,139.3935546875
2060,-86.63665008544922,-127.34733581542969,18.647140502929688,143.11474609375
2061,-83.00147247314453,-135.65365600585938,20.707826614379886,137.104736328125
2062,-82.89301300048828,-131.76789855957028,16.34336280822754,135.67608642578122
2063,-87.90447998046875,-116.31836700439452,15.273751258850098,139.50949096679688
2064,-93.14408111572266,-115.21509552001952,11.227179527282717,137.87515258789062
2065,-89.24336242675781,-133.90338134765622,13.104609489440918,135.403076171875
2066,-82.78829193115234,-132.88612365722656,9.24503231048584,137.46376037597656
2067,-95.642333984375,-125.3614501953125,4.888049125671387,132.09700012207028
2068,-86.43096160888672,-128.91061401367188,15.707579612731935,144.2703857421875
2069,-89.25083923339844,-122.88937377929688,14.791304588317873,138.66801452636722
2070,-90.63834381103516,-128.20750427246094,6.933774471282959,134.33720397949222
2071,-94.28849029541016,-110.5290069580078,6.915074825286865,138.2080078125
2072,-99.45703125,-124.4189910888672,6.862716197967528,135.50405883789062
2073,-89.2994613647461,-131.58090209960938,10.610095977783203,138.42864990234378
2074,-94.6624755859375,-127.8933563232422,8.212820053100586,134.75981140136722
2075,-97.87505340576172,-120.15924835205078,7.569557666778564,134.19883728027344
2076,-93.7985610961914,-117.0700912475586,7.857529640197754,137.22067260742188
2077,-87.70252227783203,-127.4146499633789,9.001938819885254,134.28858947753906
2078,-88.24481201171875,-135.74714660644528,2.2140207290649414,127.66522216796876
2079,-89.79686737060547,-137.78913879394528,-1.4062024354934692,133.43589782714844
2080,-82.65740203857422,-134.29232788085938,5.060084819793701,138.8363037109375
2081,-71.56111907958984,-125.61949920654295,24.8067569732666,149.4912872314453
2082,-73.01219940185547,-124.75558471679688,15.853435516357422,148.56004333496094
2083,-78.89879608154297,-121.25503540039062,12.023777961730955,145.13803100585938
2084,-84.55726623535156,-112.41765594482422,10.834489822387695,146.33480834960938
2085,-84.73303985595703,-125.1071319580078,12.094836235046387,141.28219604492188
2086,-86.68153381347656,-137.27302551269528,5.804324626922607,138.18556213378906
2087,-85.14069366455078,-127.10050201416016,7.696713924407959,138.05841064453122
2088,-88.52904510498047,-135.14875793457028,2.3075182437896733,137.64701843261722
2089,-87.27617645263672,-128.64881896972656,7.427441120147705,139.61045837402344
2090,-85.84005737304688,-126.50211334228516,8.3511962890625,136.94392395019528
2091,-90.4027328491211,-122.855712890625,4.3906426429748535,133.6715087890625
2092,-88.42432403564453,-119.04475402832031,4.708534240722656,138.17060852050778
2093,-89.91280364990234,-142.3592987060547,11.343116760253904,136.40162658691406
2094,-90.95623779296876,-137.99482727050778,2.4982531070709233,134.32972717285156
2095,-90.17459869384766,-128.91435241699222,4.315844535827637,134.052978515625
2096,-85.69793701171875,-127.92327880859376,12.741839408874512,140.35096740722656
2097,-52.98503112792969,-133.39849853515622,23.209819793701172,141.13259887695312
2098,-83.31188201904297,-135.18241882324222,8.414774894714355,133.46580505371094
2099,-86.37486267089844,-134.46810913085938,7.270365715026855,139.73762512207028
2100,-85.9485092163086,-118.19580078125,16.807109832763672,146.78733825683594
2101,-83.19220733642578,-132.98710632324222,8.489572525024414,137.84523010253906
2102,-90.18955993652344,-153.55654907226562,5.714567184448242,132.66546630859378
2103,-93.02814483642578,-137.23188781738278,3.1639554500579834,132.21669006347656
2104,-85.86249542236328,-130.77308654785156,14.33877658843994,139.67404174804688
2105,-83.97384643554688,-137.0635986328125,9.667641639709473,134.82339477539062
2106,-94.50540161132812,-134.67005920410156,8.519492149353027,131.4649658203125
2107,-96.91764068603516,-129.01158142089844,7.083370685577393,136.166015625
2108,-93.50685119628906,-131.85017395019528,14.095683097839355,140.4556884765625
2109,-84.61710357666016,-135.37689208984378,17.0838623046875,139.16168212890622
2110,-93.7536849975586,-133.22645568847656,9.278692245483398,129.86054992675778
2111,-90.4438705444336,-114.56061553955078,14.93716049194336,138.41743469238278
2112,-90.46257019042969,-119.55338287353516,15.793597221374512,142.62857055664062
2113,-84.54230499267578,-134.71493530273438,16.549057006835938,142.16107177734375
2114,-81.08290100097656,-136.07626342773438,14.836183547973633,133.94451904296878
2115,-87.62398529052734,-137.19075012207028,9.921954154968262,141.5514678955078
2116,-82.70601654052734,-125.38014221191406,13.287864685058596,142.0488739013672
2117,-78.42757415771484,-145.8224334716797,11.8517427444458,141.61505126953125
2118,-87.44072723388672,-144.1357421875,6.63458251953125,135.29835510253906
2119,-93.69010162353516,-133.52938842773438,4.196167945861816,141.73846435546875
2120,-90.32793426513672,-142.07131958007812,3.317291259765625,136.259521484375
2121,-88.47294616699219,-140.07795715332028,9.667641639709473,136.55496215820312
2122,-88.36074829101562,-127.61286926269531,10.359522819519043,138.16311645507812
2123,-85.32020568847656,-130.42152404785156,10.370742797851562,138.13320922851562
2124,-97.73667907714844,-132.16058349609378,12.25565242767334,143.4513397216797
2125,-84.0000228881836,-133.7537841796875,13.942346572875975,138.32768249511722
2126,-97.7104949951172,-144.80892944335938,5.927741527557372,133.52938842773438
2127,-94.5839385986328,-143.30174255371094,0.8190380930900574,129.3818359375
2128,-77.12234497070312,-135.04779052734378,9.607803344726562,135.75088500976562
2129,-84.47125244140625,-134.67753601074222,5.4228549003601065,132.31765747070312
2130,-82.8182144165039,-132.03717041015622,10.26976490020752,131.30789184570312
2131,-86.59925079345703,-126.7713851928711,10.954167366027832,135.92292785644528
2132,-89.1760482788086,-122.93051147460938,18.220792770385746,142.03018188476562
2133,-81.37834930419922,-130.21209716796878,22.81338882446289,151.64920043945312
2134,-86.56559753417969,-133.17410278320312,16.616374969482422,140.30609130859378
2135,-83.45399475097656,-121.83472442626952,10.142608642578123,142.7744140625
2136,-82.0328369140625,-132.81880187988278,18.0225772857666,148.60865783691406
2137,-80.01702880859375,-140.825927734375,21.481985092163086,144.3077850341797
2138,-86.76754760742188,-138.60443115234378,8.968279838562012,144.74534606933594
2139,-94.14263153076172,-135.46292114257812,3.152735710144043,138.02848815917972
2140,-89.34808349609375,-131.12837219238278,7.977206707000732,144.1357421875
2141,-80.2302017211914,-135.89674377441406,12.165894508361815,136.55870056152344
2142,-87.23503875732422,-133.42466735839844,9.660161972045898,132.66172790527344
2143,-94.12019348144531,-127.44831085205078,11.391735076904295,135.03657531738278
2144,-94.3221435546875,-130.91519165039062,16.751012802124027,132.60189819335938
2145,-86.06818389892578,-130.485107421875,17.689725875854492,137.68067932128906
2146,-86.47583770751953,-129.01533508300778,18.32176971435547,142.22091674804688
2147,-90.2643585205078,-119.94981384277344,12.56606388092041,137.90507507324222
2148,-83.6634292602539,-123.61491394042969,13.097129821777346,139.53565979003906
2149,-79.4261245727539,-134.33346557617188,19.526018142700195,143.032470703125
2150,-78.39765167236328,-140.58283996582028,15.412127494812012,139.27761840820312
2151,-84.5049057006836,-131.27423095703122,10.374482154846193,134.15394592285156
2152,-87.76984405517578,-131.423828125,15.999292373657227,136.06129455566406
2153,-85.68297576904297,-136.54374694824222,20.15806007385254,143.74679565429688
2154,-94.15010833740234,-138.4136962890625,13.774051666259766,139.09809875488278
2155,-91.229248046875,-118.85028076171876,22.469318389892575,141.2447967529297
2156,-90.64208221435548,-133.36109924316406,14.802523612976074,146.5068359375
2157,-90.04743957519531,-137.41888427734378,8.388595581054688,141.166259765625
2158,-89.10498809814453,-131.64822387695312,12.278091430664062,139.40103149414062
2159,-93.86213684082031,-125.91495513916016,11.058884620666504,137.93873596191406
2160,-99.01946258544922,-129.815673828125,14.847402572631836,140.04803466796878
2161,-96.95877838134766,-130.79177856445312,18.0113582611084,135.68731689453122
2162,-97.10462951660156,-138.66427612304688,8.725186347961426,129.03776550292972
2163,-107.11260223388672,-122.42562866210938,9.76487922668457,133.14791870117188
2164,-98.86238861083984,-119.0858917236328,10.45676040649414,129.34817504882812
2165,-83.44651794433594,-124.2806167602539,22.061670303344727,140.71746826171878
2166,-94.04165649414062,-136.86537170410156,11.014005661010742,133.11051940917972
2167,-91.31153106689452,-125.8476333618164,4.551458358764648,140.67633056640622
2168,-94.93549346923828,-140.20137023925778,9.01689910888672,142.9501953125
2169,-86.651611328125,-144.57705688476562,9.772358894348145,142.0675811767578
2170,-92.09690856933594,-139.43843078613278,5.572451114654541,138.0733642578125
2171,-99.42710876464844,-137.37026977539062,1.791412115097046,138.30897521972656
2172,-90.03247833251953,-132.03343200683594,4.873089790344238,135.8668212890625
2173,-87.80724334716797,-134.06045532226562,6.668241500854492,139.99192810058594
2174,-85.81761169433594,-140.95309448242188,3.018099308013916,131.99603271484378
2175,-86.64413452148438,-120.5257568359375,9.458207130432127,141.49163818359375
2176,-93.24131774902344,-133.46580505371094,10.198707580566406,134.12028503417972
2177,-87.17520141601562,-139.67404174804688,11.986379623413086,126.3487777709961
2178,-92.85984802246094,-150.3252716064453,7.898668766021728,125.6045379638672
2179,-86.45339965820312,-114.91216278076172,16.706132888793945,136.03512573242188
2180,-98.68660736083984,-119.80021667480469,14.17422103881836,132.38871765136722
2181,-87.16024017333984,-134.78225708007812,16.717351913452152,128.58897399902344
2182,-91.75657653808594,-127.87091827392578,15.939454078674315,133.96694946289062
2183,-91.8874740600586,-122.7734375,12.921354293823242,138.12947082519528
2184,-91.06843566894531,-122.18627166748048,14.86610221862793,135.88926696777344
2185,-82.88927459716797,-132.82254028320312,12.37532901763916,135.91545104980472
2186,-86.10932922363281,-138.02101135253906,6.642062187194824,132.85993957519528
2187,-91.9921875,-134.07914733886722,3.0854175090789795,136.35301208496094
2188,-91.15818786621094,-119.66558074951172,7.861269474029541,137.61335754394528
2189,-93.42082977294922,-133.196533203125,7.105809688568115,135.38438415527344
2190,-100.43314361572266,-127.0294418334961,-0.4712274074554443,135.51901245117188
2191,-97.1083755493164,-120.56689453125,-1.7315737009048462,134.41947937011722
2192,-88.45050048828125,-125.97853088378906,7.3526434898376465,135.062744140625
2193,-93.27123260498048,-134.06419372558594,5.411635398864746,131.82398986816406
2194,-88.858154296875,-138.22296142578122,4.1475491523742685,130.71697998046878
2195,-105.44461059570312,-123.46531677246094,3.743639945983887,133.82858276367188
2196,-93.35725402832031,-114.59053802490234,9.203893661499023,136.16227722167972
2197,-87.08170318603516,-136.62228393554688,9.82471752166748,132.03717041015622
2198,-106.7834930419922,-140.8296661376953,-1.660515546798706,124.51996612548828
2199,-103.72425842285156,-119.0597152709961,2.7824854850769043,127.268798828125
2200,-93.9219741821289,-118.782958984375,8.130542755126951,133.58174133300778
2201,-84.4039306640625,-123.24840545654295,19.10340881347656,138.22296142578122
2202,-89.77069091796875,-122.76221466064452,18.265670776367188,137.62457275390622
2203,-89.44905853271484,-110.89177703857422,14.918460845947266,139.77876281738278
2204,-97.53472137451172,-120.62299346923828,11.313197135925293,135.22731018066406
2205,-94.9429702758789,-135.84439086914062,7.042231559753418,137.79661560058594
2206,-92.68032836914062,-134.54664611816406,1.5109195709228516,131.25552368164062
2207,-94.82703399658205,-124.7593231201172,2.861023426055908,134.41574096679688
2208,-88.33456420898438,-128.1962890625,5.826764106750487,139.96575927734378
2209,-91.84259033203124,-129.85307312011722,8.766325950622559,140.00689697265622
2210,-95.93404388427734,-142.00399780273438,5.377975940704347,130.44023132324222
2211,-96.50437927246094,-129.77827453613278,5.525701999664307,133.94451904296878
2212,-87.32292175292969,-126.16552734375,14.206009864807127,140.9568328857422
2213,-91.8444595336914,-137.58717346191406,4.190557956695557,131.95115661621094
2214,-92.64854431152344,-131.47618103027344,5.944571018218994,133.47329711914062
2215,-96.11917114257812,-120.98576354980469,0.03926894813776016,128.77970886230472
2216,-87.925048828125,-135.11885070800778,7.908018589019775,129.86802673339844
2217,-87.73805236816406,-125.06599426269531,11.389864921569824,131.78285217285156
2218,-88.69546508789062,-135.79951477050778,6.157745361328125,127.3884735107422
2219,-95.8125,-122.54156494140624,5.432204723358153,134.86827087402344
2220,-91.52657318115234,-122.08529663085938,15.623432159423828,139.87974548339844
2221,-91.5003890991211,-131.01617431640622,11.24774932861328,139.19534301757812
2222,-88.13448333740234,-124.3404541015625,13.719822883605955,141.47293090820312
2223,-94.01360321044922,-121.27373504638672,12.889565467834473,137.87515258789062
2224,-87.10601043701172,-116.14259338378906,15.825387001037598,141.07650756835938
2225,-86.66096496582031,-137.31416320800778,17.08573341369629,138.55955505371094
2226,-91.63128662109376,-140.13778686523438,14.228449821472168,138.85501098632812
2227,-103.16887664794922,-133.619140625,3.790388584136963,129.66981506347656
2228,-96.63153839111328,-126.40487670898438,11.991989135742188,139.53192138671878
2229,-95.5993194580078,-136.05381774902344,10.140738487243652,129.8455810546875
2230,-107.18553161621094,-136.41659545898438,3.3677799701690674,124.80046081542969
2231,-104.287109375,-124.4002914428711,1.7932820320129397,132.64303588867188
2232,-95.9583511352539,-111.60609436035156,9.815367698669434,134.87574768066406
2233,-93.27310180664062,-134.90940856933594,11.662878036499025,132.84498596191406
2234,-91.75096893310548,-123.22596740722656,17.639238357543945,135.73219299316406
2235,-89.39482879638672,-118.01254272460938,17.628019332885742,139.90217590332028
2236,-86.72454071044922,-137.46376037597656,15.327980041503904,139.56184387207028
2237,-88.09334564208984,-137.09725952148438,6.599053382873535,136.01641845703122
2238,-93.1646499633789,-133.09181213378906,5.14049243927002,129.4342041015625
2239,-94.94857788085938,-127.25757598876952,2.0326356887817383,134.04550170898438
2240,-90.13906860351562,-132.11196899414062,3.8464870452880864,141.22610473632812
2241,-85.09394073486328,-139.57305908203122,7.167518138885497,135.59754943847656
2242,-92.55504608154295,-132.609375,8.648518562316895,134.4344482421875
2243,-95.5731430053711,-123.4952392578125,9.000069618225098,139.0943603515625
2244,-96.2538070678711,-123.76077270507812,13.173797607421875,143.69444274902344
2245,-94.72044372558594,-126.30016326904295,16.917436599731445,139.68525695800778
2246,-103.59896850585938,-132.15684509277344,7.369472980499268,130.85162353515622
2247,-96.0144500732422,-121.88333892822266,7.952897071838379,127.62408447265624
2248,-95.22159576416016,-113.87247467041016,10.922377586364746,130.54495239257812
2249,-94.98597717285156,-129.03402709960938,10.896198272705078,124.53492736816406
2250,-90.56541442871094,-116.06031799316406,11.457183837890625,122.79961395263672
2251,-94.2492218017578,-113.99214935302734,15.653350830078125,131.0311279296875
2252,-90.3185806274414,-111.14982604980469,25.68376350402832,149.0985870361328
2253,-84.94808959960938,-128.30848693847656,25.003101348876953,142.7445068359375
2254,-92.16983795166016,-131.07601928710938,9.430157661437988,135.87055969238278
2255,-94.44369506835938,-129.68476867675778,7.795821666717528,139.00834655761722
2256,-93.76676940917969,-130.82917785644528,0.5217160582542419,134.87574768066406
2257,-81.7990951538086,-146.7274932861328,4.130719661712647,134.64013671875
2258,-90.08296966552734,-149.78298950195312,0.6376529335975647,136.18846130371094
2259,-92.58870697021484,-123.74954986572266,3.046148538589477,140.7847900390625
2260,-89.91841125488281,-126.49463653564452,8.40168571472168,142.867919921875
2261,-90.89453125,-136.7232666015625,13.7534818649292,136.65594482421878
2262,-94.4287338256836,-132.84498596191406,8.775674819946289,135.88926696777344
2263,-98.45660400390624,-128.64881896972656,12.66517162322998,132.74026489257812
2264,-90.19890594482422,-123.00904846191406,13.461770057678224,132.08952331542972
2265,-87.8652114868164,-131.61082458496094,15.320500373840332,125.20063018798828
2266,-98.9053955078125,-131.53976440429688,12.882085800170898,126.07950592041016
2267,-97.98538208007812,-109.20881652832031,9.22820281982422,125.23429107666016
2268,-93.39652252197266,-115.22257995605469,16.401330947875973,127.43708801269531
2269,-82.43113708496094,-117.01024627685548,18.36103820800781,129.09013366699222
2270,-88.5870132446289,-137.9910888671875,11.157991409301758,127.14537811279295
2271,-95.6180191040039,-122.10025024414062,14.19478988647461,132.42985534667972
2272,-91.1002197265625,-108.1205062866211,19.774721145629886,142.69961547851562
2273,-85.9990005493164,-129.5987548828125,15.65709114074707,139.53941345214844
2274,-99.67581176757812,-137.04489135742188,-0.7049711346626282,135.58259582519528
2275,-93.3292007446289,-136.1248779296875,3.8801462650299072,133.61166381835938
2276,-86.81803894042969,-142.42660522460938,5.6865177154541025,138.97842407226562
2277,-77.8123550415039,-131.46122741699222,14.127471923828125,142.84547424316406
2278,-96.3809585571289,-133.77621459960938,1.7895420789718628,130.7431640625
2279,-87.55854034423828,-129.95404052734378,8.498922348022461,139.05322265625
2280,-93.40026092529295,-129.01158142089844,13.517868041992188,134.71493530273438
2281,-82.31893920898438,-137.71434020996094,21.24076271057129,137.32913208007812
2282,-88.73286437988281,-142.76693725585938,12.235082626342773,126.76764678955078
2283,-85.16500091552734,-137.67694091796878,15.137245178222654,136.12861633300778
2284,-88.81514739990234,-123.12124633789062,20.021554946899414,136.98506164550778
2285,-88.94978332519531,-138.37629699707028,16.113359451293945,132.88238525390622
2286,-84.96678924560547,-140.60902404785156,22.867618560791016,131.29666137695312
2287,-85.02288818359375,-123.61117553710938,27.086225509643555,133.56678771972656
2288,-92.21845245361328,-124.1983413696289,22.92745590209961,135.67234802246094
2289,-81.70559692382812,-143.02125549316406,20.627418518066406,128.51417541503906
2290,-87.76797485351562,-139.80494689941406,13.48794937133789,131.65196228027344
2291,-84.91069030761719,-134.11280822753906,13.67868423461914,134.58404541015622
2292,-82.88365936279297,-141.0465850830078,21.057506561279297,141.79457092285156
2293,-82.43113708496094,-145.39608764648438,19.703662872314453,135.76585388183594
2294,-89.12555694580078,-140.60528564453122,15.814167022705078,133.63410949707028
2295,-93.9462890625,-120.98202514648438,13.080300331115724,140.56413269042972
2296,-88.15692138671875,-126.5507354736328,26.416784286499023,145.5382080078125
2297,-78.34342193603516,-133.40597534179688,26.611257553100586,143.59719848632812
2298,-87.15462493896484,-129.99143981933594,16.947357177734375,137.79661560058594
2299,-91.56397247314452,-127.4557876586914,12.193943977355955,135.79576110839844
2300,-88.48229217529297,-127.35481262207031,17.171751022338867,141.92919921875
2301,-79.13628387451172,-130.46267700195312,27.35549736022949,138.54084777832028
2302,-87.37902069091797,-133.72386169433594,16.816459655761722,137.63954162597656
2303,-86.06257629394531,-118.20701599121094,19.842039108276367,137.86767578125
2304,-83.94579315185547,-121.00072479248048,23.716575622558594,149.37908935546875
2305,-84.2150650024414,-133.68272399902344,14.64357852935791,136.33805847167972
2306,-87.56975555419922,-144.02728271484375,10.754082679748537,135.8668212890625
2307,-95.36744689941406,-121.98057556152344,6.269942283630371,135.33949279785156
2308,-92.05389404296876,-140.20884704589844,10.61570644378662,137.0224609375
2309,-86.40290832519531,-139.87974548339844,11.401084899902346,136.83172607421878
2310,-85.09768676757812,-138.72410583496094,8.072573661804201,134.42697143554688
2311,-82.00104522705078,-142.66970825195312,5.7949748039245605,135.3619384765625
2312,-90.12036895751952,-128.03921508789062,13.772181510925293,135.38438415527344
2313,-90.87208557128906,-130.30934143066406,16.195636749267578,136.16975402832028
2314,-89.5519027709961,-139.62916564941406,15.08488655090332,135.60502624511722
2315,-93.7705078125,-124.49005126953124,11.666618347167967,139.84234619140622
2316,-86.62356567382812,-129.96900939941406,17.403623580932614,139.8984375
2317,-81.15209197998047,-136.10243225097656,18.450796127319336,135.79576110839844
2318,-87.40145874023438,-150.5347137451172,9.957483291625977,131.67439270019528
2319,-91.13761901855469,-131.94740295410156,12.885825157165527,136.7232666015625
2320,-87.77919006347656,-124.14971923828124,20.50400161743164,140.1153564453125
2321,-92.00901794433594,-134.14273071289062,21.54369354248047,132.351318359375
2322,-86.52632904052734,-123.958984375,21.487594604492188,136.82797241210938
2323,-89.41352844238281,-119.35516357421876,17.57192039489746,135.18991088867188
2324,-77.93203735351562,-130.54121398925778,22.931196212768555,141.65992736816406
2325,-78.81838989257812,-138.89241027832028,20.66107749938965,139.53192138671878
2326,-81.71307373046875,-134.75233459472656,17.52330207824707,139.62916564941406
2327,-85.70729064941406,-131.56968688964844,10.346433639526367,135.65739440917972
2328,-79.5551528930664,-127.66148376464844,15.365379333496096,140.66511535644528
2329,-87.1808090209961,-136.67839050292972,14.303247451782227,132.9384765625
2330,-71.48818969726562,-128.74606323242188,13.577706336975098,136.11740112304688
2331,-91.2573013305664,-134.71867370605472,12.79980754852295,134.90940856933594
2332,-79.68978881835938,-129.96525573730472,18.77242851257324,139.95452880859378
2333,-82.63683319091797,-127.3697738647461,19.722362518310547,142.3929443359375
2334,-87.22942352294922,-129.33322143554688,11.341246604919435,132.09700012207028
2335,-86.45526885986328,-119.25792694091795,17.867372512817386,140.33226013183594
2336,-84.86206817626953,-129.1761474609375,19.284793853759766,135.38812255859378
2337,-76.27899932861328,-121.5691909790039,31.2449951171875,141.63375854492188
2338,-81.821533203125,-121.40089416503906,25.30229377746582,137.58717346191406
2339,-92.1436538696289,-118.69694519042969,24.071866989135746,143.61590576171875
2340,-89.85857391357422,-122.4705047607422,23.948450088500977,145.63169860839844
2341,-86.64600372314453,-131.73049926757812,17.556961059570312,131.846435546875
2342,-86.55250549316406,-142.12741088867188,2.9040322303771973,133.50694274902344
2343,-83.73262023925781,-134.20257568359378,1.591327428817749,130.81796264648438
2344,-80.60606384277344,-144.9921875,12.519314765930176,135.04405212402344
2345,-67.28827667236328,-143.5111846923828,18.424617767333984,138.60069274902344
2346,-73.56383514404297,-130.64591979980472,23.739015579223636,147.16880798339844
2347,-70.77386474609375,-117.14488983154295,24.13918495178223,151.8025360107422
2348,-70.93842315673828,-119.72915649414062,23.56324005126953,151.4397735595703
2349,-82.93601989746094,-126.18048095703124,21.495075225830078,142.96141052246094
2350,-84.4918212890625,-138.91110229492188,12.575413703918455,138.92231750488278
2351,-83.14545440673828,-117.40293884277344,18.275020599365234,144.86875915527344
2352,-85.25849914550781,-122.8370132446289,18.15160369873047,143.33914184570312
2353,-77.51316833496094,-131.71553039550778,22.089719772338867,142.00399780273438
2354,-83.09309387207031,-135.29835510253906,18.005748748779297,146.2076416015625
2355,-87.49121856689453,-119.89371490478516,19.916837692260746,145.3362579345703
2356,-88.50846862792969,-125.2642059326172,24.632850646972656,138.78395080566406
2357,-80.73322296142578,-121.0082015991211,24.72260856628418,135.75088500976562
2358,-85.93916320800781,-141.94790649414062,15.402777671813965,142.09376525878906
2359,-85.73346710205078,-124.05622100830078,21.304340362548828,141.79083251953125
2360,-74.12107849121094,-121.10543823242188,24.584232330322266,135.42926025390622
2361,-85.30712127685547,-133.78744506835938,21.38661766052246,135.78080749511722
2362,-80.50882720947266,-132.23912048339844,17.04085350036621,139.18785095214844
2363,-87.48748016357422,-128.77223205566406,17.369964599609375,142.05262756347656
2364,-84.64141845703125,-118.77174377441406,19.88691711425781,145.97203063964844
2365,-79.24099731445312,-142.01522827148438,19.44561004638672,142.81556701660156
2366,-78.44440460205078,-128.57028198242188,18.727548599243164,141.36073303222656
2367,-90.80477142333984,-118.53987121582031,15.870265007019045,141.23731994628906
2368,-78.75481414794922,-127.14537811279295,20.634897232055664,149.7755126953125
2369,-73.32447814941406,-139.27388000488278,26.18490982055664,143.455078125
2370,-74.89149475097656,-128.06166076660156,18.746248245239254,131.98106384277344
2371,-84.66011810302734,-126.08324432373048,20.365625381469727,139.79745483398438
2372,-84.68629455566406,-134.77851867675778,20.14497184753418,145.6653594970703
2373,-77.53934478759766,-138.58573913574222,28.223154067993164,145.4596710205078
2374,-78.45935821533203,-143.64207458496094,27.478914260864254,141.6412353515625
2375,-79.02034759521484,-130.64218139648438,27.624771118164066,146.0879669189453
2376,-80.3779296875,-130.50381469726562,22.3477725982666,143.8814239501953
2377,-77.05690002441406,-153.3321533203125,23.96714973449707,144.15818786621094
2378,-85.04532623291016,-140.51177978515622,17.725255966186523,137.01123046875
2379,-79.00912475585938,-113.87995147705078,16.326532363891598,145.3250274658203
2380,-78.16390991210938,-117.3954620361328,20.0589542388916,150.14576721191406
2381,-75.55719757080078,-125.24925231933594,22.706802368164066,149.0499725341797
2382,-79.4915771484375,-121.53179168701172,13.91803741455078,139.27761840820312
2383,-93.11976623535156,-118.45758819580078,4.751543045043945,140.33975219726562
2384,-80.44525146484375,-130.45892333984378,13.611366271972654,144.66680908203125
2385,-79.00912475585938,-145.1941375732422,15.017568588256836,133.21897888183594
2386,-80.17223358154297,-130.76934814453122,9.684471130371094,134.14646911621094
2387,-89.110595703125,-118.9400405883789,7.833220481872559,140.20510864257812
2388,-79.24099731445312,-125.79153442382812,10.877498626708984,144.1507110595703
2389,-77.84227752685547,-129.50900268554688,17.388664245605472,141.177490234375
2390,-79.79824829101562,-119.48980712890624,13.091519355773926,139.26638793945312
2391,-70.21288299560547,-118.49498748779295,17.418584823608402,144.74534606933594
2392,-88.03350830078125,-124.97998046875,20.03651428222656,141.53651428222656
2393,-78.9754638671875,-125.60079956054688,17.923471450805664,143.1521453857422
2394,-83.04447937011719,-138.27157592773438,17.52330207824707,145.01461791992188
2395,-86.91901397705078,-125.0435562133789,17.96086883544922,143.70191955566406
2396,-77.18031311035156,-121.56544494628906,20.48904228210449,147.7896270751953
2397,-79.86930084228516,-135.87429809570312,19.92431640625,141.8843231201172
2398,-89.18913269042969,-130.99748229980472,12.328579902648926,134.89445495605472
2399,-87.6482925415039,-128.24864196777344,9.374059677124023,140.58657836914062
2400,-79.44295501708984,-127.1528549194336,18.0169677734375,149.6932373046875
2401,-75.68435668945312,-137.22441101074222,17.209150314331055,136.17349243164062
2402,-74.20335388183594,-134.14646911621094,11.13181209564209,137.8265380859375
2403,-83.44091033935547,-126.09820556640624,16.584587097167972,145.3586883544922
2404,-77.6440658569336,-138.21548461914062,19.73732185363769,147.2772674560547
2405,-72.0491714477539,-139.62916564941406,27.82672500610352,147.6662139892578
2406,-77.6253662109375,-129.53517150878906,18.00200843811035,139.9395751953125
2407,-73.87798309326172,-121.95439910888672,20.571319580078125,150.10836791992188
2408,-76.72404479980469,-117.35806274414062,22.302892684936523,145.826171875
2409,-75.92745208740234,-131.59211730957028,20.683517456054688,138.0733642578125
2410,-79.30084228515625,-123.6635284423828,21.132305145263672,139.83485412597656
2411,-81.07355499267578,-120.06201171875,25.36213111877441,143.8515167236328
2412,-80.28069305419922,-120.92779541015624,28.85519790649414,143.61776733398438
2413,-72.69243621826172,-128.99101257324222,35.51596069335937,144.39566040039062
2414,-84.5516586303711,-130.49446105957028,31.05799865722656,146.54611206054688
2415,-77.67771911621094,-114.2745132446289,27.69208908081055,141.6318817138672
2416,-81.36900329589844,-123.46344757080078,22.80404090881348,141.54212951660156
2417,-87.33040618896484,-122.93238067626952,19.037960052490234,139.05134582519528
2418,-82.76024627685547,-134.80282592773438,14.056413650512695,136.64659118652344
2419,-82.53211212158203,-107.7296905517578,22.61704444885254,143.06427001953125
2420,-81.29420471191406,-109.2705307006836,20.43294334411621,147.29034423828125
2421,-74.10237884521484,-136.511962890625,25.2536735534668,144.9080352783203
2422,-81.821533203125,-129.2939453125,21.05002784729004,136.74383544921878
2423,-77.78617858886719,-113.5751495361328,29.348865509033203,145.41665649414062
2424,-77.38227081298828,-117.13927459716795,26.420522689819336,148.40484619140625
2425,-78.593994140625,-134.20069885253906,24.90586280822754,143.65142822265625
2426,-84.24124908447266,-116.43617248535156,16.535966873168945,139.96388244628906
2427,-81.93746948242188,-120.8193359375,15.114805221557615,138.57264709472656
2428,-80.79679870605469,-130.52812194824222,17.216629028320312,142.1853790283203
2429,-75.33280181884766,-133.31808471679688,34.14715576171875,149.1042022705078
2430,-87.22942352294922,-127.94384765625,18.64901161193848,139.14859008789062
2431,-86.0999755859375,-117.00090026855469,26.99646759033203,147.79898071289062
2432,-75.90875244140625,-111.54812622070312,30.908403396606445,146.90887451171875
2433,-79.5102767944336,-139.05508422851562,27.078744888305664,141.60569763183594
2434,-79.62621307373047,-119.66371154785156,20.945310592651367,143.3372802734375
2435,-86.64974212646484,-111.02454376220705,15.387818336486815,140.46128845214844
2436,-81.8402328491211,-122.03854370117188,16.88003921508789,147.3127899169922
2437,-82.69292449951172,-125.60266876220705,20.608718872070312,141.02975463867188
2438,-87.33040618896484,-124.62655639648438,17.942169189453125,142.955810546875
2439,-86.26079559326172,-123.45970916748048,20.31326675415039,151.50521850585938
2440,-74.5549087524414,-126.6984634399414,29.43862342834473,157.6610870361328
2441,-76.52583312988281,-134.87014770507812,33.63105010986328,156.688720703125
2442,-80.48638916015625,-124.0880126953125,25.92311668395996,149.41087341308594
2443,-74.82418060302734,-123.98703002929688,25.82961845397949,155.18527221679688
2444,-74.98125457763672,-126.08137512207031,27.763147354125977,153.33029174804688
2445,-65.11165618896484,-135.655517578125,32.66989517211914,152.55612182617188
2446,-76.1630630493164,-146.94253540039062,27.325578689575195,152.69076538085938
2447,-70.21288299560547,-121.66081237792969,24.68146896362305,150.82455444335938
2448,-72.57649993896484,-127.14724731445312,31.607765197753906,149.20892333984375
2449,-84.11782836914062,-123.0071792602539,31.267433166503906,147.2342529296875
2450,-85.9578628540039,-126.22723388671876,31.4619083404541,142.19287109375
2451,-82.2852783203125,-119.03540802001952,25.35091209411621,148.86859130859375
2452,-82.96220397949219,-124.4881820678711,33.462753295898445,144.3620147705078
2453,-72.20250701904297,-134.25680541992188,41.04353332519531,147.68678283691406
2454,-81.82527160644531,-126.71341705322266,26.11385154724121,135.39372253417972
2455,-83.96823120117188,-112.60651397705078,28.761699676513672,142.22653198242188
2456,-76.21542358398438,-108.6721420288086,30.051965713500977,145.39048767089844
2457,-79.01660919189453,-139.98258972167972,27.71826934814453,141.83383178710938
2458,-74.9775161743164,-130.09428405761722,29.03471374511719,151.58001708984375
2459,-73.84058380126953,-123.50458526611328,30.45961570739746,151.7146453857422
2460,-78.87822723388672,-125.47551727294922,31.028079986572266,156.95425415039062
2461,-64.58433532714844,-130.05314636230472,32.18370819091797,153.28167724609375
2462,-81.97486877441406,-132.41302490234378,20.52644157409668,150.76470947265625
2463,-70.51207733154297,-116.10706329345705,20.12253189086914,154.21290588378906
2464,-78.72115325927734,-140.35658264160156,26.697275161743164,155.21519470214844
2465,-65.72499847412111,-129.98208618164062,34.13967514038086,151.83433532714844
2466,-76.2827377319336,-124.20768737792969,25.46310806274414,146.02252197265625
2467,-79.07644653320312,-113.60133361816406,28.4101505279541,152.26068115234375
2468,-72.21746826171875,-120.7594985961914,28.94121551513672,147.88499450683594
2469,-76.79136657714844,-127.0799331665039,30.63539123535156,145.7869110107422
2470,-79.65986633300781,-122.97351837158205,35.04473114013672,144.4293212890625
2471,-79.66735076904297,-114.02020263671876,32.56143951416016,147.4810791015625
2472,-75.91996765136719,-122.59578704833984,33.33559799194336,149.08175659179688
2473,-74.13229370117188,-134.57095336914062,29.864971160888672,143.93565368652344
2474,-75.08596801757812,-110.4598159790039,28.59340476989746,141.15692138671875
2475,-74.8391342163086,-115.5984344482422,24.56927299499512,146.61343383789062
2476,-74.48758697509766,-111.46958923339844,29.95098876953125,151.23594665527344
2477,-73.25341796875,-127.21456909179688,27.6883487701416,151.84181213378906
2478,-73.74334716796875,-131.81838989257812,26.020353317260746,148.82371520996094
2479,-76.08452606201172,-120.90909576416016,28.6457633972168,157.6536102294922
2480,-72.72235107421875,-129.58940124511722,30.56433296203613,154.59063720703125
2481,-72.48300170898438,-118.96808624267578,23.8624324798584,155.89585876464844
2482,-70.28019714355469,-139.44029235839844,16.812719345092773,148.34500122070312
2483,-74.92141723632812,-134.26054382324222,19.11275863647461,152.51124572753906
2484,-71.06558227539062,-123.51580810546876,19.617645263671875,148.56192016601562
2485,-64.04578399658203,-134.02867126464844,34.659523010253906,149.6090850830078
2486,-73.66107177734375,-125.08656311035156,27.09744453430176,145.81683349609375
2487,-74.3379898071289,-114.85045623779295,33.75820541381836,143.43077087402344
2488,-76.81754302978516,-117.7227020263672,37.42330932617188,153.05728149414062
2489,-81.10720825195312,-128.80403137207028,39.24090194702149,142.88848876953125
