,T7,F8,Cz,P4
2000,-15.804817199707033,17.30264663696289,54.67172622680664,91.86128997802734
2001,-15.150334358215332,4.53088903427124,57.74218368530274,93.49188995361328
2002,-24.54870414733887,9.65455150604248,43.41462707519531,81.64762878417969
2003,-30.81303596496582,-0.35342055559158325,34.24439239501953,72.37641143798828
2004,-28.404541015625,-7.706063747406006,35.24668884277344,84.0037612915039
2005,-25.1882266998291,-0.1552058458328247,38.152587890625,83.25578308105469
2006,-30.09123420715332,9.074867248535156,29.240407943725586,75.2486572265625
2007,-35.28782653808594,-0.5366756319999695,33.13738250732422,78.5397720336914
2008,-30.96450233459473,8.323147773742676,42.49461364746094,87.91569519042969
2009,-15.806687355041506,14.1349515914917,59.369041442871094,96.07241821289062
2010,-22.84143829345703,19.666263580322266,53.12340927124024,85.15565490722656
2011,-32.19866943359375,10.443670272827148,53.88634872436523,96.92511749267578
2012,-28.556005477905273,16.573366165161133,57.70478820800781,92.13056182861328
2013,-22.75542068481445,20.36188507080078,64.11123657226561,94.0790557861328
2014,-33.369258880615234,17.61305809020996,50.13522720336914,87.13780212402344
2015,-41.0809326171875,16.337753295898438,34.842777252197266,81.12777709960938
2016,-37.93193435668945,9.755529403686523,39.78692626953125,89.86044311523438
2017,-34.809120178222656,18.03940773010254,44.37952423095703,90.46257019042969
2018,-39.18854141235352,22.613304138183594,35.26538848876953,90.01752471923828
2019,-39.917823791503906,11.984509468078613,30.91214370727539,88.22611236572266
2020,-33.47023391723633,14.052674293518065,39.59992980957031,87.38837432861328
2021,-21.28938102722168,18.90706443786621,46.53370666503906,84.07855987548828
2022,-16.334012985229492,8.850473403930664,44.65253448486328,85.17435455322266
2023,-23.020954132080078,-0.5628549456596375,33.96016311645508,80.05816650390625
2024,-17.31760597229004,-6.198884010314941,40.871498107910156,82.12259674072266
2025,-10.742862701416016,3.981123447418213,54.34635543823242,74.63157653808594
2026,-16.150758743286133,0.3795998394489288,43.74747848510742,77.04380798339844
2027,-20.31326675415039,5.450904369354248,40.93507385253906,72.1146240234375
2028,-15.559853553771973,5.118052959442139,52.53998565673828,81.71868133544922
2029,-18.92950439453125,11.064494132995604,55.326210021972656,75.44313049316406
2030,-25.608964920043945,9.243163108825684,48.71780776977539,79.36628723144531
2031,-39.6373291015625,10.634405136108398,46.13727569580078,80.72760772705078
2032,-31.98549461364746,12.75118923187256,46.51126480102539,80.02450561523438
2033,-26.5327205657959,15.974982261657715,53.45251846313477,88.50659942626953
2034,-30.98320198059082,23.76145362854004,43.97561264038086,81.50550842285156
2035,-36.073204040527344,19.12771797180176,40.77425765991211,87.83341979980469
2036,-33.6160888671875,9.628372192382812,45.88670349121094,72.87381744384766
2037,-25.27237319946289,9.901385307312012,46.26817321777344,77.49259948730469
2038,-24.87594413757324,18.18526268005371,38.42560195922852,80.67525482177734
2039,-31.289873123168945,0.06544824689626694,30.025787353515625,86.80120849609375
2040,-30.852304458618164,-1.8606002330780032,37.28493118286133,86.1654281616211
2041,-23.7277946472168,1.265956163406372,47.10964965820313,89.44532012939453
2042,-21.8316650390625,17.743955612182614,49.37602996826172,98.24530029296876
2043,-29.93228912353516,5.349926948547363,36.84362411499024,97.29911041259766
2044,-27.86038398742676,-3.8016083240509033,46.41776657104492,84.89759826660156
2045,-19.845779418945312,10.79896068572998,57.40559387207031,90.69444274902344
2046,-23.039653778076172,10.765301704406738,49.0618782043457,85.3650894165039
2047,-24.48325538635254,9.97618293762207,47.19192886352539,80.99687957763672
2048,-17.30264663696289,2.8628933429718018,55.21027374267578,80.25263977050781
2049,-4.11575984954834,6.161485195159912,69.80335998535156,77.30560302734375
2050,-7.732243061065674,20.67229652404785,62.58161544799805,79.6841812133789
2051,-24.12048530578613,8.678438186645508,47.6369743347168,74.17904663085938
2052,-23.81381225585937,22.71054267883301,64.78815460205078,78.10220336914062
2053,-22.29167366027832,28.301692962646484,61.85607528686523,79.67295837402344
2054,-20.94904899597168,23.327625274658203,57.56267166137695,78.02740478515625
2055,-32.501602172851555,27.340538024902344,54.99335861206055,77.9189453125
2056,-38.18624877929688,20.365625381469727,52.4427490234375,71.3741226196289
2057,-33.354297637939446,25.848318099975586,56.11906814575195,70.70093536376953
2058,-34.16959762573242,26.85061264038086,41.63069534301758,78.51732635498047
2059,-35.38506317138672,23.297706604003906,26.36442565917969,68.97684478759766
2060,-36.03206634521485,15.006348609924315,32.49412155151367,69.96791839599611
2061,-22.979814529418945,6.0679874420166025,44.06911087036133,90.29801177978516
2062,-21.93264389038086,26.00913429260254,39.52887344360352,75.36459350585938
2063,-23.623077392578125,12.134105682373047,35.37010192871094,69.82205963134766
2064,-18.824787139892575,4.744062900543213,49.27505111694336,77.36170196533203
2065,-6.643932342529298,18.03192710876465,55.27385330200195,83.46521759033203
2066,-8.117452621459961,18.30867958068848,57.67486572265625,79.26156616210938
2067,-18.615352630615234,3.1882646083831787,53.44504165649414,70.21101379394531
2068,-21.16970443725586,6.958083629608153,66.67680358886719,73.91725158691406
2069,-10.398792266845703,20.324485778808594,76.26590728759766,85.5259017944336
2070,-26.33450508117676,24.62163162231445,70.47654724121094,86.1878662109375
2071,-28.978614807128906,20.612459182739254,67.45096588134766,86.10184478759766
2072,-36.50329208374024,22.34029197692871,64.27578735351561,73.6592025756836
2073,-22.875097274780273,22.74420166015625,73.08699798583984,74.74376678466797
2074,-31.028079986572266,28.627063751220703,60.25913619995117,73.80131530761719
2075,-39.955223083496094,15.971242904663086,47.5359992980957,62.3310432434082
2076,-34.259353637695305,7.489149570465088,41.03605270385742,62.44697952270508
2077,-18.61161231994629,15.298060417175293,47.27046585083008,69.29847717285156
2078,-21.86532592773437,18.3572998046875,30.97572135925293,59.900108337402344
2079,-31.02059936523437,9.751789093017578,23.7277946472168,61.71395874023438
2080,-24.04194641113281,20.784494400024414,34.70066070556641,70.4316635131836
2081,-21.14726448059082,10.836359977722168,41.79151153564453,81.23249816894531
2082,-23.772674560546875,21.682069778442386,33.316898345947266,68.26626586914061
2083,-28.25307464599609,23.74649429321289,33.50763320922852,65.40898132324219
2084,-22.875097274780273,17.235328674316403,49.19651412963867,78.13960266113281
2085,-13.353312492370605,28.71682167053223,67.36869049072266,78.91001892089844
2086,-17.27646827697754,29.21048927307129,63.99529647827149,76.52022552490234
2087,-27.69208908081055,17.893550872802734,60.25539779663086,78.37147521972656
2088,-23.72031593322754,14.067633628845215,72.9598388671875,70.19605255126953
2089,-10.144478797912598,20.769535064697266,81.42697143554688,76.60250091552734
2090,-11.27392864227295,17.669157028198242,74.74376678466797,75.05792236328125
2091,-16.176937103271484,14.781954765319824,65.15840911865234,65.84281158447266
2092,-17.781354904174805,17.11191177368164,66.34021759033203,61.91591262817383
2093,-10.432451248168944,29.1730899810791,70.24467468261719,56.7398910522461
2094,-19.928056716918945,18.70511054992676,61.71395874023438,58.53878402709961
2095,-33.72454833984375,15.58603286743164,49.43960571289063,52.29689025878906
2096,-28.34657096862793,14.037714958190918,53.72179412841797,66.37761688232422
2097,-27.31435966491699,27.89030456542969,60.77150344848633,72.74666595458984
2098,-34.16211700439453,27.07500648498535,47.22932815551758,71.87152862548828
2099,-39.85424423217773,32.426803588867195,36.73516845703125,75.9891586303711
2100,-37.57290649414063,23.787633895874023,38.750972747802734,72.63072967529297
2101,-25.31725311279297,34.644561767578125,46.38784790039063,78.19195556640625
2102,-24.08682632446289,21.547433853149414,36.43971633911133,77.1971435546875
2103,-35.12327194213867,25.51546669006348,24.2551212310791,66.98347473144531
2104,-24.217721939086914,13.00176239013672,37.97681427001953,70.87671661376953
2105,-16.68930435180664,32.42306137084961,52.90275573730469,77.14852905273438
2106,-19.688703536987305,21.26320075988769,47.38266372680664,79.07083129882812
2107,-39.678466796875,19.587726593017575,38.53031921386719,75.69744873046875
2108,-33.537551879882805,19.015522003173828,53.93122863769531,74.2276611328125
2109,-30.47457504272461,14.65853786468506,58.8978157043457,70.80565643310547
2110,-33.537551879882805,14.497722625732422,55.8871955871582,66.25045776367189
2111,-31.81719970703125,17.583139419555664,46.98623275756836,56.52671813964844
2112,-21.880285263061523,7.982816219329834,51.19361877441406,52.37168884277344
2113,-13.981616020202635,25.67628288269043,60.363853454589844,59.137168884277344
2114,-17.661678314208984,18.15908432006836,45.66230773925781,53.19446563720703
2115,-24.457075119018555,19.759761810302734,40.04497909545898,48.500892639160156
2116,-14.88293170928955,14.796914100646973,54.04342269897461,60.88370132446289
2117,-10.065940856933594,36.63045120239258,66.5982666015625,69.41441345214844
2118,-18.33111953735352,24.44211578369141,57.461692810058594,63.49789047241211
2119,-34.311710357666016,19.269834518432614,42.76762771606445,70.18109130859375
2120,-34.19577407836914,22.400131225585934,53.48617935180664,74.1640853881836
2121,-30.23522186279297,22.07476043701172,56.43321990966797,84.97239685058594
2122,-33.58243179321289,20.24968910217285,51.23849868774414,73.89855194091797
2123,-46.26069259643555,7.328333854675293,33.09998321533203,72.04356384277344
2124,-42.15054321289063,6.647672176361084,29.93228912353516,71.13102722167969
2125,-26.22604751586914,5.0582146644592285,26.31954574584961,66.89372253417969
2126,-20.13749122619629,5.619199752807617,31.48434829711914,61.17915344238281
2127,-22.45996856689453,-5.166671752929688,23.869911193847656,53.605857849121094
2128,-23.136890411376953,5.705217361450195,32.47916030883789,42.539493560791016
2129,-8.427864074707031,21.008888244628906,49.15911483764648,40.7518196105957
2130,-19.928056716918945,26.11385154724121,41.12955093383789,40.63214492797852
2131,-21.25946044921875,24.72260856628418,39.87668228149414,39.54383087158203
2132,-19.322193145751953,19.09779930114746,49.0805778503418,41.73167419433594
2133,-11.47588348388672,21.25198173522949,60.1245002746582,62.99674606323242
2134,-18.0468864440918,17.313867568969727,45.38555526733398,63.95415878295898
2135,-21.547433853149414,-0.951804518699646,41.84012985229492,65.97744750976561
2136,-19.138938903808594,-5.48456335067749,40.48254776000977,67.578125
2137,-11.569380760192873,13.465509414672852,41.9448471069336,82.23853302001953
2138,-13.932997703552244,4.751543045043945,31.89199638366699,89.46027374267578
2139,-22.392650604248047,-9.003808975219727,16.685564041137695,83.02764892578125
2140,-23.709095001220703,-1.6287264823913574,22.10093879699707,81.56534576416016
2141,-15.844085693359375,-1.2958753108978271,33.94894027709961,78.99604034423828
2142,-17.407363891601562,3.9362447261810303,36.24150085449219,80.83606719970703
2143,-33.739505767822266,6.030588626861572,29.423662185668945,69.16010284423828
2144,-26.173688888549805,13.828280448913574,43.26503372192383,67.63422393798828
2145,-23.630558013916016,16.82394027709961,56.22004699707031,71.37786102294922
2146,-31.15897560119629,26.06523323059082,49.16659545898438,67.05827331542969
2147,-34.09105682373047,22.74420166015625,48.7701644897461,66.24298095703125
2148,-30.38107681274414,6.939384460449219,53.078529357910156,59.55603790283203
2149,-21.84662628173828,11.96580982208252,60.99963760375977,66.20932006835939
2150,-25.43692970275879,16.464910507202152,44.84701156616211,61.02581787109375
2151,-37.64770126342773,3.057368278503418,33.608612060546875,56.81468963623047
2152,-25.78848075866699,9.92756462097168,48.26527786254883,74.9681625366211
2153,-19.075359344482425,13.529088020324707,50.53913879394531,70.66728210449219
2154,-22.62452507019043,12.78858757019043,43.65024185180664,89.19474029541016
2155,-29.969688415527344,10.073420524597168,26.154991149902344,84.03742218017578
2156,-33.00648880004883,-1.942878007888794,28.78413963317871,80.41345977783203
2157,-23.623077392578125,20.866771697998047,45.61742782592773,91.47234344482422
2158,-23.724056243896484,10.312773704528807,42.52079391479492,86.11680603027344
2159,-25.33969306945801,6.198884010314941,43.74747848510742,83.77936553955078
2160,-22.430049896240234,-7.8294806480407715,48.269020080566406,74.66522979736328
2161,-14.460323333740234,0.3683801591396332,49.1030158996582,77.19340515136719
2162,-8.689657211303711,2.5524816513061523,51.20484161376953,78.55472564697266
2163,-20.32822608947754,-1.1649788618087769,39.40919494628906,67.77259826660156
2164,-13.443070411682127,-0.951804518699646,50.449378967285156,77.9600830078125
2165,-9.983662605285645,7.597606658935548,64.02147674560547,87.63520812988281
2166,-11.913451194763185,-2.0962138175964355,64.02521514892578,88.60383605957031
2167,-17.358745574951172,3.696891069412232,61.32126998901367,84.57222747802734
2168,-20.00285530090332,-1.310834884643555,62.05802917480469,73.8050537109375
2169,-23.13315200805664,10.492289543151855,61.75509643554688,76.40428924560547
2170,-28.081039428710934,22.508588790893555,48.60560989379883,83.85416412353516
2171,-43.26129150390625,22.246795654296875,30.852304458618164,71.17216491699219
2172,-43.97561264038086,9.183324813842773,30.45213508605957,70.88793182373047
2173,-31.90695571899414,23.17803001403809,47.61079788208008,83.1548080444336
2174,-34.337890625,15.53741455078125,38.28722763061523,74.99434661865234
2175,-36.6379280090332,15.698229789733887,35.048473358154304,73.97335052490234
2176,-30.84856414794922,14.265848159790039,49.5443229675293,77.37291717529297
2177,-21.319299697875977,17.654197692871094,52.38665008544922,76.92787170410156
2178,-12.960623741149902,26.9141902923584,45.60620880126953,76.90917205810547
2179,-21.607271194458008,18.15908432006836,42.3188362121582,70.95525360107422
2180,-16.981016159057614,9.40397834777832,52.5138053894043,90.35784912109376
2181,-11.386125564575195,13.345832824707033,65.48004150390625,97.84139251708984
2182,-14.493982315063475,10.653104782104492,62.46941757202149,95.60867309570312
2183,-26.61873817443848,0.8059484362602234,46.99371337890625,92.91594696044922
2184,-26.282146453857425,-4.6505656242370605,57.73470687866211,86.84982299804688
2185,-15.720669746398926,-6.460677146911621,64.35807037353516,87.48934936523438
2186,-17.216629028320312,10.234235763549805,58.09747695922852,86.27388000488281
2187,-26.188650131225586,-4.792681694030762,39.08382415771485,63.60634994506836
2188,-24.62163162231445,-0.4469180405139923,48.328857421875,72.32405853271484
2189,-9.03372859954834,16.760360717773438,59.2979850769043,66.76656341552734
2190,-21.6259708404541,9.46381664276123,51.18239974975586,63.77090454101562
2191,-20.283348083496094,21.618492126464844,50.50547790527344,76.56510162353516
2192,-29.09455108642578,15.339200019836426,47.00867080688477,78.341552734375
2193,-27.516313552856445,18.34233856201172,53.64325332641602,85.59322357177734
2194,-34.61464309692383,14.980169296264648,39.34935760498047,88.96661376953125
2195,-40.841575622558594,13.416891098022461,29.78643226623535,89.83052825927734
2196,-44.854488372802734,11.617999076843262,32.64745712280273,84.56475067138672
2197,-41.83264923095703,28.69438171386719,34.16959762573242,87.40707397460938
2198,-46.20833206176758,22.57590675354004,25.347171783447266,91.03477478027344
2199,-61.17167282104492,17.84867286682129,12.98680305480957,77.09990692138672
2200,-56.72867202758789,15.817907333374025,26.56637954711914,81.92063903808594
2201,-43.17153549194336,19.40821075439453,41.83639144897461,84.3814926147461
2202,-37.58412551879883,21.83914566040039,42.16550064086914,74.62409210205078
2203,-30.80368614196777,21.749387741088867,54.4435920715332,77.63097381591797
2204,-19.744802474975586,24.30373954772949,69.0628662109375,76.43794250488281
2205,-8.147372245788574,23.45104217529297,83.88782501220703,80.35736083984375
2206,-10.331473350524902,28.67942237854004,81.14647674560547,86.15046691894531
2207,-16.154497146606445,17.33256721496582,67.91097259521484,79.03343200683594
2208,-17.880460739135742,7.7079339027404785,68.7169189453125,72.75414276123047
2209,-12.913874626159668,3.190134763717652,71.01322174072266,73.681640625
2210,-17.199800491333008,8.078184127807617,63.90740966796875,79.47100067138672
2211,-27.8472957611084,-12.05369758605957,45.48466491699219,71.42647552490234
2212,-25.64823341369629,-5.852943420410156,48.1998291015625,82.1749496459961
2213,-24.96383285522461,2.96574068069458,52.99438095092773,78.40887451171875
2214,-22.065410614013672,0.36277028918266296,44.512290954589844,80.46955871582031
2215,-30.584901809692386,1.974667191505432,37.78421020507813,67.11063385009766
2216,-22.63013458251953,9.151535034179688,52.03696823120117,65.83158874511719
2217,-8.740146636962889,26.867441177368164,58.27138137817383,71.20956420898438
2218,-15.49814510345459,20.6816463470459,34.65765380859375,64.70587921142578
2219,-19.45121955871582,31.332881927490234,36.770694732666016,72.93366241455078
2220,-27.978191375732425,34.197647094726555,40.742469787597656,73.19171142578125
2221,-23.27339744567871,33.51324462890625,47.53038787841797,89.25458526611328
2222,-27.34240913391113,48.83935165405274,51.56574249267578,85.04719543457031
2223,-38.16941833496094,39.22032928466797,44.343994140625,76.19485473632812
2224,-42.80315399169922,21.362308502197266,46.75996780395508,82.04031372070312
2225,-32.712905883789055,28.17640686035156,57.826332092285156,96.86154174804688
2226,-29.930419921875,28.09786796569824,49.38163757324219,89.49767303466797
2227,-39.72895812988281,26.20547866821289,41.060359954833984,84.3814926147461
2228,-30.936452865600586,22.660053253173828,49.34798049926758,85.71289825439453
2229,-30.970111846923828,19.122108459472656,49.37416076660156,71.48257446289062
2230,-28.210065841674805,26.287755966186523,50.76166152954102,77.0550308227539
2231,-26.84874153137207,27.495744705200195,55.38043975830078,79.0409164428711
2232,-20.898561477661133,21.59418296813965,64.31880187988281,83.02017211914062
2233,-19.368942260742188,19.223085403442386,65.96061706542969,77.50007629394531
2234,-13.474859237670898,21.620361328125,60.78085327148438,74.72132873535156
2235,-17.349395751953125,15.793597221374512,51.6218376159668,66.91989898681639
2236,-20.154321670532227,13.048510551452635,54.12009048461914,58.32186889648438
2237,-14.843663215637207,12.842816352844238,53.80220031738281,65.93630981445311
2238,-15.273751258850098,5.826764106750487,43.34170150756836,69.5677490234375
2239,-16.878168106079098,10.049111366271973,37.5298957824707,77.01763153076172
2240,-19.462438583374023,-0.8788765072822571,39.0445556640625,83.91400146484375
2241,-17.753305435180664,22.282323837280273,41.31841659545898,72.81024169921875
2242,-22.233705520629886,30.63352012634277,42.76201629638672,83.04634857177734
2243,-24.01015853881836,20.15058135986328,41.01922225952149,80.30500030517578
2244,-25.255544662475586,27.60420227050781,50.615806579589844,79.01099395751953
2245,-15.419607162475586,27.55184364318848,60.27596664428711,90.1259765625
2246,-14.93716049194336,22.304763793945312,59.69628143310547,86.03079223632812
2247,-24.75813865661621,21.95321273803711,51.69663619995117,77.75438690185547
2248,-20.99953842163086,16.885648727416992,53.97797775268555,89.31068420410156
2249,-16.571496963500973,24.82171630859375,57.6430778503418,92.48211669921876
2250,-15.673920631408693,25.483678817749023,56.31541442871094,92.65789031982422
2251,-29.515291213989254,10.640015602111816,38.65560531616211,81.46810913085938
2252,-23.94657897949219,12.135974884033205,48.27836990356445,81.75982666015625
2253,-13.32526397705078,28.830888748168945,54.89051055908203,67.81373596191406
2254,-16.36954116821289,17.506471633911133,45.96710968017578,51.70598602294922
2255,-22.24118423461914,20.958398818969727,40.41336059570313,53.93496704101562
2256,-21.489465713500977,19.249265670776367,42.01403427124024,48.328857421875
2257,-13.41128158569336,32.563308715820305,54.542701721191406,61.02581787109375
2258,-18.845355987548828,30.038875579833984,48.72715759277344,61.66160202026367
2259,-33.03079605102539,22.63013458251953,32.630626678466804,68.90952301025389
2260,-36.81931686401367,20.89108085632324,46.37849807739258,75.9068832397461
2261,-32.37631225585937,23.88300132751465,54.61001968383789,96.25941467285156
2262,-31.770450592041016,36.714599609375,48.05771255493164,100.83331298828124
2263,-37.75429153442383,23.1350212097168,42.137451171875,101.27835845947266
2264,-38.03852081298828,19.26422500610352,41.10150146484375,103.76539611816406
2265,-20.255298614501953,32.36883544921875,56.8203010559082,104.70037078857422
2266,-20.909780502319336,19.170726776123047,51.63306045532226,101.97024536132812
2267,-18.190874099731445,10.9130277633667,45.89605331420898,93.72376251220705
2268,-17.166141510009766,2.7301268577575684,48.21105194091797,69.29099273681639
2269,-5.49017333984375,11.844263076782227,62.99113464355469,69.50417327880861
2270,-6.342870235443115,13.785271644592285,48.65609741210938,68.11293029785156
2271,-14.3051176071167,23.355674743652344,42.477783203125,62.23380661010742
2272,-13.45989990234375,22.24118423461914,53.61146545410156,68.49066162109375
2273,-6.660761833190918,28.63641357421875,61.0875244140625,73.13561248779297
2274,-5.9389610290527335,22.775991439819336,61.32313919067383,82.22357177734375
2275,-14.11438274383545,21.702638626098636,50.16701889038086,72.02112579345703
2276,-20.995798110961914,16.27230453491211,48.921630859375,78.29667663574219
2277,-12.162154197692873,2.1242632865905757,43.371620178222656,84.55352783203125
2278,-10.20618724822998,0.3814697861671448,42.04769515991211,87.18641662597656
2279,-10.879368782043457,6.533605098724365,34.65765380859375,88.72725677490234
2280,-18.142253875732425,-7.1394691467285165,36.63605880737305,82.91545104980469
2281,-6.140915870666504,8.007125854492188,52.3436393737793,94.1800308227539
2282,-19.469919204711914,9.705039978027344,41.41939163208008,91.18063354492188
2283,-24.832935333251953,9.963093757629396,39.14553451538086,96.59974670410156
2284,-27.70517921447754,8.844862937927246,46.7038688659668,84.27303314208984
2285,-19.454959869384766,9.413328170776367,59.83465957641602,84.50116729736328
2286,-30.88409423828125,19.5372371673584,48.06145477294922,77.54495239257812
2287,-27.42094612121582,18.16469383239746,43.11356735229492,82.10763549804688
2288,-29.59756851196289,13.32526397705078,40.42457962036133,73.54326629638672
2289,-19.7130126953125,22.89192771911621,47.73982238769531,72.2604751586914
2290,-17.454113006591793,17.521430969238278,39.35870742797852,72.92243957519531
2291,-16.997844696044922,20.71530532836914,40.77613067626953,74.94198608398438
2292,-16.317184448242188,11.45905303955078,43.23698425292969,65.05368804931639
2293,-6.15961503982544,19.589595794677734,51.71159744262695,75.630126953125
2294,-7.77899169921875,25.42009925842285,47.63884735107422,83.77188873291016
2295,-22.420700073242188,21.321168899536133,36.47150421142578,85.5894775390625
2296,-20.438552856445312,17.480293273925778,42.17859268188477,84.49742889404297
2297,-15.849696159362793,13.373882293701172,50.76166152954102,93.64148712158205
2298,-16.552797317504886,21.122955322265625,48.330726623535156,96.01258087158205
2299,-27.701438903808594,12.094836235046387,39.979530334472656,91.4461669921875
2300,-23.879261016845703,10.711073875427246,51.9434700012207,88.858154296875
2301,-19.095930099487305,20.97709846496582,61.558753967285156,88.90676879882812
2302,-19.68683242797852,28.782270431518555,54.10139465332031,86.17290496826172
2303,-23.755844116210934,16.593936920166016,45.39490509033203,79.95719146728516
2304,-25.543516159057614,9.173974990844727,48.66731643676758,78.6407470703125
2305,-13.78153133392334,22.862009048461914,57.25786972045898,83.39415740966797
2306,-14.039584159851074,29.96781921386719,59.32977294921875,88.15131378173828
2307,-25.891326904296875,9.865856170654297,44.87879943847656,76.82315826416016
2308,-31.617115020751953,15.658961296081545,48.218528747558594,76.07891845703125
2309,-23.3107967376709,19.948625564575195,59.96555709838867,86.31876373291016
2310,-22.43191909790039,12.951273918151855,50.73922348022461,87.23877716064453
2311,-28.733652114868164,13.108349800109865,38.057220458984375,72.96357727050781
2312,-19.533496856689453,11.2944974899292,49.21334457397461,86.63665008544922
2313,-14.391135215759276,17.446632385253903,56.408912658691406,92.68032836914062
2314,-15.12789535522461,22.222484588623047,48.19609069824219,88.58514404296875
2315,-23.228519439697266,15.139115333557127,37.387779235839844,79.49344635009766
2316,-26.07458305358887,7.745332717895508,47.25363540649414,76.44542694091797
2317,-16.332143783569336,15.5579833984375,60.66117858886719,81.53543090820312
2318,-19.746671676635746,25.2293643951416,52.24640274047852,81.8346176147461
2319,-28.2287654876709,18.983732223510746,45.35376739501953,89.29198455810547
2320,-23.093881607055664,12.341670036315918,55.7469482421875,81.01557922363281
2321,-19.051050186157227,19.600814819335934,64.15050506591797,83.00521087646484
2322,-13.112089157104492,22.211265563964844,60.34702682495117,93.93693542480469
2323,-23.127540588378906,15.370988845825195,42.62363815307617,66.97225952148439
2324,-17.001585006713867,20.07204246520996,54.5501823425293,79.96466827392578
2325,-13.164447784423828,21.115474700927734,64.10562133789061,79.77393341064453
2326,-12.308011054992676,28.32600212097168,56.94745635986328,78.599609375
2327,-18.430227279663086,20.311397552490234,49.00764846801758,82.90423583984375
2328,-28.97674560546875,18.269411087036133,48.55512237548828,78.9212417602539
2329,-24.53000450134277,19.5372371673584,60.63125991821289,83.22586059570312
2330,-23.995197296142575,18.198352813720703,53.057960510253906,88.95539093017578
2331,-32.200538635253906,25.75295066833496,53.87326049804688,94.80459594726562
2332,-32.91859817504883,18.445186614990234,56.03118133544922,90.8702163696289
2333,-19.780330657958984,24.6309814453125,68.26813507080078,98.53701782226562
2334,-25.86888885498047,34.489356994628906,61.17354202270508,86.34120178222656
2335,-27.37232780456543,12.483785629272461,49.80050659179688,87.99797821044922
2336,-25.32286262512207,1.518399357795715,51.66297912597656,82.21234893798828
2337,-20.73774528503418,15.288710594177244,53.66382598876953,76.55387878417969
2338,-18.463886260986328,16.062870025634766,47.02176284790039,68.65147399902344
2339,-22.809650421142575,18.071197509765625,36.40044784545898,67.33876800537111
2340,-24.960092544555664,15.210172653198242,42.735836029052734,68.64399719238281
2341,-28.28486251831055,7.464840412139893,41.66622543334961,69.9903564453125
2342,-26.89735984802246,11.919060707092285,41.92053985595703,72.5147933959961
2343,-35.92921829223633,17.850542068481445,29.021623611450195,70.05767822265625
2344,-30.89157295227051,26.052143096923828,42.70965576171875,78.30789184570312
2345,-22.82460975646973,28.337221145629886,56.29671478271485,83.599853515625
2346,-24.354228973388672,17.517690658569336,48.11381149291992,82.02909851074219
2347,-26.463531494140625,20.184240341186523,51.1393928527832,79.01473999023438
2348,-26.17930030822754,26.90484046936035,57.96844863891602,85.70915985107422
2349,-19.271703720092773,13.45989990234375,64.45343780517578,87.68008422851562
2350,-17.255897521972653,11.806863784790039,57.2204704284668,92.49333953857422
2351,-29.305856704711914,20.6405086517334,49.86408615112305,85.4024887084961
2352,-28.281124114990234,11.432873725891113,51.45728302001953,81.30355834960938
2353,-20.273998260498047,18.220792770385746,57.31022644042969,80.91834259033203
2354,-23.5277099609375,16.930526733398438,50.72052383422852,78.2368392944336
2355,-28.88324737548828,8.575590133666992,46.53183364868164,85.06963348388672
2356,-27.82485580444336,12.057437896728516,49.86408615112305,67.74267578125
2357,-16.567756652832028,17.570049285888672,62.84901809692383,74.15660858154297
2358,-20.6816463470459,22.731111526489254,55.77312850952149,72.97480010986328
2359,-17.181100845336914,12.984932899475098,51.98834991455078,78.27423858642578
2360,-18.635921478271484,17.78322410583496,56.06110000610352,73.61805725097656
2361,-10.004232406616213,14.189180374145508,63.98968887329102,70.93281555175781
2362,-12.622162818908693,16.904348373413086,58.10682678222656,81.78600311279297
2363,-24.16723442077637,16.15262794494629,47.34713363647461,82.17121124267578
2364,-22.65257453918457,5.703347206115723,55.25328063964844,82.29463195800781
2365,-19.91122817993164,11.45905303955078,62.12347793579102,91.58080291748048
2366,-24.911474227905273,13.370141983032227,54.87929153442383,90.03622436523438
2367,-29.672367095947266,9.525525093078613,49.40407943725586,93.7536849975586
2368,-30.55872344970703,7.8687496185302725,56.92501831054688,86.03453063964844
2369,-16.63881492614746,15.314889907836914,68.96001434326172,87.13031768798828
2370,-23.74462509155273,17.525171279907227,65.81849670410156,82.74341583251953
2371,-30.8990535736084,18.538684844970703,53.0056037902832,76.02281951904297
2372,-32.05468368530273,6.829057216644287,57.86747360229492,78.65570831298828
2373,-17.368095397949222,16.133928298950195,67.45283508300781,76.30330657958984
2374,-17.289558410644528,25.33034324645996,65.01441955566406,73.49838256835938
2375,-30.005216598510746,15.154074668884276,51.85745239257813,72.75414276123047
2376,-28.774789810180664,12.96249294281006,62.70690155029297,79.07083129882812
2377,-20.59562873840332,21.09677505493164,62.79666137695313,75.9928970336914
2378,-18.347949981689453,24.58984184265137,63.89992904663086,85.64932250976562
2379,-27.20403289794922,17.929080963134766,51.01223373413086,81.12777709960938
2380,-25.14708709716797,11.61238956451416,54.733436584472656,80.40223693847656
2381,-16.51165771484375,8.650388717651367,62.33291244506836,85.64183807373047
2382,-17.689725875854492,11.642308235168455,51.98834991455078,91.52096557617188
2383,-22.675012588500977,8.388595581054688,45.05831527709961,83.9177474975586
2384,-18.897714614868164,12.487525939941404,56.92875671386719,83.33805847167969
2385,-16.092788696289062,11.642308235168455,59.54668807983398,84.97613525390625
2386,-18.800477981567386,18.486326217651367,60.16376876831055,90.9263153076172
2387,-19.81772994995117,17.87672233581543,52.97568130493164,78.85391998291016
2388,-24.00641822814941,8.059484481811522,55.66841125488281,72.19316101074219
2389,-16.234905242919922,21.280031204223636,63.56333923339844,69.61637115478516
2390,-17.83184242248535,26.00352478027344,60.69109725952149,75.89192199707031
2391,-28.38957977294922,12.285571098327635,46.12418746948242,66.86380004882811
2392,-30.37172698974609,14.791304588317873,49.894004821777344,76.69599914550781
2393,-23.3519344329834,16.668733596801758,51.99583053588867,70.4728012084961
2394,-18.246971130371094,25.79783058166504,54.45294189453125,75.15889739990234
2395,-30.569942474365234,12.883955001831055,44.35895156860352,68.69261169433594
2396,-24.51504325866699,18.92763328552246,55.02140808105469,72.35023498535156
2397,-21.18279266357422,17.932819366455078,61.24834060668945,74.37351989746094
2398,-15.206433296203613,14.394874572753904,61.106224060058594,87.7324447631836
2399,-31.198246002197266,17.801923751831055,45.02839660644531,78.9810791015625
2400,-22.95550537109375,19.122108459472656,50.39889144897461,76.81193542480469
2401,-16.777191162109375,20.195459365844727,62.213233947753906,84.32539367675781
2402,-14.237798690795898,21.601661682128906,57.84877395629883,89.97637939453125
2403,-24.118614196777344,29.799522399902344,57.19802856445313,89.42662048339844
2404,-28.872028350830078,23.71844482421875,60.33580780029297,76.99893188476562
2405,-20.389934539794922,19.7429313659668,65.60532379150389,71.14598846435547
2406,-17.001585006713867,27.25265121459961,63.86252975463867,65.55484008789061
2407,-19.58211708068848,21.474506378173828,53.19259643554688,58.42658615112305
2408,-21.897113800048828,22.768510818481445,57.47104263305664,59.23066711425781
2409,-18.62283134460449,30.40912628173828,61.156715393066406,67.53697967529297
2410,-19.09779930114746,27.64533996582031,51.85932159423828,83.33058166503906
2411,-29.240407943725586,21.76995849609375,37.24379348754883,68.49066162109375
2412,-34.846519470214844,14.155521392822266,38.18624877929688,70.57752227783203
2413,-27.546232223510746,14.974559783935547,45.75580596923828,79.97962951660156
2414,-19.33341217041016,18.579822540283203,48.85618209838867,83.02764892578125
2415,-26.38312339782715,12.794198036193848,36.72394943237305,80.06938934326172
2416,-22.59086608886719,7.68175458908081,37.31111145019531,78.04610443115234
2417,-20.02529525756836,26.852481842041016,53.5983772277832,73.38618469238281
2418,-21.67832946777344,28.58779525756836,52.36420822143555,76.64737701416016
2419,-32.38192367553711,23.434213638305664,48.02966690063477,75.00556182861328
2420,-35.39628219604492,19.83268928527832,50.50173950195313,68.24008178710939
2421,-22.18695640563965,30.985071182250977,67.61552429199219,72.08096313476562
2422,-25.481807708740234,30.57742118835449,58.68838119506836,71.48257446289062
2423,-29.73781394958496,26.097021102905273,52.99251174926758,73.52830505371094
2424,-31.114097595214844,14.892281532287598,47.03859329223633,72.8588638305664
2425,-21.491334915161133,17.86176300048828,61.30630874633789,67.17795562744139
2426,-18.338600158691406,22.65631484985352,57.30835723876953,62.23754501342773
2427,-16.169458389282227,19.492359161376953,48.62057113647461,58.88659286499024
2428,-22.81151962280273,24.15601348876953,51.49281311035156,61.51948547363281
2429,-21.928903579711914,25.93246650695801,58.1460952758789,67.48462677001953
2430,-16.06100082397461,32.181838989257805,53.86764907836914,74.609130859375
2431,-26.62621688842773,18.58356285095215,41.196868896484375,71.11980438232422
2432,-25.27237319946289,11.23091983795166,50.69247436523438,77.9002456665039
2433,-15.58603286743164,14.824963569641113,63.34455490112305,83.14358520507812
2434,-23.0994930267334,15.658961296081545,55.65158081054688,75.46183013916016
2435,-30.15668296813965,12.180853843688965,45.23595809936523,69.33587646484375
2436,-24.322439193725586,15.59164333343506,53.77789306640625,79.95719146728516
2437,-18.12542533874512,22.89566802978516,56.92314910888672,70.57378387451172
2438,-17.736474990844727,26.78890419006348,58.5350456237793,79.71035766601562
2439,-26.054012298583984,16.754751205444336,47.84267044067383,75.68248748779297
2440,-26.40182304382324,9.1814546585083,56.33224487304688,80.09556579589844
2441,-18.36103820800781,11.58994960784912,66.98722076416016,73.13187408447266
2442,-20.627418518066406,19.963586807250977,63.26227951049805,78.83522033691406
2443,-29.32268524169922,23.497791290283203,57.4429931640625,80.94078826904297
2444,-36.14052200317383,20.232858657836914,59.47749710083008,77.2195816040039
2445,-21.951343536376953,16.141408920288086,65.50621795654297,72.12210083007812
2446,-22.130857467651367,26.931018829345703,61.007118225097656,70.73833465576172
2447,-29.864971160888672,19.305362701416016,44.41318130493164,63.35203552246094
2448,-26.35320472717285,10.303424835205078,48.83374404907226,61.01085662841797
2449,-13.484209060668945,22.615175247192386,58.58740234375,65.89891052246094
2450,-16.206855773925778,15.296191215515135,49.151634216308594,59.52611923217773
2451,-24.13918495178223,9.488125801086426,43.94569396972656,64.60490417480469
2452,-22.344032287597656,10.90928840637207,53.98358535766602,79.0446548461914
2453,-21.689550399780273,7.360123157501222,56.23126602172852,67.30136871337889
2454,-19.576505661010746,5.950181007385254,51.0103645324707,74.29498291015625
2455,-27.35923767089844,14.738945960998535,43.16779708862305,76.02655792236328
2456,-28.73552131652832,18.175912857055664,52.24827194213867,75.79842376708984
2457,-20.975229263305664,11.619869232177734,61.92339324951172,75.46931457519531
2458,-19.67374420166016,18.127294540405273,54.20798110961914,79.00725555419922
2459,-27.157283782958984,19.312843322753906,45.34441757202149,79.75897979736328
2460,-22.94241714477539,24.05877685546875,60.85004043579102,76.53892517089844
2461,-25.848318099975586,28.0529899597168,66.10086059570311,68.85717010498047
2462,-22.639484405517575,33.210311889648445,65.40149688720703,74.63157653808594
2463,-24.647809982299805,16.728572845458984,59.45132064819336,76.48656463623047
2464,-29.53211975097656,19.38764190673828,63.1650390625,74.85222625732422
2465,-22.53102684020996,22.60395622253418,73.4647216796875,66.42623138427734
2466,-27.22834205627441,33.07567596435547,62.55169677734375,70.49150085449219
2467,-30.81116485595703,20.797584533691406,47.11338806152344,72.1781997680664
2468,-33.59739303588867,15.505624771118164,45.37059783935547,60.8463020324707
2469,-19.72610282897949,24.18219375610352,58.89033508300781,67.85113525390625
2470,-20.18610954284668,14.907240867614744,50.52417755126953,66.02606201171875
2471,-26.55142021179199,15.0680570602417,44.43562316894531,68.11293029785156
2472,-37.415828704833984,9.383408546447754,45.50149154663086,67.59682464599611
2473,-28.75796127319336,20.46847152709961,55.21775436401367,78.67814636230469
2474,-22.27671432495117,10.239846229553224,49.34984970092773,81.3746109008789
2475,-31.877037048339844,18.396568298339844,41.9373664855957,79.99085235595703
2476,-24.43837547302246,17.35313606262207,52.21087265014648,74.43335723876953
2477,-14.52764129638672,18.87901496887207,63.55398941040039,70.45036315917969
2478,-15.57481288909912,31.804109573364254,53.60211563110352,71.1123275756836
2479,-30.676528930664066,21.95695304870605,51.04402542114258,69.53408813476561
2480,-26.85061264038086,15.176513671875,52.64470291137695,68.02690887451172
2481,-16.663124084472653,16.276044845581055,65.16588592529297,73.77513885498047
2482,-17.601839065551758,18.97625160217285,58.70333862304688,68.68513488769531
2483,-30.31001853942871,26.366294860839844,44.08781051635742,66.17192077636719
2484,-33.61983108520508,20.09074211120605,50.66255569458008,65.23694610595703
2485,-22.36273193359375,20.692867279052734,59.33538436889648,77.52251434326172
2486,-25.88945770263672,24.17845344543457,43.575443267822266,76.39680480957031
2487,-30.19408226013184,22.0317497253418,44.22618865966797,82.68731689453125
2488,-38.833251953125,19.170726776123047,38.88935089111328,75.9106216430664
2489,-32.00419235229492,13.863809585571287,41.98598861694336,78.99229431152344
2490,-30.74384689331055,35.81702041625977,45.407997131347656,73.16553497314453
2491,-39.70090866088867,9.895774841308594,35.77401351928711,71.05622863769531
2492,-36.84362411499024,11.6759672164917,46.88525390625,84.37775421142578
2493,-30.36237716674805,27.48452568054199,55.39352798461914,73.52082061767578
2494,-29.98090744018555,19.96732521057129,52.41656875610352,75.78346252441406
2495,-26.17742919921875,15.105456352233887,49.58920288085938,78.88758087158203
2496,-24.430896759033203,19.90748786926269,55.68524169921875,70.28955078125
2497,-29.22544860839844,19.185686111450195,57.95909881591797,64.42912292480469
2498,-23.716575622558594,23.98397827148437,47.625755310058594,71.13102722167969
2499,-33.548770904541016,22.2075252532959,44.30098342895508,73.80131530761719
2500,-33.96390151977539,23.15372085571289,52.13607406616211,68.97684478759766
2501,-21.97378158569336,32.05468368530273,65.61841583251953,73.98082733154297
2502,-15.249442100524902,35.155059814453125,60.51719284057617,66.42996978759766
2503,-26.54767990112305,27.26012992858887,51.97151947021485,66.16069793701172
2504,-35.79645156860352,20.6816463470459,46.95257568359375,62.31608200073242
2505,-23.98958778381348,19.44373893737793,52.89153671264648,68.07926940917969
2506,-26.94784927368164,29.94911956787109,48.23162078857422,64.04017639160156
2507,-39.71212768554688,22.237445831298828,30.33619880676269,60.83882141113281
2508,-38.71731567382813,27.723878860473636,43.26877212524414,73.47220611572266
2509,-37.31485366821289,26.76272392272949,49.1030158996582,77.14104461669922
2510,-29.614397048950195,27.574281692504886,48.83374404907226,81.77104187011719
2511,-38.30218505859375,15.296191215515135,35.37758255004883,78.84269714355469
2512,-34.566024780273445,20.625547409057614,44.45431900024414,81.33721160888672
2513,-24.23642158508301,23.48283195495605,55.80865859985352,85.35760498046875
2514,-28.21193504333496,21.92329406738281,52.01639938354492,83.46895599365234
2515,-39.15114212036133,9.981793403625488,34.02000045776367,68.21390533447266
2516,-32.793312072753906,11.747025489807127,43.39592742919922,77.8778076171875
2517,-21.764347076416016,13.231765747070312,54.0209846496582,82.0515365600586
2518,-21.970043182373047,14.873581886291506,53.2356071472168,65.12100982666016
2519,-28.660722732543945,12.177114486694336,39.52513122558594,58.44528579711914
2520,-28.002500534057614,13.740392684936525,47.43876266479492,58.52382278442383
2521,-17.893550872802734,21.467025756835934,58.1460952758789,55.94329452514648
2522,-27.68461036682129,19.23804473876953,47.30412292480469,51.80322265625
2523,-33.230880737304695,23.800724029541016,44.00179290771485,58.35178756713867
2524,-28.944955825805664,16.291004180908207,44.60017776489258,62.36844253540039
2525,-25.04424095153809,28.19136619567871,51.96778106689453,67.12933349609375
2526,-31.78354072570801,21.92703437805176,41.9149284362793,62.99674606323242
2527,-36.43597412109375,15.453266143798828,31.96679496765137,67.85487365722656
2528,-35.227989196777344,16.16010856628418,41.9560661315918,77.97504425048828
2529,-27.69208908081055,12.117276191711426,48.27275848388672,74.0818099975586
2530,-30.86726379394531,11.720846176147461,46.26069259643555,86.78998565673828
2531,-41.20808792114258,11.324417114257812,37.16899490356445,71.8752670288086
2532,-33.634788513183594,24.960092544555664,49.38351058959961,85.35760498046875
2533,-26.05775260925293,24.00267791748047,59.72433090209961,80.04695129394531
2534,-23.71283531188965,16.186286926269528,53.78911209106445,80.27508544921875
2535,-30.20530128479004,14.432273864746096,45.77824401855469,83.03138732910156
2536,-30.81116485595703,11.447834014892578,45.83434295654297,71.9164047241211
2537,-25.94181632995605,20.734004974365234,52.58860397338867,69.58644866943361
2538,-18.499414443969727,22.29354286193848,48.25405883789063,71.66209411621094
2539,-26.73093414306641,19.36520195007324,39.6672477722168,63.22861862182617
2540,-28.26055335998535,22.876968383789066,44.77221298217773,56.27240371704102
2541,-26.394344329833984,22.850788116455078,49.76871871948242,52.1323356628418
2542,-27.03386688232422,27.196552276611328,47.10964965820313,60.30775833129883
2543,-43.98683166503906,16.765972137451172,33.32811737060547,46.24199295043945
2544,-39.15114212036133,25.307903289794922,41.17816925048828,42.47591400146485
2545,-30.84108543395996,25.35652160644531,49.454566955566406,60.73036575317383
2546,-34.397727966308594,24.55244255065918,45.61742782592773,61.14923477172852
2547,-41.148250579833984,25.27424430847168,37.26623153686523,66.22428131103516
2548,-34.491226196289055,22.90688705444336,46.45516586303711,72.75788116455078
2549,-28.81405830383301,21.822317123413086,51.97900009155274,87.44072723388672
2550,-32.37444305419922,26.76272392272949,41.73915481567383,77.80674743652344
2551,-49.00577926635742,16.507919311523438,27.026386260986328,70.36808776855469
2552,-34.558544158935554,19.948625564575195,51.87802124023438,94.34458923339844
2553,-29.56951904296875,17.293296813964847,56.298583984375,87.57910919189453
2554,-31.368410110473636,17.858022689819336,45.51645278930664,85.97843170166016
2555,-34.704402923583984,18.063716888427734,38.15633010864258,91.86128997802734
2556,-36.04702758789063,2.6852481365203857,40.88271713256836,86.06070709228516
2557,-23.421123504638672,15.217653274536133,54.33513641357422,78.11715698242188
2558,-26.86557197570801,14.93716049194336,46.88899612426758,69.35083770751953
2559,-34.19951629638672,16.706132888793945,41.45866012573242,67.09941864013672
2560,-31.64142417907715,16.410680770874027,48.2989387512207,64.47026824951172
2561,-22.77786064147949,21.81109619140625,59.44757843017578,66.16443634033203
2562,-26.22978782653809,16.35084342956543,51.99021911621094,67.00592041015625
2563,-41.66435623168945,16.934267044067386,44.959205627441406,62.0094108581543
2564,-33.48893356323242,25.023670196533203,47.315345764160156,62.67885208129883
2565,-35.747833251953125,29.122600555419922,58.1460952758789,65.16962432861328
2566,-26.42800331115723,35.75344467163086,59.66823196411133,71.8341293334961
2567,-39.21097946166992,29.53399085998535,44.81335067749024,70.712158203125
2568,-41.52972030639648,23.48283195495605,51.09264373779297,80.53687286376953
2569,-28.85519790649414,21.504425048828125,65.94004821777344,79.0035171508789
2570,-25.893198013305664,22.75729179382324,63.5352897644043,84.96492004394531
2571,-32.64371490478516,12.928833961486815,49.78741836547852,76.98770904541016
2572,-32.213626861572266,14.821223258972168,53.51983642578125,83.56245422363281
2573,-27.05256652832031,5.505132675170898,60.73410415649414,79.90109252929688
2574,-18.439577102661133,23.82690238952637,66.25419616699219,88.18871307373047
2575,-26.18490982055664,14.204139709472654,52.89901351928711,79.01099395751953
2576,-30.09310531616211,7.865009784698486,55.57304382324219,72.84390258789062
2577,-21.947603225708008,18.9500732421875,68.78237152099611,74.9270248413086
2578,-23.37624549865723,16.51913833618164,59.140907287597656,69.37701416015625
2579,-28.78413963317871,10.501639366149902,49.342369079589844,67.22657012939453
2580,-23.686656951904297,20.91352081298828,58.80431747436523,70.56629943847656
2581,-24.109264373779297,12.412728309631348,66.47859191894531,64.18229675292969
2582,-20.275867462158203,23.16493988037109,62.910728454589844,63.26975631713867
2583,-32.49037933349609,22.480539321899414,44.83953094482422,53.33284378051758
2584,-32.258506774902344,11.836783409118652,45.52393341064453,53.84521102905274
2585,-25.792219161987305,18.92763328552246,60.4423942565918,72.65690612792969
2586,-25.62392425537109,22.70867347717285,54.89237976074219,75.19255828857422
2587,-35.43368148803711,21.53060340881348,42.01216506958008,77.84414672851562
2588,-32.22110748291016,13.145748138427734,49.39098739624024,86.76380920410156
2589,-28.93747520446777,13.538437843322756,52.52128601074219,90.48126983642578
2590,-22.119638442993164,14.062024116516113,53.6282958984375,97.24301147460938
2591,-35.931087493896484,9.3871488571167,38.87065124511719,88.0540771484375
2592,-34.031219482421875,12.498745918273926,49.72010040283203,91.2666473388672
2593,-24.86098480224609,12.902654647827148,54.219200134277344,94.14263153076172
2594,-16.966056823730472,19.14454841613769,57.27843856811523,89.64727020263672
2595,-31.944355010986328,14.660408020019533,46.36914825439453,87.05925750732422
2596,-30.00708770751953,10.049111366271973,50.07913208007813,74.91954803466797
2597,-18.226402282714844,7.386302471160889,62.44324111938477,81.31851196289062
2598,-16.565887451171875,8.770065307617188,57.77958297729492,69.9903564453125
2599,-18.162824630737305,13.646895408630373,48.95716094970703,63.76716232299805
2600,-18.592912673950195,11.765725135803224,54.38375473022461,64.37303161621094
2601,-17.915990829467773,21.093036651611328,67.43226623535156,62.43949890136719
2602,-18.61161231994629,25.70807266235352,62.99674606323242,63.41187286376953
2603,-23.933488845825195,24.21585273742676,54.55578994750977,70.13621520996094
2604,-34.61838531494141,16.17880630493164,49.51066589355469,62.76861190795898
2605,-24.2551212310791,30.89531326293945,68.3822021484375,70.85053253173828
2606,-27.886564254760746,21.624101638793945,66.11208343505861,86.43470001220703
2607,-35.94978713989258,16.885648727416992,53.23934555053711,90.3241958618164
2608,-41.38386154174805,11.952720642089846,50.81962966918945,87.0330810546875
2609,-31.66012382507324,14.065763473510742,64.75450134277344,89.0040054321289
2610,-29.43488311767578,12.15280532836914,59.1689567565918,88.1363525390625
2611,-38.41438293457031,10.365132331848145,45.58190155029297,86.94706726074219
2612,-33.462753295898445,2.238330125808716,55.58613204956055,83.67839050292969
2613,-23.787633895874023,6.344740390777588,58.10682678222656,77.99374389648438
2614,-21.483856201171875,7.298414707183838,52.96446228027344,80.00955200195312
2615,-28.34657096862793,1.7409234046936035,40.83222961425781,73.52456665039062
2616,-25.059200286865234,1.4529510736465454,45.15555191040039,75.83956146240234
2617,-18.09550666809082,13.824540138244627,63.51845932006836,78.33033752441406
2618,-17.579399108886722,10.641885757446287,53.016822814941406,60.61816787719727
2619,-20.91539001464844,13.55152702331543,52.526893615722656,65.60719299316406
2620,-24.74504852294922,11.438484191894533,59.67758178710938,59.22692489624024
2621,-20.806934356689453,19.767240524291992,64.23651885986328,62.66015243530274
2622,-22.373950958251953,26.10263252258301,59.17269897460938,69.03294372558594
2623,-33.66844940185547,25.7697811126709,53.07666015625,70.9926528930664
2624,-40.433929443359375,21.46515655517578,52.72137069702149,82.79203796386719
2625,-41.05475234985352,19.284793853759766,58.8099250793457,75.25613403320312
2626,-32.99526596069336,25.78848075866699,52.32120132446289,81.15769958496094
2627,-33.29819869995117,20.04399299621582,44.85261917114258,87.92317962646484
2628,-31.97053527832031,11.44970417022705,45.63800048828125,87.6127700805664
2629,-27.808025360107425,7.956637382507324,53.1177978515625,92.54943084716795
2630,-16.61076545715332,10.862539291381836,55.85540771484375,92.3736572265625
2631,-16.431249618530273,7.91549825668335,50.12961959838867,90.37654876708984
2632,-21.13978385925293,1.060261607170105,48.4990234375,85.49597930908203
2633,-9.531134605407717,2.69833779335022,55.97882080078125,81.18013763427734
2634,-7.4442710876464835,13.502908706665039,54.34448623657226,82.96781158447266
2635,-25.63888359069824,7.223616600036621,42.567543029785156,71.32176208496094
2636,-22.104679107666016,13.48794937133789,51.99956893920898,70.12125396728516
2637,-21.207101821899414,17.616798400878906,63.09585189819336,74.95694732666016
2638,-18.798606872558594,14.471543312072756,60.492881774902344,71.99868774414062
2639,-29.001054763793945,21.427757263183594,52.61291122436523,70.69719696044922
2640,-33.51511383056641,5.297568321228027,57.34014511108398,66.93112182617189
2641,-21.689550399780273,28.182016372680664,76.71282958984375,69.59767150878906
2642,-29.59195899963379,30.422216415405273,64.04578399658203,72.0959243774414
2643,-36.1330451965332,21.569873809814453,52.85974502563477,71.1759033203125
2644,-42.41607666015625,23.00599479675293,51.05337524414063,75.94427490234375
2645,-40.22449493408203,26.027833938598636,54.95782852172852,85.09955596923828
2646,-38.68365478515625,20.810672760009766,51.2403678894043,79.25782775878906
2647,-49.69392013549805,19.25487518310547,34.137805938720696,80.64533233642578
2648,-39.91408157348633,19.666263580322266,45.57068252563477,88.14757537841797
2649,-26.73467445373535,10.832620620727539,56.40143203735352,79.87117004394531
2650,-27.65468978881836,4.422431468963623,51.07207489013672,76.90543365478516
2651,-28.86267852783203,0.21130435168743134,42.18981170654297,76.54266357421875
2652,-28.37649154663086,-11.891012191772461,35.585147857666016,62.99674606323242
2653,-20.6461181640625,4.938538074493408,51.45728302001953,76.8755111694336
2654,-14.860492706298828,11.689057350158693,49.73693084716797,75.13272094726562
2655,-19.441869735717773,10.825139999389648,39.923431396484375,73.19544982910156
2656,-31.30857276916504,16.30783462524414,45.99702835083008,61.31005096435547
2657,-24.53935432434082,11.909711837768555,55.05132675170898,68.29618072509766
2658,-25.814659118652344,15.0736665725708,56.34907150268555,69.93425750732422
2659,-33.260799407958984,11.049534797668457,48.71593856811523,69.77344512939453
2660,-43.40340805053711,19.774721145629886,49.202125549316406,71.68079376220703
2661,-32.348262786865234,20.14497184753418,68.76554107666016,77.42153930664062
2662,-28.78413963317871,30.227741241455078,67.07884216308594,92.81122589111328
2663,-39.36057662963867,20.429203033447266,55.4253158569336,88.74595642089844
2664,-52.03883743286133,10.395051956176758,46.9918441772461,88.21115112304688
2665,-35.500999450683594,14.52390193939209,65.38092803955078,94.01547241210938
2666,-30.38107681274414,7.46297025680542,56.910057067871094,95.22720336914062
2667,-34.865219116210945,-0.2374836504459381,47.51916885375977,89.3854751586914
2668,-34.450088500976555,-10.88123893737793,51.00849533081055,88.16252899169922
2669,-27.03386688232422,-9.632112503051758,57.77023315429688,87.63520812988281
2670,-22.70306205749512,3.334120750427246,56.9511947631836,83.97758483886719
2671,-34.93627548217773,0.948064625263214,49.11236572265625,73.71155548095703
2672,-28.15583610534668,-6.494336128234862,50.63076400756836,65.36784362792969
2673,-19.561546325683594,4.654305458068848,67.43039703369139,79.31766510009766
2674,-22.819000244140625,11.718976974487305,61.84298706054688,69.54904937744139
2675,-38.35828399658203,13.13265895843506,48.9627685546875,56.07793045043945
2676,-35.30278396606445,14.766995429992676,54.75587463378906,60.59946823120117
2677,-25.01432037353516,14.355606079101562,70.18296051025389,70.09881591796875
2678,-19.961715698242188,20.545141220092773,59.34099197387695,74.71011352539062
2679,-24.07560539245605,10.0472412109375,56.54354858398438,81.32599639892578
2680,-28.96365547180176,8.45030403137207,62.2506332397461,79.26531219482422
2681,-23.71283531188965,14.490242004394533,70.61305236816406,89.71833038330078
2682,-22.7292423248291,5.7949748039245605,67.59120941162111,96.58478546142578
2683,-29.674236297607425,9.549834251403807,52.08184814453125,82.55268096923828
2684,-26.40182304382324,7.578907489776611,54.29212951660156,96.19583892822266
2685,-24.393497467041016,4.55706787109375,59.4681510925293,99.22889709472656
2686,-21.715728759765625,12.893304824829102,52.65779113769531,98.42481994628906
2687,-31.25995445251465,5.8248939514160165,43.92886352539063,95.91908264160156
2688,-34.940013885498054,3.2742824554443364,47.72860336303711,87.53422546386719
2689,-29.651796340942386,4.706664085388184,59.59530639648438,88.91425323486328
2690,-28.4512882232666,15.40651798248291,63.615699768066406,86.45339965820312
2691,-41.18564987182617,5.155452251434326,47.39949035644531,75.86199951171875
2692,-38.20494842529297,13.712343215942385,53.79471969604492,78.13585662841797
2693,-37.19891357421875,12.52679443359375,63.52220153808594,86.28510284423828
2694,-32.32956695556641,21.596052169799805,64.60677337646484,89.43035888671875
2695,-34.59220504760742,13.25233554840088,53.7685432434082,78.2181396484375
2696,-32.05655288696289,18.600393295288086,59.5205078125,80.66777038574219
2697,-16.06100082397461,14.449103355407715,75.4412612915039,91.9547882080078
2698,-16.464910507202152,11.591819763183596,77.76000213623047,95.302001953125
2699,-24.58049201965332,16.547187805175778,69.46115875244139,90.0885772705078
2700,-23.81381225585937,7.137598991394043,66.09899139404297,94.49417877197266
2701,-23.61933898925781,6.864586353302003,70.3998794555664,96.46137237548828
2702,-21.928903579711914,10.421231269836426,60.261009216308594,100.85948944091795
2703,-31.446949005126953,6.655151844024657,45.738975524902344,101.43917846679688
2704,-36.78378677368164,4.478530406951903,47.57526779174805,93.4993667602539
2705,-29.27780723571777,10.55960750579834,54.94287109375,89.10124969482422
2706,-29.02349281311035,5.5182223320007315,57.17559051513672,88.1550521850586
2707,-32.15378952026367,2.193451404571533,47.07038116455078,84.37026977539062
2708,-37.87957763671875,-5.334967136383057,57.63933944702149,71.00012969970703
2709,-19.266094207763672,4.123239517211913,73.5339126586914,81.10533905029297
2710,-16.85011863708496,13.88063907623291,66.75721740722656,68.63651275634766
2711,-21.57735252380371,10.170658111572266,59.4494514465332,72.46243286132812
2712,-25.28359413146973,13.117698669433596,60.55646133422852,69.73978424072266
2713,-18.03940773010254,10.776521682739258,75.13085174560547,60.322715759277344
2714,-17.283946990966793,21.113605499267575,72.15763092041016,78.01244354248047
2715,-26.38686370849609,13.532828330993652,53.8807373046875,75.83582305908203
2716,-29.128210067749023,8.506402015686035,59.0679817199707,83.47269439697266
2717,-22.04483985900879,12.100446701049805,68.06617736816406,87.34723663330078
2718,-25.70246315002441,18.877145767211914,61.95892333984375,94.90930938720705
2719,-33.776905059814446,13.805840492248535,49.6322135925293,90.00630187988281
2720,-32.30338668823242,3.2331435680389404,53.48431015014648,101.61495208740234
2721,-24.501955032348636,5.514482498168945,55.25702285766602,92.51577758789062
2722,-24.86098480224609,3.715590715408325,52.98690414428711,104.15060424804688
2723,-30.62417030334473,12.549234390258787,46.2401237487793,102.28439331054688
2724,-34.809120178222656,6.542954921722412,48.85805130004883,92.85984802246094
2725,-30.08562469482422,9.078607559204102,59.64018630981445,83.09122467041016
2726,-27.75566673278809,11.842392921447756,52.55681228637695,88.44302368164062
2727,-33.12990188598633,12.309880256652832,52.45957565307617,82.7957763671875
2728,-26.633697509765625,6.1203460693359375,56.831520080566406,79.61685943603516
2729,-14.651058197021484,17.343786239624027,70.91598510742188,90.47379302978516
2730,-14.157391548156738,10.140738487243652,66.41314697265625,78.6407470703125
2731,-22.35525131225586,-0.9667641520500184,53.779762268066406,68.85343170166016
2732,-22.216875076293945,6.322300910949707,62.80039978027344,78.18821716308594
2733,-17.90477180480957,17.867372512817386,73.89668273925781,80.74630737304688
2734,-13.394452095031738,22.65444374084473,72.6475601196289,82.75837707519531
2735,-27.01142692565918,11.96207046508789,52.03696823120117,82.50780487060547
2736,-32.269725799560554,6.692551136016847,55.152305603027344,81.86080169677734
2737,-31.742401123046875,5.338706970214844,60.50410079956055,90.69070434570312
2738,-28.63828468322754,6.801008224487305,57.36632537841797,88.33082580566406
2739,-32.67363739013672,9.03372859954834,45.28270721435547,97.18316650390624
2740,-38.896827697753906,-1.8194613456726076,49.76684951782226,90.39151000976562
2741,-26.072711944580078,5.170411586761475,57.28030776977539,95.05142974853516
2742,-27.957622528076172,7.971596717834473,44.98351669311523,90.46630859375
2743,-34.69318008422852,8.065093994140625,48.00909423828125,99.04937744140624
2744,-36.05824661254883,-0.4618776440620422,43.416500091552734,82.45170593261719
2745,-31.95183563232422,17.347526550292972,58.03950881958008,81.57656860351562
2746,-30.65782928466797,16.37141227722168,56.63330459594727,75.3309326171875
2747,-30.19408226013184,12.897045135498047,53.99293518066406,74.39221954345703
2748,-29.128210067749023,10.668065071105957,56.95493698120117,75.46556854248047
2749,-24.81984519958496,21.371658325195312,62.07485961914063,73.48716735839844
2750,-23.61559867858887,12.160284996032715,55.55621337890625,68.61781311035156
2751,-30.369857788085934,11.31132698059082,40.80978775024414,64.68717956542969
2752,-23.80633354187012,10.148218154907227,50.64572525024414,68.01569366455078
2753,-19.47178840637207,10.623186111450195,57.75153350830078,73.77513885498047
2754,-20.679777145385746,10.077160835266113,45.96710968017578,76.59876251220703
2755,-22.48614883422852,11.51328182220459,45.69409942626953,80.9295654296875
2756,-31.394590377807614,-0.08040785044431686,42.16363143920898,76.4940414428711
2757,-20.825632095336914,7.6985840797424325,53.671302795410156,87.9942398071289
2758,-22.508588790893555,22.445009231567386,53.21129608154297,87.90074157714844
2759,-36.47711563110352,13.162577629089355,40.32734298706055,80.08808898925781
2760,-36.00962829589844,11.528241157531738,41.49045181274414,79.68791961669922
2761,-36.469635009765625,9.961223602294922,55.02140808105469,87.78480529785156
2762,-33.612350463867195,18.85096549987793,57.18307113647461,83.31562042236328
2763,-42.40111541748047,20.926610946655273,42.59746170043945,80.72013092041016
2764,-42.6367301940918,15.485055923461914,43.70447158813477,78.07601928710938
2765,-32.355743408203125,17.975830078125,59.80099868774414,83.38294219970703
2766,-26.42426300048828,17.64297866821289,58.64163208007813,86.90966796875
2767,-35.30278396606445,16.042301177978516,54.86433410644531,80.4845199584961
2768,-34.659523010253906,17.13435173034668,51.27776718139648,82.66114044189453
2769,-34.506187438964844,18.49193572998047,55.07750701904297,68.26252746582031
2770,-25.0068416595459,27.35175895690918,62.362831115722656,79.5046615600586
2771,-35.459861755371094,16.06100082397461,46.51313400268555,78.42383575439453
2772,-33.82926559448242,7.193697452545166,45.96337127685547,68.93944549560547
2773,-20.818153381347656,13.117698669433596,56.891357421875,76.475341796875
2774,-25.35839080810547,9.243163108825684,50.64572525024414,71.7144546508789
2775,-25.519207000732425,10.069680213928224,47.4069709777832,68.81977081298828
2776,-27.516313552856445,6.445717811584473,42.61241912841797,62.22632598876953
2777,-19.161376953125,14.108772277832033,59.5504264831543,72.02112579345703
2778,-15.761808395385742,21.16970443725586,60.08523178100586,84.07855987548828
2779,-28.081039428710934,12.059307098388672,48.63739776611328,77.836669921875
2780,-28.78039932250977,8.727056503295897,50.33905410766602,79.0820541381836
2781,-31.17393684387207,7.960377216339111,53.94057846069336,88.2784652709961
2782,-25.91189765930176,19.023000717163086,59.56912612915039,92.5718765258789
2783,-27.587371826171875,14.520161628723145,49.26944351196289,84.93499755859375
2784,-35.90864944458008,8.629818916320799,46.60663223266602,78.88384246826172
2785,-23.35006523132324,11.980769157409668,57.92356872558594,82.22731018066406
2786,-27.299400329589844,22.160778045654297,52.69892883300781,80.49199676513672
2787,-34.42390823364258,15.122285842895508,40.61905288696289,69.60888671875
2788,-35.03351211547852,12.119145393371582,46.13914489746094,71.96128845214844
2789,-26.577598571777344,21.192142486572266,56.678184509277344,80.2713394165039
2790,-26.050273895263672,19.64756393432617,52.97568130493164,67.67536163330078
2791,-34.43512725830078,15.60847282409668,39.86359405517578,69.22367858886719
2792,-29.524641036987305,7.960377216339111,45.20417022705078,67.97454833984375
2793,-16.588325500488278,17.680377960205078,63.38382339477539,74.30620574951172
2794,-14.198530197143555,24.8310661315918,57.47104263305664,78.93619537353516
2795,-20.777013778686523,5.626679420471191,43.36413955688477,74.63531494140625
2796,-23.43608283996582,8.551280975341799,55.193443298339844,71.1572036743164
2797,-21.69702911376953,10.656845092773438,63.884971618652344,76.91291046142578
2798,-19.86821937561035,12.395898818969727,58.06942749023438,84.14213562011719
2799,-26.768333435058594,18.503154754638672,53.48431015014648,81.13899993896484
2800,-30.3474178314209,7.5302886962890625,57.89365005493164,81.72242736816406
2801,-23.230388641357425,19.38577079772949,66.82079315185547,86.01209259033203
2802,-26.600038528442386,10.967256546020508,58.09186553955078,88.65245819091797
2803,-26.472881317138672,15.010088920593262,50.34279251098633,85.88493347167969
2804,-37.35599136352539,3.143385887145996,50.17075729370117,80.56305694580078
2805,-26.46914100646973,8.742015838623049,63.94480895996094,84.34783172607422
2806,-29.30772590637207,8.225910186767576,57.81511306762695,76.10509490966797
2807,-32.393142700195305,11.44222354888916,50.56718826293945,79.84125518798828
2808,-30.85604476928711,9.849026679992676,55.58613204956055,77.44771575927734
2809,-20.201068878173828,7.53402853012085,62.74804306030274,71.57981872558594
2810,-22.471189498901367,16.80898094177246,53.39455032348633,70.42044830322266
2811,-26.54581069946289,9.461946487426758,45.45287322998047,74.60352325439453
2812,-26.994598388671875,0.4899269044399262,48.55324935913086,69.30782318115234
2813,-22.24118423461914,5.598630428314209,55.404747009277344,69.43498229980469
2814,-21.773696899414066,20.57318878173828,50.26986694335938,74.53246307373047
2815,-32.006065368652344,16.27230453491211,37.37469100952149,64.69278717041016
2816,-35.18871688842773,8.859823226928711,36.89972305297852,63.312767028808594
2817,-19.25300407409668,8.134282112121582,52.655921936035156,72.22494506835938
2818,-19.843908309936523,15.99555206298828,52.28567123413086,78.16017150878906
2819,-28.30356216430664,8.657868385314941,42.04582595825195,86.5225830078125
2820,-36.374267578125,12.218253135681152,48.29519653320313,76.85120391845703
2821,-31.23938369750977,17.637367248535156,57.62624740600586,79.02408599853516
2822,-21.02571678161621,13.875028610229492,59.3316421508789,84.17766571044922
2823,-34.84464645385742,11.948980331420898,40.21327590942383,79.98898315429688
2824,-27.05443572998047,3.612743377685547,48.94594192504883,78.84831237792969
2825,-17.850542068481445,10.52781867980957,61.53444290161133,76.9447021484375
2826,-15.64026165008545,19.159507751464844,63.9578971862793,86.01396179199219
2827,-23.823162078857425,12.390288352966307,48.10446166992188,70.55695343017578
2828,-25.412620544433594,12.648341178894045,57.73096466064453,65.10044097900389
2829,-19.61951446533203,18.134775161743164,65.16588592529297,66.18126678466797
2830,-21.28750991821289,16.664993286132812,59.3914794921875,65.47816467285156
2831,-24.81423568725586,12.921354293823242,48.56447219848633,66.06906890869139
2832,-25.524816513061523,10.957906723022461,51.590049743652344,69.21432495117189
2833,-17.899160385131836,14.47341251373291,56.12281036376953,71.57046508789062
2834,-16.25734519958496,12.794198036193848,58.64350128173828,74.23701477050781
2835,-23.441692352294922,11.414175033569336,52.1435546875,76.8811264038086
2836,-28.94308662414551,15.673920631408693,54.91482162475586,79.49531555175781
2837,-26.590688705444336,16.216205596923828,61.85233688354492,89.68653869628906
2838,-33.804954528808594,11.212220191955566,49.723838806152344,79.38685607910156
2839,-32.107040405273445,18.003877639770508,42.56567001342773,81.8813705444336
2840,-38.94357681274414,17.222238540649414,43.0593376159668,80.51630401611328
2841,-28.57283592224121,15.097975730895994,55.39352798461914,78.93806457519531
2842,-28.92438697814941,21.036937713623047,57.22982025146485,87.42015838623047
2843,-32.76526260375977,31.37775993347168,50.59149551391602,79.40555572509766
2844,-32.16687774658203,15.04561710357666,50.29230499267578,74.56612396240234
2845,-24.84415626525879,13.32526397705078,57.37941360473633,71.76493835449219
2846,-20.771404266357425,17.99639892578125,58.47894668579102,73.46285247802734
2847,-26.69540596008301,13.949827194213867,49.69766235351562,71.05435943603516
2848,-30.07253646850586,15.31863021850586,50.61019515991211,58.53691482543945
2849,-17.9814395904541,23.32949638366699,64.98637390136719,66.89185333251953
2850,-21.066856384277344,21.11173439025879,58.66968154907226,70.47093200683594
2851,-23.32949638366699,18.68828010559082,51.14874267578125,63.05097198486328
2852,-28.591535568237305,12.678260803222654,50.08287048339844,64.8199462890625
2853,-17.929080963134766,14.67536735534668,59.12594985961914,69.09465026855469
2854,-20.947179794311523,14.589349746704102,55.02327728271485,67.9539794921875
2855,-26.32141494750977,13.456159591674805,42.95088195800781,71.08802032470703
2856,-26.03344345092773,11.242138862609863,46.8740348815918,79.97028350830078
2857,-25.92498588562012,15.038137435913086,57.11014175415039,83.19033813476562
2858,-21.78865623474121,27.05443572998047,56.30606460571289,85.6998062133789
2859,-31.748010635375977,29.070241928100586,48.29145812988281,89.9333724975586
2860,-37.451358795166016,12.109796524047852,48.79260635375977,78.22000885009766
2861,-25.45749855041504,23.94283866882324,65.70817565917969,87.12471008300781
2862,-29.16748046875,23.172420501708984,56.20882797241211,74.7194595336914
2863,-33.25893020629883,9.663901329040527,45.75206756591797,79.25969696044922
2864,-34.75115203857422,19.825210571289066,56.657615661621094,75.39264678955078
2865,-23.815683364868164,29.18243980407715,64.27578735351561,74.96255493164062
2866,-19.55967712402344,32.00232315063477,62.11786651611328,74.83539581298828
2867,-29.305856704711914,16.698654174804688,49.17407608032226,63.03227233886719
2868,-25.89506721496582,19.57837677001953,59.17456817626953,71.44705200195312
2869,-22.18508720397949,15.206433296203613,65.10978698730469,73.62367248535156
2870,-19.44373893737793,23.79698371887207,56.06296920776367,72.97293090820312
2871,-28.340961456298828,20.44977378845215,45.80068588256836,72.490478515625
2872,-32.01354217529297,15.808557510375975,45.00782775878906,72.01551055908203
2873,-24.6309814453125,20.53205108642578,51.72842788696289,77.55804443359375
2874,-22.29354286193848,26.052143096923828,49.723838806152344,85.38565826416016
2875,-26.781423568725586,24.664640426635746,44.12894821166992,78.65009307861328
2876,-31.119707107543945,17.300777435302734,48.91228103637695,76.39493560791016
2877,-27.14045333862305,22.173866271972656,60.4236946105957,82.96220397949219
2878,-19.858869552612305,27.55558204650879,62.37592315673828,82.3862533569336
2879,-24.055036544799805,38.6406478881836,54.7540054321289,73.2309799194336
2880,-28.774789810180664,10.116429328918457,58.10121536254883,68.99367523193361
2881,-23.632427215576172,29.92667961120605,68.12788391113281,70.75890350341797
2882,-19.5073184967041,29.33577537536621,62.7237319946289,63.43618392944336
2883,-32.982177734375,33.430965423583984,53.01121139526367,59.42700958251953
2884,-25.60709571838379,32.372573852539055,61.79249572753906,64.31880187988281
2885,-26.97589874267578,28.471858978271484,64.39920806884766,58.48455429077149
2886,-18.35542869567871,33.861053466796875,64.50766754150389,64.65164947509766
2887,-24.522523880004886,39.85611343383789,47.16948699951172,69.30408477783203
2888,-30.801816940307614,14.421053886413574,46.933876037597656,57.100791931152344
2889,-22.832088470458984,25.23684501647949,60.95475769042969,65.22011566162111
2890,-17.139961242675778,24.077476501464844,57.92544174194336,71.03565979003906
2891,-22.308504104614254,21.351089477539066,50.56905746459961,70.49711608886719
2892,-33.782516479492195,17.858022689819336,43.84471893310547,69.78652954101561
2893,-21.470766067504886,27.80241584777832,59.182044982910156,77.86471557617188
2894,-22.618915557861328,27.58176231384277,49.74253845214844,74.45018768310547
2895,-28.64389419555664,11.070103645324707,39.68220901489258,73.24220275878906
2896,-33.05697631835937,17.259637832641598,44.09529113769531,72.24364471435547
2897,-25.42009925842285,30.820514678955078,60.965980529785156,77.42340850830078
2898,-23.40803337097168,25.70433235168457,55.4645881652832,80.57614135742188
2899,-25.49115753173828,24.24203109741211,43.56422424316406,76.98210144042969
2900,-27.34240913391113,27.27509117126465,54.8138427734375,78.56781768798828
2901,-24.06251716613769,23.546409606933594,58.63228225708008,71.23761749267578
2902,-19.89626693725586,34.84464645385742,68.18398284912111,73.78822326660156
2903,-34.09292984008789,22.65257453918457,54.84750366210938,67.34437561035156
2904,-27.93705177307129,17.958999633789062,53.82276916503906,70.93842315673828
2905,-24.567401885986328,17.87672233581543,55.20279312133789,62.10477828979492
2906,-13.13826847076416,30.8990535736084,57.611289978027344,76.16680145263672
2907,-26.732805252075195,22.98916435241699,48.02218627929688,68.26065063476561
2908,-32.60818862915039,23.531450271606445,46.76931762695313,70.41483306884766
2909,-17.484031677246097,22.304763793945312,57.91421890258789,77.8497543334961
2910,-22.805910110473636,32.02102279663086,56.78477096557617,78.88197326660156
2911,-35.97783660888672,22.65257453918457,42.3375358581543,80.20963287353516
2912,-34.287403106689446,10.363263130187988,39.124961853027344,80.7818374633789
2913,-23.39681434631348,17.02028465270996,50.11652755737305,67.57625579833984
2914,-17.02028465270996,17.644847869873047,55.45336532592773,75.61703491210938
2915,-20.60310935974121,23.737144470214844,50.81962966918945,75.77411651611328
2916,-30.397907257080078,14.817483901977539,51.14874267578125,63.51845932006836
2917,-24.395366668701172,23.43795394897461,59.01375198364258,65.72126007080078
2918,-23.34445571899414,34.02935028076172,56.94932556152344,70.9458999633789
2919,-32.11825942993164,28.02680969238281,39.73830795288086,63.92985153198242
2920,-42.17485046386719,22.162647247314453,38.0403938293457,61.16232299804688
2921,-27.33492851257324,24.63846015930176,60.0123062133789,68.02130126953125
2922,-15.490665435791016,35.861900329589844,59.249366760253906,71.7499771118164
2923,-21.45206642150879,23.991458892822266,50.44190216064453,69.88751220703125
2924,-16.739791870117188,24.55992317199707,55.65906143188477,76.72030639648438
2925,-22.087848663330078,17.102561950683597,53.08227157592773,77.47950744628906
2926,-13.680554389953613,26.052143096923828,58.78561782836914,71.09923553466797
2927,-23.05648231506348,21.680200576782227,45.59125137329102,77.27381134033203
2928,-21.093036651611328,14.241539001464846,55.9470329284668,75.50483703613281
2929,-14.432273864746096,14.53325080871582,69.10400390625,83.33992767333984
2930,-16.070350646972653,26.69540596008301,62.682594299316406,88.74408721923828
2931,-31.508657455444336,29.98651695251465,48.88984298706055,78.8744888305664
2932,-31.538576126098636,27.21899223327637,54.10700225830078,79.98898315429688
2933,-30.076274871826172,31.411418914794922,62.23754501342773,83.91961669921875
2934,-29.73220443725586,34.50057601928711,52.75689697265625,78.99042510986328
2935,-25.244325637817386,31.49369812011719,55.05319595336914,83.07814025878906
2936,-30.70831871032715,21.93077278137207,51.78826522827149,74.27815246582031
2937,-21.624101638793945,25.206926345825195,59.48497772216797,73.6161880493164
2938,-24.99001121520996,25.61457443237305,57.47665405273438,67.05266571044922
2939,-30.28196907043457,24.335529327392575,49.96319198608398,62.37779235839844
2940,-25.5696964263916,22.308504104614254,60.27035903930664,60.283447265625
2941,-16.743532180786133,40.28246307373047,72.6195068359375,74.9363784790039
2942,-15.647741317749025,26.953458786010746,65.24068450927734,81.61209869384766
2943,-16.451820373535153,29.89676094055176,65.54361724853516,87.9886245727539
2944,-22.0018310546875,19.993505477905273,64.21221160888672,87.32666015625
2945,-17.30451774597168,27.200292587280273,80.39849853515625,87.40894317626953
2946,-13.011112213134766,33.487064361572266,76.72217559814453,87.99984741210938
2947,-19.080968856811523,27.409727096557614,71.0337905883789,83.4895248413086
2948,-23.890480041503906,31.23564529418945,72.45869445800781,82.85748291015625
2949,-13.609496116638185,32.98965835571289,77.2195816040039,88.83384704589844
2950,-17.39427375793457,21.68394088745117,70.02027893066406,85.80826568603516
2951,-22.02427101135254,25.50611686706543,64.05139923095703,79.3157958984375
2952,-19.757890701293945,23.486572265625,61.48208618164063,70.18669891357422
2953,-17.498991012573242,33.225269317626946,71.63965606689453,77.53186798095703
2954,-16.122709274291992,30.442785263061523,66.134521484375,78.64635467529297
2955,-20.97709846496582,30.061315536499023,58.02641677856445,79.70101165771484
2956,-21.94573211669922,21.964431762695312,56.82590866088867,71.43582916259766
2957,-17.364355087280273,24.51130485534668,60.1245002746582,67.82682800292969
2958,-15.50936508178711,25.83896827697754,54.57823181152344,61.69712829589844
2959,-23.516490936279297,23.015344619750977,45.66604995727539,61.26330184936523
2960,-25.00871086120605,12.782978057861328,54.82880401611328,65.32857513427734
2961,-19.49983787536621,12.868995666503904,56.97550582885742,71.31989288330078
2962,-15.737499237060547,25.89506721496582,55.75255966186523,83.511962890625
2963,-17.611188888549805,28.434459686279297,53.50861740112305,82.77894592285156
2964,-25.99978446960449,18.25071144104004,48.03340530395508,87.40520477294922
2965,-23.194860458374023,21.680200576782227,57.52527236938477,94.80646514892578
2966,-21.743778228759766,30.124895095825195,55.65906143188477,82.21796417236328
2967,-19.82147026062012,28.011850357055664,62.7125129699707,100.37517547607422
2968,-24.02137756347656,26.71036529541016,62.09542846679688,86.30193328857422
2969,-11.698407173156738,26.05962371826172,78.45375061035156,93.0262680053711
2970,-14.503332138061525,28.217544555664066,73.8274917602539,84.62645721435547
2971,-21.62784194946289,22.274843215942386,67.28266906738281,81.8851089477539
2972,-21.687679290771484,23.696006774902344,62.56291580200195,74.27815246582031
2973,-15.292450904846193,27.47330474853516,79.90483093261719,81.10346984863281
2974,-11.27953815460205,29.18991851806641,76.68477630615234,92.92155456542969
2975,-17.229719161987305,22.02427101135254,72.05852508544922,81.97860717773438
2976,-26.3737735748291,26.84126281738281,68.49813842773439,72.11274719238281
2977,-21.807355880737305,18.778038024902344,76.04899597167969,77.01576232910156
2978,-28.51673698425293,2.5693113803863525,65.23320770263672,80.22085571289062
2979,-31.370281219482425,16.694913864135742,54.641807556152344,88.32147979736328
2980,-33.08689498901367,20.52457046508789,49.1104965209961,86.97885131835938
2981,-32.15192031860352,23.98771858215332,50.41572189331055,86.63478088378906
2982,-20.21415901184082,30.584901809692386,56.80347061157226,91.13388061523438
2983,-29.84814071655273,13.265424728393555,47.45746231079102,85.66989135742188
2984,-26.1867790222168,10.224886894226074,52.18095397949219,77.25511169433594
2985,-13.534697532653807,14.974559783935547,67.20413208007811,83.39977264404297
2986,-8.949580192565918,19.679353713989254,71.10485076904297,95.4123306274414
2987,-15.400908470153807,21.40718650817871,51.739646911621094,79.68605041503906
2988,-18.905193328857425,15.202692985534668,54.51839065551758,77.69641876220703
2989,-18.542423248291016,16.317184448242188,65.10231018066406,81.60836029052734
2990,-14.275197982788086,22.72737121582031,70.49898529052734,77.81610107421875
2991,-19.83268928527832,20.472211837768555,62.22632598876953,79.3756332397461
2992,-26.10824203491211,11.133682250976562,57.47665405273438,74.10985565185547
2993,-16.702392578125,21.661500930786133,65.10231018066406,63.53342056274414
2994,-12.984932899475098,21.324909210205078,66.99843597412111,75.93119049072266
2995,-18.45640563964844,31.57971572875977,61.29883193969727,83.79994201660156
2996,-27.578022003173828,24.27194976806641,54.65302658081055,74.19961547851562
2997,-25.150827407836914,28.352182388305664,58.94269180297852,73.76952362060547
2998,-18.991212844848636,24.35048866271973,64.32814788818361,85.12760162353516
2999,-23.954059600830078,26.620607376098636,52.19965362548828,81.93746948242188
3000,-27.23395156860352,28.28860282897949,51.7321662902832,74.77555847167969
3001,-26.429872512817386,17.121261596679688,57.79080581665039,87.21072387695312
3002,-17.708425521850586,28.617713928222656,70.11751556396484,87.25186920166016
3003,-31.14588737487793,22.92184638977051,47.00119400024414,86.24583435058594
3004,-29.036582946777344,17.409235000610348,48.160560607910156,91.98284149169922
3005,-23.568849563598636,17.222238540649414,55.4945068359375,89.56686401367188
3006,-16.156368255615234,13.98348617553711,59.6719741821289,91.87438201904295
3007,-23.41925430297852,13.673073768615724,50.46060180664063,79.28214263916016
3008,-20.943439483642575,10.367002487182617,54.12570190429688,85.32955932617188
3009,-14.510811805725098,13.631935119628904,63.9092788696289,74.7605972290039
3010,-15.292450904846193,17.158660888671875,68.75244903564453,66.57769775390625
3011,-23.213558197021484,5.699607372283936,46.90021514892578,57.20550918579102
3012,-17.547611236572266,12.491266250610352,54.10887145996094,65.55109405517578
3013,-17.431673049926758,22.57403564453125,63.75407409667969,72.25299835205078
3014,-17.016544342041016,27.44338607788086,65.17149353027344,70.11003112792969
3015,-29.081462860107425,23.20607948303223,54.50156021118164,63.40813446044922
3016,-29.0029239654541,19.552196502685547,58.79122543334961,70.12873077392578
3017,-23.68478584289551,25.48741912841797,65.79232025146484,70.30825042724611
3018,-18.276891708374023,30.420345306396484,67.88666534423828,75.28231811523438
3019,-27.09931564331055,20.711565017700195,53.8695182800293,80.75753021240234
3020,-30.63726043701172,27.75379753112793,43.28934097290039,74.90084838867188
3021,-23.71844482421875,25.891326904296875,56.62582397460938,94.09027099609376
3022,-26.1568603515625,16.601415634155273,49.68831253051758,86.50201416015625
3023,-27.73135757446289,22.97794532775879,48.42796325683594,97.44869995117188
3024,-28.04924964904785,13.807710647583008,47.74356460571289,91.4499053955078
3025,-26.628087997436523,9.806017875671387,52.45583724975586,90.12972259521484
3026,-17.693466186523438,19.159507751464844,56.17703628540039,89.93150329589844
3027,-21.97939109802246,11.114982604980467,40.65271377563477,72.35023498535156
3028,-27.578022003173828,5.583670616149902,41.16881942749024,74.4034423828125
3029,-16.13018798828125,21.205232620239254,59.58782577514648,82.0515365600586
3030,-13.47111988067627,10.449280738830566,52.96072387695313,76.90917205810547
3031,-23.441692352294922,10.785871505737305,47.10403823852539,74.58295440673828
3032,-22.05044937133789,15.060577392578125,51.26654815673828,74.99434661865234
3033,-16.721092224121097,11.006525993347168,59.729942321777344,72.57089233398438
3034,-15.48318576812744,24.0737361907959,61.0576057434082,63.72228622436523
3035,-21.841014862060547,20.10196304321289,51.50216293334961,64.81059265136719
3036,-29.911720275878906,20.374975204467773,50.7467041015625,58.35926818847656
3037,-18.000139236450195,16.848249435424805,55.41783905029297,68.59163665771484
3038,-14.66414737701416,38.49105072021485,57.63933944702149,72.7204818725586
3039,-20.3001766204834,32.70168685913086,45.9409294128418,81.65884399414062
3040,-25.723031997680664,14.55569076538086,35.876861572265625,73.8274917602539
3041,-27.031997680664066,8.156722068786621,46.91704559326172,77.54869842529297
3042,-13.998445510864258,24.61602210998535,53.61520385742188,91.56210327148438
3043,-25.666933059692386,28.318523406982425,42.42168426513672,80.82484436035156
3044,-25.0012321472168,12.154674530029295,44.175697326660156,77.87406921386719
3045,-18.5573844909668,12.81289768218994,53.839599609375,89.92402648925781
3046,-19.683094024658203,5.744486331939697,49.76684951782226,75.37955474853516
3047,-23.901700973510746,20.78636360168457,37.877708435058594,72.08843994140625
3048,-27.05817604064941,5.5088725090026855,40.90328598022461,63.87187957763672
3049,-17.708425521850586,14.682847023010256,60.06653213500977,71.44143676757812
3050,-17.319477081298828,10.823270797729492,61.37923812866211,74.949462890625
3051,-20.719045639038086,14.66414737701416,61.67095184326172,75.98167419433594
3052,-22.551597595214844,21.21271324157715,58.23772048950195,62.75739288330078
3053,-20.84246253967285,19.32780265808105,70.57191467285156,74.63157653808594
3054,-16.63133430480957,26.56450843811035,69.25172424316406,74.82231140136719
3055,-29.418052673339844,36.67345809936523,59.86457824707031,68.53179931640625
3056,-25.08350944519043,31.871427536010746,65.18271636962889,75.23743438720703
3057,-27.723878860473636,28.153966903686523,64.83864593505861,76.48282623291016
3058,-22.013051986694336,28.699993133544922,64.41977691650389,82.16373443603516
3059,-34.321060180664055,17.356876373291016,46.72631072998047,75.04669952392578
3060,-37.9525032043457,23.673566818237305,43.76057052612305,82.84065246582031
3061,-33.86853408813477,15.931973457336426,45.21913146972656,88.2784652709961
3062,-41.95045852661133,17.412973403930664,37.686973571777344,86.03079223632812
3063,-33.27762985229492,27.065656661987305,36.546302795410156,90.47004699707031
3064,-40.43579864501953,26.44857215881348,30.809295654296875,79.68791961669922
3065,-33.019577026367195,20.46847152709961,38.96227645874024,81.61770629882812
3066,-30.723278045654297,18.05249786376953,37.60095596313477,73.71155548095703
3067,-24.28691101074219,19.76537132263184,36.18353271484375,73.07951354980469
3068,-23.486572265625,11.245879173278807,45.69409942626953,73.12813568115234
3069,-12.094836235046387,24.53374290466309,67.07136535644531,75.09532165527344
3070,-9.144055366516113,19.52975845336914,68.27561187744139,77.51129913330078
3071,-17.35313606262207,15.931973457336426,58.89594268798828,59.26806640625
3072,-18.09363555908203,4.959107398986816,60.94915008544922,52.09493637084961
3073,-9.211373329162598,13.41128158569336,73.39179992675781,71.17964935302734
3074,-10.273505210876463,21.620361328125,75.95362854003906,75.08036041259766
3075,-22.91810607910156,22.20004653930664,65.65768432617189,64.77320098876953
3076,-26.65800666809082,24.71325874328613,61.93274307250977,61.2277717590332
3077,-25.91750717163086,18.94259262084961,62.80788040161133,68.40837860107422
3078,-22.506717681884766,23.87552070617676,58.14796447753906,66.08589935302734
3079,-30.94019317626953,24.55992317199707,48.42422485351562,70.53638458251953
3080,-29.26097679138184,7.52841854095459,47.62014770507813,72.10713958740234
3081,-26.384994506835934,17.35313606262207,53.439430236816406,74.15287017822266
3082,-25.69685173034668,17.20353889465332,44.93489837646485,77.57487487792969
3083,-32.70168685913086,8.459653854370117,35.61506652832031,77.87406921386719
3084,-31.92004585266113,18.568603515625,34.16024780273437,71.8565673828125
3085,-24.00267791748047,14.716506004333494,40.114166259765625,74.99434661865234
3086,-19.32406234741211,22.19630622863769,40.06180953979492,79.89361572265625
3087,-23.389333724975586,12.352890014648438,39.81123352050781,73.56944274902344
3088,-23.307056427001953,14.069503784179688,47.14143753051758,77.4327621459961
3089,-13.66185474395752,18.93511390686035,60.79207229614258,69.64628601074219
3090,-10.40066146850586,15.397168159484865,61.27452087402344,68.10918426513672
3091,-19.152027130126953,19.58585548400879,52.97568130493164,73.66667938232422
3092,-30.083755493164066,15.84221649169922,50.0136833190918,69.2274169921875
3093,-22.68249320983887,11.537590980529785,62.84901809692383,65.21824645996094
3094,-20.958398818969727,23.198598861694336,69.99971008300781,76.08639526367188
3095,-27.54062271118164,23.58754920959473,59.62522506713867,63.62504959106445
3096,-31.785409927368164,21.16783332824707,61.01272964477539,62.45819854736328
3097,-25.45001983642578,8.238999366760254,69.09465026855469,74.0444107055664
3098,-17.843063354492188,20.775144577026367,71.17403411865234,78.33407592773438
3099,-23.87552070617676,25.255544662475586,61.22964096069336,77.51129913330078
3100,-35.81702041625977,14.791304588317873,48.4691047668457,74.10798645019531
3101,-23.250957489013672,16.489219665527347,52.59421157836914,77.92268371582031
3102,-16.799631118774414,22.832088470458984,57.57949829101562,86.70023345947266
3103,-19.032350540161133,13.037291526794435,40.63401412963867,79.71035766601562
3104,-25.779130935668945,10.737253189086914,37.95624542236328,72.24551391601562
3105,-17.110042572021484,19.024871826171875,52.51193618774414,78.29667663574219
3106,-13.95730686187744,5.770665645599365,54.04155349731445,73.98831176757812
3107,-21.4445858001709,1.5819777250289917,46.02320861816406,70.4541015625
3108,-24.8478946685791,7.251666069030763,40.85092544555664,73.27398681640625
3109,-19.174467086791992,4.151288986206056,48.03153610229492,74.47449493408203
3110,-14.53325080871582,8.164201736450195,60.10019302368164,65.60719299316406
3111,-19.70553207397461,5.363016605377197,50.39889144897461,60.29279708862305
3112,-24.675859451293945,5.688387870788574,49.49009704589844,62.01689147949219
3113,-11.193520545959473,6.19327449798584,69.74539184570311,70.89541625976562
3114,-10.89806842803955,12.622162818908693,65.71004486083984,83.37171936035156
3115,-20.105701446533203,14.065763473510742,59.9244155883789,88.0540771484375
3116,-28.96178436279297,19.350242614746094,51.56574249267578,90.29427337646484
3117,-26.71784591674805,14.54447078704834,56.54728698730469,78.89505767822266
3118,-24.4552059173584,24.94887351989746,59.59904479980469,87.91195678710938
3119,-35.719783782958984,21.949472427368164,49.62099075317383,89.31068420410156
3120,-38.58080673217773,19.398860931396484,45.38368606567383,86.09062957763672
3121,-38.20681762695313,19.16324806213379,47.24989700317383,81.01932525634766
3122,-28.58031463623047,20.816282272338867,52.46331787109375,87.85211944580078
3123,-38.83138275146485,14.952119827270508,37.006309509277344,86.2925796508789
3124,-40.84718704223633,4.43178129196167,34.919445037841804,78.4013900756836
3125,-33.778778076171875,2.075644493103028,45.04335403442383,72.03982543945312
3126,-23.59876823425293,16.747272491455078,50.30165481567383,76.04151916503906
3127,-27.37606811523437,17.85428237915039,39.10813522338867,66.99469757080078
3128,-20.80880355834961,9.14779567718506,43.72317123413086,67.83617401123047
3129,-11.66100788116455,9.480646133422852,49.75563049316406,62.491859436035156
3130,-6.855236530303955,11.477752685546875,48.31576919555664,66.90493774414061
3131,-10.426840782165527,16.896867752075195,47.3658332824707,67.48088836669922
3132,-22.114028930664066,4.730973243713379,43.42023849487305,69.05912017822266
3133,-12.431427001953125,29.103900909423828,61.32687759399414,71.65087127685547
3134,-16.706132888793945,22.203786849975586,60.3245849609375,78.1957015991211
3135,-22.69371223449707,19.57089614868164,47.20501708984375,78.13211822509766
3136,-20.015945434570312,20.66668701171875,49.92392349243164,83.8990478515625
3137,-20.65920829772949,20.943439483642575,57.03721237182617,85.77273559570312
3138,-16.504179000854492,19.83268928527832,62.1907958984375,78.86139678955078
3139,-22.039230346679688,20.80880355834961,47.98291778564453,76.14249420166016
3140,-28.16518592834473,13.003632545471193,47.70990371704102,75.12149810791016
3141,-19.86634826660156,10.1500883102417,55.61605072021485,69.31343841552734
3142,-14.140562057495115,14.753905296325685,61.93274307250977,76.74461364746094
3143,-19.90748786926269,13.033551216125488,53.08414077758789,79.13441467285156
3144,-23.86056137084961,3.2948517799377437,51.83875274658203,65.86898803710939
3145,-21.313690185546875,4.573897838592528,60.65743637084961,70.30076599121094
3146,-12.453866958618164,9.75365924835205,58.04324722290039,77.74691009521484
3147,-20.0832633972168,8.852343559265137,44.08594131469727,72.78032684326172
3148,-17.117521286010742,6.69442081451416,46.52809524536133,66.74038696289061
3149,-16.664993286132812,8.859823226928711,57.45234298706055,58.5462646484375
3150,-4.547718524932861,14.727725982666016,70.93468475341797,77.26446533203125
3151,-16.133928298950195,10.905548095703123,53.60398483276367,67.35372924804689
3152,-26.45605278015137,4.779592037200928,50.787841796875,62.94064712524414
3153,-18.261932373046875,14.47341251373291,61.3754997253418,69.15635681152344
3154,-14.058283805847168,22.78721046447754,68.47008514404297,80.09556579589844
3155,-22.56281661987305,25.14708709716797,50.13335800170898,77.40283966064453
3156,-26.833782196044922,21.777437210083008,53.23747634887695,81.87950134277344
3157,-24.93391227722168,18.000139236450195,61.57745361328125,81.65510559082031
3158,-24.903993606567386,27.170373916625977,51.62931823730469,78.05731964111328
3159,-30.33806800842285,16.145147323608402,53.70496368408203,83.41285705566406
3160,-33.98073196411133,8.175421714782715,48.15495300292969,67.82121276855469
3161,-23.16493988037109,14.72398567199707,63.42122268676758,70.30451202392578
3162,-19.82894897460937,10.643754959106444,64.46091461181639,74.97564697265625
3163,-24.34300804138184,2.606710195541382,53.31601333618164,64.02521514892578
3164,-25.498638153076172,-2.7563061714172363,47.31721496582031,64.34684753417969
3165,-19.335283279418945,4.917968273162842,52.526893615722656,59.02497100830078
3166,-9.31609058380127,9.031858444213867,58.27886199951172,66.38509368896484
3167,-21.2388916015625,10.557737350463867,47.53038787841797,68.57293701171875
3168,-23.65486717224121,11.249619483947754,47.59770584106445,75.7311019897461
3169,-22.761030197143555,12.801677703857422,56.40517044067383,68.85343170166016
3170,-12.240692138671875,9.293651580810547,58.316261291503906,76.16119384765625
3171,-21.25385093688965,9.873335838317873,42.649818420410156,63.89432144165039
3172,-23.83812141418457,13.224286079406738,42.37306594848633,67.87731170654297
3173,-20.83124351501465,13.523478507995605,53.671302795410156,73.49838256835938
3174,-24.986270904541016,13.527217864990234,55.23084259033203,75.58525085449219
3175,-34.313583374023445,18.92763328552246,48.69723892211914,70.72338104248047
3176,-47.92307662963867,19.039831161499023,44.508548736572266,68.5467529296875
3177,-37.61591339111328,27.89591407775879,64.07196807861328,82.76959228515625
3178,-35.6225471496582,22.252405166625977,62.99861526489258,93.45075225830078
3179,-37.24940490722656,36.43036651611328,53.25243377685547,89.90906524658203
3180,-40.83222961425781,19.574636459350586,45.99328994750977,88.84319305419922
3181,-29.481632232666016,12.229473114013672,62.45632934570313,95.17858123779295
3182,-23.228519439697266,16.945486068725586,57.362586975097656,89.6846694946289
3183,-29.18991851806641,10.01545238494873,44.97229766845703,76.34444427490234
3184,-24.78805732727051,8.010866165161133,48.4990234375,73.22911071777344
3185,-17.308256149291992,2.715167284011841,57.39250564575195,73.43854522705078
3186,-17.39427375793457,8.927141189575195,47.64258575439453,57.08770370483398
3187,-25.057329177856445,3.4743671417236333,30.81303596496582,50.598976135253906
3188,-19.24178504943848,7.879969120025635,38.74910354614258,57.41681289672852
3189,-15.823516845703125,6.6495423316955575,47.51916885375977,63.905540466308594
3190,-14.518291473388672,19.039831161499023,51.52460098266602,57.92544174194336
3191,-16.100269317626953,19.941146850585934,45.9297103881836,71.10485076904297
3192,-19.174467086791992,8.276398658752441,45.74271774291992,70.72711944580078
3193,-14.727725982666016,12.102315902709961,55.61605072021485,79.71035766601562
3194,-10.116429328918457,21.799877166748047,57.29526901245117,87.07421875
3195,-22.12150764465332,14.776344299316404,39.58684158325195,88.35700988769531
3196,-27.86225509643555,18.92763328552246,46.11670684814453,97.50479888916016
3197,-29.036582946777344,22.1663875579834,59.09041976928711,91.8089370727539
3198,-26.01474380493164,21.88963508605957,56.54354858398438,97.6319580078125
3199,-34.878307342529304,24.126094818115234,52.18656539916992,95.88916778564452
3200,-35.76466369628906,14.398614883422852,46.02694702148438,91.51721954345705
3201,-27.256391525268555,12.726879119873047,56.70062255859375,85.17809295654297
3202,-25.023670196533203,21.283771514892575,54.91669082641602,87.16024017333984
3203,-36.23963165283203,18.725679397583008,44.56838607788086,75.51045227050781
3204,-47.10403823852539,6.967433452606201,41.741024017333984,73.4647216796875
3205,-25.042369842529297,6.211973667144775,54.90172958374024,72.80650329589844
3206,-19.33154296875,8.684047698974611,57.72909545898438,79.9272689819336
3207,-24.339269638061523,0.3253712952136993,43.06868743896485,67.12559509277344
3208,-17.992658615112305,6.821577548980713,46.10174560546875,76.50900268554688
3209,-11.582469940185547,17.308256149291992,60.69109725952149,85.76151275634766
3210,-5.594890117645264,28.550395965576172,65.89329528808594,88.04659271240234
3211,-16.717351913452152,19.683094024658203,58.92212295532226,88.26725006103516
3212,-25.360261917114254,10.374482154846193,51.5395622253418,82.90797424316406
3213,-19.950496673583984,18.005748748779297,60.69670486450195,86.06631469726562
3214,-19.460569381713867,9.639592170715332,59.07733154296875,79.76832580566406
3215,-25.997915267944336,14.400485038757324,51.17866134643555,85.24727630615234
3216,-33.20844268798828,4.089580535888672,53.78911209106445,98.87547302246094
3217,-36.51077270507813,11.5731201171875,55.666542053222656,79.01660919189453
3218,-23.12941169738769,17.160530090332028,65.36784362792969,87.79788970947266
3219,-24.726348876953125,17.209150314331055,64.96767425537111,92.66724395751952
3220,-33.503894805908196,20.818153381347656,56.24996566772461,81.99730682373047
3221,-25.36587142944336,17.80379295349121,64.01773834228516,76.31639862060547
3222,-26.050273895263672,17.26150894165039,59.22318649291992,73.96400451660156
3223,-34.311710357666016,11.064494132995604,39.9365234375,73.45537567138672
3224,-34.07235717773437,2.8778529167175293,38.75845336914063,81.40266418457031
3225,-32.32956695556641,13.222415924072266,44.67497634887695,65.74369812011719
3226,-17.743955612182614,12.235082626342773,51.0215835571289,75.63947296142578
3227,-14.980169296264648,9.029988288879396,44.10651016235352,75.75541687011719
3228,-26.96654891967773,3.906325578689575,41.331504821777344,74.54742431640625
3229,-15.660831451416016,0.37585994601249695,54.45855331420898,85.9578628540039
3230,-9.718130111694336,9.265602111816406,64.80685424804689,84.5740966796875
3231,-16.390111923217773,12.713789939880373,55.38604736328125,85.12386322021484
3232,-19.849519729614254,11.808733940124512,56.085411071777344,80.4003677368164
3233,-15.14472484588623,7.2871952056884775,72.2193374633789,83.007080078125
3234,-15.279361724853516,20.459123611450195,68.09049224853516,77.326171875
3235,-23.41364288330078,4.355113506317139,48.07080459594727,77.2251968383789
3236,-20.593759536743164,13.147618293762207,52.738197326660156,88.29529571533203
3237,-23.79511260986328,5.563101291656494,53.269264221191406,76.76144409179688
3238,-16.644424438476562,22.54972648620605,62.80974960327149,82.3039779663086
3239,-22.714282989501953,14.467803001403807,59.12968826293945,80.73322296142578
3240,-30.553112030029297,12.837206840515135,53.12714767456055,78.4481430053711
3241,-28.529827117919922,7.092720031738281,59.58221435546875,75.91249084472656
3242,-21.476375579833984,20.952789306640625,67.63422393798828,79.27839660644531
3243,-30.77376747131348,14.407964706420898,49.04691696166992,78.97920989990234
3244,-29.842531204223636,5.809934616088867,42.86860275268555,82.02722930908203
3245,-30.837345123291016,6.071727752685548,45.7184066772461,80.29939270019531
3246,-18.70137023925781,13.798360824584961,53.52731704711914,88.84506225585938
3247,-30.38481712341309,19.438129425048828,42.722747802734375,87.63707733154297
3248,-30.575551986694336,-3.958684206008911,40.24693298339844,89.533203125
3249,-22.430049896240234,15.339200019836426,49.41716766357422,78.09658813476562
3250,-13.783401489257812,28.765439987182614,61.53444290161133,88.31025695800781
3251,-23.731534957885746,20.37684440612793,51.38809585571289,73.40675354003906
3252,-26.790773391723636,10.0472412109375,47.93242645263672,68.69448089599611
3253,-24.23642158508301,7.8893189430236825,62.32356262207031,74.34547424316406
3254,-30.3062801361084,17.096952438354492,60.94353866577149,78.98668670654297
3255,-30.612951278686523,23.09575271606445,45.93532180786133,66.24485015869139
3256,-35.8936882019043,9.691950798034668,41.9448471069336,65.38092803955078
3257,-33.59739303588867,15.15968418121338,51.62744903564453,65.42955017089844
3258,-28.339092254638672,21.876544952392575,60.84256362915039,70.93094635009766
3259,-31.577844619750977,30.04074668884277,52.43152618408203,78.70619201660156
3260,-40.28059387207031,23.3051872253418,50.5765380859375,79.21855926513672
3261,-33.66844940185547,15.687010765075685,54.0209846496582,74.0761947631836
3262,-22.796560287475586,14.04893398284912,54.15562057495117,85.40435791015625
3263,-28.701862335205078,27.35175895690918,46.19711303710938,83.79994201660156
3264,-31.581584930419922,18.08054542541504,44.39448165893555,82.7265853881836
3265,-26.1213321685791,13.611366271972654,57.28217697143555,83.3249740600586
3266,-16.397590637207028,25.09285926818848,63.02666473388672,84.60401916503906
3267,-26.06523323059082,18.918283462524414,52.27070999145508,78.1900863647461
3268,-34.266834259033196,7.399392127990723,43.88959503173828,73.30204010009766
3269,-22.512327194213867,18.245101928710934,61.87477493286133,79.16246032714844
3270,-17.61305809020996,18.503154754638672,60.41621398925781,77.50942993164062
3271,-24.03072738647461,6.161485195159912,49.22643280029297,77.76000213623047
3272,-29.266586303710934,10.784001350402832,46.70199966430664,71.29371643066406
3273,-21.487594604492188,16.184417724609375,63.32959747314453,77.93203735351562
3274,-22.98729515075684,24.187803268432614,53.09722900390625,71.46575164794922
3275,-27.70330810546875,20.010334014892575,45.92410278320313,61.09500503540039
3276,-28.66820335388184,15.185863494873047,43.07803726196289,66.58143615722656
3277,-16.393852233886722,16.782800674438473,57.121360778808594,76.43233489990234
3278,-13.824540138244627,25.2536735534668,64.58994293212889,74.48011016845703
3279,-23.37998390197754,14.624878883361815,52.91397476196289,65.44077301025389
3280,-29.70041465759277,10.200576782226562,49.74628067016602,66.13265228271484
3281,-17.115652084350586,20.72091484069824,69.02920532226561,79.9141845703125
3282,-13.891858100891113,19.965456008911133,67.56690216064453,80.10491943359375
3283,-22.452489852905273,18.338600158691406,51.19361877441406,78.31724548339844
3284,-24.909603118896484,14.766995429992676,48.67292785644531,83.79994201660156
3285,-17.56443977355957,7.455490589141847,56.31354522705078,86.1635513305664
3286,-14.019015312194824,14.957730293273926,53.40764236450195,82.62934875488281
3287,-19.363332748413086,13.185017585754395,46.05499649047852,76.1181869506836
3288,-26.64117813110352,0.734890341758728,44.487979888916016,75.85639190673828
3289,-19.88691711425781,8.233389854431152,57.59259033203125,82.40495300292969
3290,-20.23472785949707,17.33256721496582,56.930625915527344,82.29650115966797
3291,-26.154991149902344,5.125533103942871,47.397621154785156,72.92057037353516
3292,-35.93482971191406,3.678191661834717,41.03979110717773,73.60123443603516
3293,-26.27092742919922,14.149911880493164,56.49305725097656,75.4188232421875
3294,-21.9962215423584,22.47492790222168,59.06985092163086,73.73960876464844
3295,-26.854351043701172,3.1620852947235107,44.914329528808594,75.71053314208984
3296,-25.552865982055664,31.0692195892334,45.46783447265625,70.27272033691406
3297,-22.91997718811035,8.996329307556152,59.95246505737305,78.51171875
3298,-13.506649017333984,21.999961853027344,58.5986213684082,74.09115600585938
3299,-17.280208587646484,20.97896957397461,45.98767852783203,69.94361114501953
3300,-17.818754196166992,12.897045135498047,48.18674087524414,82.41991424560547
3301,-20.732135772705078,10.825139999389648,53.59089660644531,77.40097045898438
3302,-20.343185424804688,15.268141746520994,55.77873611450195,85.61004638671875
3303,-23.215429306030273,18.742507934570312,49.25635147094727,92.4652862548828
3304,-25.24619483947754,13.072820663452148,45.82686233520508,97.7235870361328
3305,-21.38287734985352,4.744062900543213,47.34152221679688,89.57808685302734
3306,-19.961715698242188,17.19045066833496,55.4945068359375,92.10999298095705
3307,-22.91997718811035,23.271528244018555,50.05295181274414,91.14510345458984
3308,-35.317745208740234,6.097907066345215,47.71551513671875,86.92649841308594
3309,-27.35923767089844,10.563347816467283,57.0914421081543,75.13085174560547
3310,-16.345232009887695,20.2646484375,63.55773162841797,85.66989135742188
3311,-24.352357864379886,12.65769100189209,49.0506591796875,68.76927947998047
3312,-27.0899658203125,8.880392074584961,50.83459091186523,62.893898010253906
3313,-21.93264389038086,13.29721450805664,60.76776504516602,72.61763763427734
3314,-11.412304878234865,19.034221649169922,66.59452819824219,78.97920989990234
3315,-19.86821937561035,12.339799880981445,50.77849197387695,75.79281616210938
3316,-24.10178565979004,17.76265525817871,54.23041915893555,77.37104797363281
3317,-29.25910758972168,2.0700347423553467,55.48328399658203,68.23821258544922
3318,-21.33799934387207,20.72091484069824,57.74592590332031,73.79570770263672
3319,-22.071020126342773,19.793420791625977,51.55639266967773,83.90839385986328
3320,-28.82901954650879,9.886425971984863,43.25007247924805,75.61703491210938
3321,-25.10033798217773,9.16462516784668,49.06561660766602,76.42111206054688
3322,-20.451642990112305,12.998022079467773,53.11967086791992,70.8411865234375
3323,-21.308080673217773,21.66337013244629,51.47411346435547,75.80029296875
3324,-21.955081939697266,21.26320075988769,47.49485778808594,74.94385528564453
3325,-20.91539001464844,1.2696959972381592,51.0215835571289,67.93154144287111
3326,-13.861939430236815,15.821646690368652,56.38833999633789,73.88172149658203
3327,-20.75831413269043,15.354159355163574,51.040283203125,72.97666931152344
3328,-23.1406307220459,8.708356857299805,47.93242645263672,65.38092803955078
3329,-18.865924835205078,7.182477951049805,56.82590866088867,69.82392883300781
3330,-9.40397834777832,26.760854721069336,64.78441619873047,71.67892456054688
3331,-19.490488052368164,24.146663665771484,52.40534973144531,66.44306182861328
3332,-16.517267227172848,25.82588005065918,55.5132064819336,73.66107177734375
3333,-13.992835998535154,15.814167022705078,59.89262771606445,72.26234436035156
3334,-19.57276725769043,20.324485778808594,61.02581787109375,77.8086166381836
3335,-21.842885971069336,19.22495651245117,50.07538986206055,75.93119049072266
3336,-33.133644104003906,5.29382848739624,46.0699577331543,66.0877685546875
3337,-24.01202774047852,17.26150894165039,53.54227828979492,69.70799255371094
3338,-21.09864616394043,10.073420524597168,50.89068984985352,64.25148010253906
3339,-26.244747161865234,18.304941177368164,41.544677734375,61.89534378051758
3340,-21.52125358581543,12.21638298034668,48.16804122924805,64.95458221435547
3341,-17.26150894165039,18.37599754333496,56.33598327636719,63.01731491088867
3342,-16.94361686706543,23.17803001403809,57.192420959472656,74.56986236572266
3343,-27.61355209350586,20.61619758605957,47.80900955200195,77.7899169921875
3344,-35.4112434387207,9.957483291625977,40.77799987792969,55.78434753417969
3345,-23.742753982543945,15.855305671691895,51.784523010253906,61.44281768798828
3346,-21.319299697875977,20.02529525756836,62.82844924926758,64.07944488525389
3347,-23.11819076538086,25.455629348754886,55.28133010864258,64.90596008300781
3348,-31.04303932189941,15.559853553771973,57.21860122680664,73.54513549804688
3349,-30.36237716674805,16.655645370483402,59.32416152954102,74.54742431640625
3350,-17.908510208129886,31.09913825988769,66.83762359619139,83.7101821899414
3351,-31.6676025390625,13.94421672821045,50.54287719726562,80.46395111083984
3352,-33.66096878051758,15.301800727844238,51.35443496704102,76.91477966308594
3353,-25.85579872131348,14.086333274841307,65.08361053466797,75.11589050292969
3354,-19.969196319580078,22.175737380981445,70.44662475585938,84.78726959228516
3355,-31.693782806396484,16.663124084472653,56.79598999023438,80.95761108398438
3356,-33.15234375,11.674098014831545,48.878623962402344,65.03311920166016
3357,-35.25416564941406,1.9466179609298704,56.048011779785156,73.2945556640625
3358,-28.223154067993164,11.82369327545166,52.92893600463867,71.67892456054688
3359,-29.44236183166504,18.050626754760746,47.19940567016602,72.3446273803711
3360,-28.14461708068848,15.98994255065918,51.83314514160156,74.95881652832031
3361,-22.1719970703125,21.81670570373535,56.95680618286133,73.09260559082031
3362,-17.351264953613278,23.92226982116699,64.21221160888672,83.74384307861328
3363,-23.07705307006836,18.925764083862305,55.12799453735352,69.34522247314453
3364,-29.3787841796875,23.33884620666504,52.59608459472656,77.07933807373047
3365,-26.917930603027344,15.163424491882324,57.37941360473633,73.8742446899414
3366,-19.73358154296875,29.289026260375977,66.18688201904297,85.80452728271484
3367,-26.86557197570801,20.4404239654541,55.01579666137695,86.5412826538086
3368,-28.43632888793945,13.532828330993652,48.90854263305664,86.31314849853516
3369,-23.05087280273437,5.525701999664307,57.16250228881836,83.19033813476562
3370,-11.049534797668457,24.124225616455078,69.38075256347656,84.69377136230469
3371,-16.651905059814453,22.76664161682129,57.4542121887207,92.72708129882812
3372,-25.87823867797852,11.50206184387207,56.34346389770508,88.13448333740234
3373,-20.76579475402832,11.494582176208494,66.54965209960939,85.36695861816406
3374,-16.861339569091793,18.798606872558594,76.00411987304688,81.99356842041016
3375,-24.51317405700684,15.170904159545898,64.01773834228516,80.32556915283203
3376,-30.84856414794922,18.62283134460449,57.1325798034668,68.01007843017578
3377,-24.8310661315918,16.206855773925778,63.77838516235352,72.01551055908203
3378,-25.06293869018555,15.260662078857422,58.295692443847656,76.40241241455078
3379,-32.894290924072266,11.868572235107422,47.46120071411133,66.40940093994139
3380,-39.51391220092773,4.385032653808594,44.487979888916016,68.39903259277344
3381,-29.509679794311523,11.883532524108887,58.6285400390625,68.50000762939453
3382,-16.93613624572754,19.82707977294922,61.6167221069336,73.78074645996094
3383,-23.36502456665039,17.594358444213867,53.84521102905274,75.26922607421875
3384,-28.241853713989254,16.749141693115234,50.04920959472656,70.23532104492189
3385,-21.36043930053711,5.600500106811523,52.93267440795898,69.24424743652344
3386,-16.734182357788086,9.374059677124023,48.71406555175781,71.54802703857422
3387,-18.592912673950195,15.54115390777588,45.23970031738281,82.82756805419922
3388,-30.684009552001953,9.587233543395996,45.59125137329102,76.35379791259766
3389,-26.40556335449219,4.916098594665527,59.06985092163086,78.71741485595703
3390,-21.4501953125,10.294075012207033,60.80890274047852,89.22653198242188
3391,-34.558544158935554,5.720177173614503,49.66400146484375,81.41387939453125
3392,-33.43283462524414,15.93010425567627,48.61309051513672,87.70439147949219
3393,-28.09225845336914,20.773273468017575,57.38689422607422,97.36455535888672
3394,-28.264293670654297,18.918283462524414,52.8354377746582,84.09912872314453
3395,-30.01830673217773,15.002608299255373,44.35708236694336,81.35030364990234
3396,-34.708141326904304,15.163424491882324,42.6367301940918,81.23062896728516
3397,-30.20530128479004,15.241962432861328,55.30002975463867,73.54513549804688
3398,-27.89030456542969,18.93324279785156,57.97406005859375,78.1115493774414
3399,-22.96111488342285,24.81610679626465,53.2767448425293,80.90525817871094
3400,-26.656137466430664,14.550081253051758,48.50837326049805,63.77277374267578
3401,-23.002254486083984,18.577953338623047,56.79973220825195,66.69737243652344
3402,-16.330272674560547,10.8101806640625,61.31005096435547,67.65853118896484
3403,-24.85724449157715,7.440530776977539,44.64879608154297,65.52678680419922
3404,-28.15209770202637,3.8165678977966313,39.77944564819336,56.46126937866211
3405,-21.4501953125,4.134459495544434,47.15826797485352,65.706298828125
3406,-14.609919548034668,17.37370491027832,50.77849197387695,71.3273696899414
3407,-22.12337875366211,20.294567108154297,40.87897491455078,71.66022491455078
3408,-31.940614700317386,6.602793216705322,37.2774543762207,73.84806823730469
3409,-28.705602645874023,21.14726448059082,47.81275177001953,76.39493560791016
3410,-23.207948684692386,24.77122688293457,64.62360382080078,87.01998901367188
3411,-26.450443267822266,27.007686614990234,51.552650451660156,88.35887908935547
3412,-35.22050857543945,14.972689628601074,51.18239974975586,89.67532348632812
3413,-23.17803001403809,13.342093467712402,54.451072692871094,82.19926452636719
3414,-22.867618560791016,14.744555473327635,59.62896347045898,81.67567443847656
3415,-24.371057510375977,10.668065071105957,46.41589736938477,79.84312438964844
3416,-32.64745712280273,22.94241714477539,47.84828186035156,83.03325653076172
3417,-31.89199638366699,16.902477264404293,54.33700561523438,83.44091033935547
3418,-27.43403625488281,24.6365909576416,64.70401000976561,81.43632507324219
3419,-27.744447708129886,12.01068878173828,51.66671752929688,76.87364196777344
3420,-29.66301727294922,4.616906642913818,56.26679611206055,73.62367248535156
3421,-19.88691711425781,6.397099018096924,56.17329788208008,67.62487030029297
3422,-15.4551362991333,3.21070408821106,58.95578384399414,61.54379272460938
3423,-20.03651428222656,11.37864589691162,45.33880615234375,58.69025039672852
3424,-30.04074668884277,6.845886707305907,35.84694290161133,34.37342071533203
3425,-31.25247383117676,16.737922668457028,47.04794311523438,39.89725112915039
3426,-14.998868942260742,22.76664161682129,54.6212387084961,55.98256301879883
3427,-32.96160888671875,30.71392822265625,46.83850860595703,66.0877685546875
3428,-37.7075424194336,20.806934356689453,45.82499313354492,70.25402069091797
3429,-32.62127685546875,3.494936466217041,50.22685623168945,63.52968215942383
3430,-19.243656158447266,12.481916427612305,59.00440216064453,77.7712173461914
3431,-30.137983322143555,10.944817543029783,46.49817657470703,75.00369262695312
3432,-30.50823402404785,0.7909888625144958,49.6135139465332,88.22798156738281
3433,-23.024694442749023,4.048441886901856,57.99462890625,81.1595687866211
3434,-13.94047737121582,12.137845039367676,65.6240234375,79.65238952636719
3435,-29.292766571044922,11.71523666381836,58.86976623535156,76.59315490722656
3436,-30.36237716674805,17.822492599487305,53.0542221069336,70.85240173339844
3437,-27.56493186950684,14.355606079101562,58.757568359375,67.82682800292969
3438,-25.560346603393555,11.83491325378418,67.41917419433594,77.29624938964844
3439,-28.892597198486328,17.893550872802734,59.43075180053711,58.50325393676758
3440,-29.85375213623047,8.435344696044924,50.316612243652344,48.77203369140625
3441,-24.91334342956543,4.545848369598389,55.41783905029297,53.626426696777344
3442,-19.95423698425293,14.378045082092285,57.63933944702149,49.75188827514648
3443,-29.99960708618164,16.569625854492188,46.53183364868164,51.25906753540039
3444,-32.991527557373054,12.309880256652832,43.74187088012695,64.68904876708984
3445,-30.437175750732425,15.043747901916506,48.66731643676758,67.55755615234375
3446,-29.95846939086914,22.72550201416016,48.74211502075195,72.0903091430664
3447,-43.23511505126953,28.57470512390137,38.39007186889648,84.0505142211914
3448,-41.83264923095703,24.23642158508301,43.73065185546875,98.101318359375
3449,-39.85424423217773,24.988142013549805,54.30708694458008,97.08406066894531
3450,-33.69836807250977,14.101292610168455,56.63330459594727,93.42269897460938
3451,-34.539844512939446,20.51148223876953,52.83356857299805,86.15233612060547
3452,-38.26852798461914,5.207810878753662,47.73982238769531,76.56697082519531
3453,-27.23208236694336,7.922977924346924,60.78833389282226,78.8109130859375
3454,-20.537660598754886,19.770980834960934,66.23736572265625,84.64141845703125
3455,-33.877883911132805,1.8606002330780032,49.68083190917969,72.31096649169922
3456,-35.72539520263672,11.700277328491213,49.78180694580078,70.89728546142578
3457,-36.54443359375,20.17115020751953,60.34702682495117,57.70291519165039
3458,-30.38855743408203,22.72550201416016,66.28598785400389,68.98993682861328
3459,-39.81310653686523,29.049673080444336,57.51592254638672,64.36367797851561
3460,-46.99745178222656,16.360193252563473,47.89315795898438,58.3760986328125
3461,-34.88391494750977,15.982462882995605,51.45728302001953,52.97942352294922
3462,-28.32787132263184,23.215429306030273,54.83815383911133,55.193443298339844
3463,-22.523548126220703,36.83240509033203,50.05855941772461,48.218528747558594
3464,-29.158130645751953,13.375752449035645,41.3445930480957,47.49673080444336
3465,-23.52958106994629,7.717283725738525,49.95384216308594,57.38502502441406
3466,-17.160530090332028,16.775321960449222,52.13794708251953,67.38552093505861
3467,-29.52090072631836,27.54249382019043,48.64113998413086,64.96954345703125
3468,-34.68570327758789,11.62921905517578,45.37246704101562,81.40640258789062
3469,-32.98404693603516,4.1606388092041025,48.19235229492188,90.636474609375
3470,-27.63973045349121,14.493982315063475,48.28210830688477,88.40375518798828
3471,-32.849411010742195,9.052428245544434,41.18377685546875,92.81683349609376
3472,-36.98200225830078,3.0947673320770264,40.06180953979492,87.1434097290039
3473,-28.26055335998535,0.6563524603843689,58.61171340942383,99.0699462890625
3474,-19.266094207763672,8.431604385375978,60.73223495483398,86.8030776977539
3475,-28.133398056030273,12.840946197509766,52.56429290771485,74.72694396972656
3476,-29.083332061767575,15.97872257232666,54.29960632324219,72.82333374023438
3477,-29.35634422302246,16.42751121520996,66.61509704589844,75.16451263427734
3478,-24.169103622436523,28.79909896850586,70.34378051757811,61.67469024658203
3479,-40.55360412597656,24.99188232421875,60.27970886230469,51.26654815673828
3480,-49.22643280029297,17.04085350036621,48.78699493408203,46.16532516479492
3481,-50.85329055786133,23.002254486083984,49.744407653808594,43.91016387939453
3482,-46.4439468383789,21.637191772460934,44.90871810913086,43.139747619628906
3483,-54.78018569946289,32.553958892822266,30.513843536376953,47.88193893432617
3484,-61.216552734375,23.49592208862305,23.36689567565918,43.753089904785156
3485,-50.11652755737305,28.30917358398437,40.76865005493164,58.626670837402344
3486,-40.51246643066406,23.45852279663086,41.583946228027344,67.75202941894531
3487,-44.43562316894531,19.752281188964844,33.434703826904304,73.28334045410156
3488,-44.5440788269043,9.411458015441896,40.37596130371094,86.66096496582031
3489,-35.63189697265625,23.98584747314453,52.54559326171875,94.02108764648438
3490,-27.101184844970703,21.4501953125,60.16003036499024,94.62320709228516
3491,-34.307971954345696,18.252582550048828,55.18970489501953,99.7468719482422
3492,-31.791019439697266,19.894397735595703,54.42302322387695,94.52597045898438
3493,-23.742753982543945,10.185617446899414,49.78180694580078,86.74697875976562
3494,-19.67000389099121,11.38238525390625,61.10248565673828,84.5105209350586
3495,-25.87449836730957,4.515929222106934,45.19295120239258,79.2522201538086
3496,-25.55660629272461,9.340399742126463,39.34748840332031,70.86736297607422
3497,-22.718021392822266,13.5477876663208,46.13914489746094,54.69229507446289
3498,-18.686410903930664,11.920930862426758,51.5283432006836,52.17908477783203
3499,-20.01781463623047,19.69618225097656,44.02984237670898,52.50071716308594
3500,-31.185155868530273,14.508941650390625,41.72980499267578,40.592872619628906
3501,-29.54333877563477,1.838160872459412,54.75961685180664,50.62328720092773
3502,-24.083086013793945,16.708003997802734,63.22674942016602,39.257728576660156
3503,-27.86786460876465,22.317853927612305,57.10453414916992,38.36389541625977
3504,-31.32727241516113,26.88053131103516,55.3542594909668,34.437000274658196
3505,-34.689441680908196,23.462263107299805,62.48250961303711,44.80774307250977
3506,-32.452980041503906,25.29481315612793,58.24894332885742,52.74007034301758
3507,-33.690887451171875,29.47976112365723,44.99099731445313,61.95144271850586
3508,-43.392189025878906,14.419184684753418,35.876861572265625,66.81705474853516
3509,-35.80767059326172,19.247394561767575,46.842247009277344,74.22205352783203
3510,-26.90670967102051,22.130857467651367,46.763710021972656,80.74443817138672
3511,-39.92156219482422,11.808733940124512,28.41950035095215,84.39832305908203
3512,-30.32123947143555,11.90597152709961,27.42094612121582,85.83444213867188
3513,-19.7186222076416,-14.968949317932127,33.042015075683594,88.88246154785156
3514,-8.5213623046875,8.106233596801758,45.69409942626953,88.84132385253906
3515,-16.737922668457028,-7.608826637268066,40.162784576416016,80.0600357055664
3516,-15.197083473205565,-3.307941436767578,44.08967971801758,78.04423522949219
3517,-14.935290336608887,2.2233705520629883,57.01103591918945,74.15847778320312
3518,-8.618599891662598,-9.130966186523438,55.59361267089844,71.19647216796875
3519,-15.589773178100586,10.05846118927002,58.21902084350586,66.63005828857422
3520,-23.974628448486328,1.1799384355545044,50.67564392089844,57.6019401550293
3521,-21.326780319213867,9.815367698669434,62.77796173095703,58.66407012939453
3522,-18.37599754333496,8.360546112060549,68.84781646728516,66.21118927001953
3523,-32.355743408203125,7.025402069091798,53.099098205566406,54.583839416503906
3524,-37.05305862426758,4.9759368896484375,48.12503433227539,55.73199081420898
