,T7,F8,Cz,P4
8000,-40.74995040893555,2.320607900619507,38.20494842529297,33.18600082397461
8001,-38.75284194946289,-3.1022469997406006,24.408456802368164,39.345619201660156
8002,-37.85152816772461,4.534628868103027,31.58532524108887,48.18300247192383
8003,-30.704578399658203,-2.5562217235565186,45.37059783935547,51.511512756347656
8004,-38.498531341552734,-2.5637013912200928,35.25042724609375,38.71357345581055
8005,-42.34688568115234,7.6985840797424325,29.524641036987305,39.37179565429688
8006,-35.330833435058594,6.572874069213867,31.29361343383789,42.042083740234375
8007,-42.982669830322266,9.777968406677246,40.17213439941406,38.492919921875
8008,-46.18776321411133,-1.696044683456421,32.81201171875,31.51426696777344
8009,-44.05228042602539,5.959530353546143,28.398929595947266,31.53670692443848
8010,-38.01982116699219,14.983909606933596,36.10686492919922,44.28228378295898
8011,-42.35062789916992,7.02166223526001,39.78318405151367,37.73746109008789
8012,-44.261714935302734,10.35391330718994,44.424400329589844,40.03376007080078
8013,-46.954444885253906,8.846733093261719,28.9860954284668,33.85918426513672
8014,-37.74681091308594,13.790881156921387,35.138229370117195,42.79754638671875
8015,-46.572975158691406,-10.0472412109375,36.62297058105469,26.62995719909668
8016,-42.55632019042969,0.05422854796051979,40.8116569519043,32.37444305419922
8017,-41.393211364746094,8.884132385253906,29.90237045288086,34.93253707885742
8018,-33.726417541503906,11.472143173217773,30.62042999267578,43.4408073425293
8019,-35.330833435058594,2.5898807048797607,38.93796920776367,33.47023391723633
8020,-35.304656982421875,3.453797578811645,40.79669952392578,31.48808860778809
8021,-38.70048522949219,11.404825210571287,27.69582939147949,33.78812789916992
8022,-33.49454498291016,14.662278175354006,34.09853744506836,40.13847732543945
8023,-42.1075325012207,2.758176326751709,37.81973648071289,28.92999649047852
8024,-42.17859268188477,2.253289699554444,31.50678634643555,24.85350608825684
8025,-43.80170822143555,-0.03552905097603798,22.830219268798828,29.94350814819336
8026,-33.012096405029304,21.154743194580078,36.48459243774414,46.9039535522461
8027,-50.48865127563477,3.5510349273681636,34.21073532104492,34.54358673095703
8028,-51.29272842407226,12.313620567321776,35.59823608398437,33.776905059814446
8029,-55.13360595703125,14.026494979858398,21.180923461914066,31.734920501708984
8030,-50.619544982910156,14.871711730957033,25.12651824951172,41.97102737426758
8031,-49.77806854248047,15.552373886108398,34.562286376953125,35.100830078125
8032,-46.93574523925781,10.0472412109375,37.7000617980957,37.53176498413086
8033,-45.22286987304688,16.573366165161133,31.48434829711914,36.985740661621094
8034,-45.166770935058594,17.605579376220703,38.750972747802734,35.10457229614258
8035,-41.71484375,9.983662605285645,40.800437927246094,30.42969512939453
8036,-38.56210708618164,9.65455150604248,42.68534851074219,29.651796340942386
8037,-41.3520736694336,5.93709135055542,33.39169692993164,29.47976112365723
8038,-37.84404754638672,14.781954765319824,37.34477233886719,35.98718643188477
8039,-38.94357681274414,3.652012348175049,41.95232772827149,34.23317337036133
8040,-40.50685501098633,0.921885311603546,38.04787063598633,31.95931434631348
8041,-33.03827667236328,10.391311645507812,38.28722763061523,35.22424697875977
8042,-38.2516975402832,12.089226722717285,32.29216766357422,35.37010192871094
8043,-37.0960693359375,11.920930862426758,43.59414291381836,39.07260513305664
8044,-44.19439697265625,9.048687934875488,39.45407485961914,31.114097595214844
8045,-50.97109603881836,14.243409156799315,23.742753982543945,33.369258880615234
8046,-41.78216171264648,16.68182373046875,37.7000617980957,47.887550354003906
8047,-55.14482498168945,6.232543468475343,32.34452438354492,32.389404296875
8048,-55.960121154785156,-0.3235013484954834,30.69522857666016,29.550819396972656
8049,-46.15036392211914,15.114805221557615,37.59534454345703,38.320884704589844
8050,-39.268951416015625,21.46515655517578,44.30846405029297,38.807071685791016
8051,-42.38802719116211,6.887025833129883,44.936767578125,31.63020324707031
8052,-44.48611068725586,5.435944557189941,45.00034713745117,27.157283782958984
8053,-38.76780319213867,12.713789939880373,37.25875473022461,32.393142700195305
8054,-37.86648559570313,12.220123291015625,43.25755310058594,34.745540618896484
8055,-40.42083740234375,2.4926433563232417,47.61453628540039,30.717668533325195
8056,-39.66164016723633,3.8352673053741455,45.54637145996094,28.70934295654297
8057,-40.25254440307617,14.359345436096193,36.86606216430664,27.41533660888672
8058,-39.93465042114258,8.252089500427246,36.144264221191406,32.460460662841804
8059,-39.19415283203125,4.381292819976807,42.52453231811523,36.71272659301758
8060,-41.314674377441406,4.766502380371094,43.089256286621094,33.99008178710937
8061,-35.43181228637695,12.074267387390135,38.63129806518555,42.55071258544922
8062,-32.866241455078125,8.154851913452147,38.5228385925293,50.95052719116211
8063,-43.139747619628906,-4.9759368896484375,35.97596740722656,42.3188362121582
8064,-44.6955451965332,-9.179584503173828,29.741554260253906,36.5967903137207
8065,-41.02296447753906,-5.9258713722229,25.44067001342773,40.95003509521485
8066,-34.01813125610352,5.174151420593262,32.99526596069336,48.81878280639648
8067,-38.16193771362305,-5.959530353546143,45.75206756591797,39.5550537109375
8068,-42.975189208984375,-11.128072738647461,41.91119003295898,29.88367080688477
8069,-40.36473846435547,5.888472557067871,42.39363479614258,33.986339569091804
8070,-41.52784729003906,6.647672176361084,41.032310485839844,35.7515754699707
8071,-39.35870742797852,7.496629238128662,50.21002578735352,38.44430160522461
8072,-47.23867797851562,-1.782062292098999,43.84097671508789,31.65264320373535
8073,-32.529651641845696,6.89076566696167,41.204349517822266,39.88416290283203
8074,-39.7775764465332,1.6399461030960083,42.382415771484375,37.599082946777344
8075,-38.52470779418945,1.9241784811019895,53.9798469543457,41.5558967590332
8076,-39.01089477539063,-0.14772604405879974,49.073097229003906,41.0996322631836
8077,-38.72666549682617,5.278868675231934,35.53839874267578,42.78632354736328
8078,-35.55896759033203,-0.7984686493873596,42.79380416870117,43.67267990112305
8079,-37.78421020507813,1.6100269556045532,45.96897888183594,37.39712905883789
8080,-42.073875427246094,-0.3197614550590515,44.46554183959961,35.87125015258789
8081,-40.85466766357422,6.845886707305907,39.48773193359375,33.86292266845703
8082,-42.74705505371094,11.876051902770994,40.871498107910156,31.98549461364746
8083,-42.38802719116211,1.7184840440750122,47.86510848999024,31.551666259765625
8084,-44.80026245117188,1.213597536087036,44.88066864013672,30.79246711730957
8085,-44.508548736572266,6.243762969970702,44.009273529052734,33.421615600585945
8086,-37.32794189453125,4.6243863105773935,52.40534973144531,39.07260513305664
8087,-41.93549728393555,5.372366428375244,56.11532974243164,32.202407836914055
8088,-38.45738983154297,8.487703323364258,50.38580322265625,25.519207000732425
8089,-37.350379943847656,12.564193725585938,43.85593795776367,31.30109214782715
8090,-30.775636672973636,13.686163902282715,42.08696365356445,43.53056716918945
8091,-36.0638542175293,11.969550132751465,46.48508834838867,45.88670349121094
8092,-43.04250717163086,3.6482725143432617,38.06283187866211,40.41522979736328
8093,-37.94876480102539,2.70955753326416,34.023738861083984,44.63383483886719
8094,-30.65970039367676,5.90343189239502,39.13618469238281,53.14210891723633
8095,-39.317569732666016,-5.4135050773620605,41.38386154174805,38.664955139160156
8096,-37.578514099121094,-0.9181454181671144,41.87752914428711,38.8444709777832
8097,-36.871673583984375,0.4656175374984741,31.76857948303223,42.32257843017578
8098,-26.11198234558105,2.9414312839508057,36.83988571166992,44.67871475219727
8099,-34.65017318725586,-5.854813575744629,40.19831466674805,39.678466796875
8100,-36.10499572753906,-12.448257446289062,37.31485366821289,31.895736694335934
8101,-37.18582534790039,-1.049041986465454,34.397727966308594,35.95726776123047
8102,-26.175559997558594,-1.41181218624115,39.091304779052734,37.45696640014648
8103,-31.014989852905273,1.8531204462051392,45.82686233520508,35.7515754699707
8104,-36.16109085083008,0.4581377506256104,44.487979888916016,25.96799468994141
8105,-40.630271911621094,10.376352310180664,40.83783721923828,33.43283462524414
8106,-37.19330596923828,9.96496295928955,40.037498474121094,38.851951599121094
8107,-43.62967300415039,6.801008224487305,45.57255172729492,41.57085800170898
8108,-39.83367538452149,1.755882978439331,42.49087524414063,39.24090194702149
8109,-42.16737365722656,5.2526893615722665,31.54418563842773,44.577735900878906
8110,-42.14493179321289,2.7806155681610107,28.978614807128906,43.83349609375
8111,-41.082801818847656,-4.471050262451172,38.53031921386719,41.64565658569336
8112,-44.3851318359375,-12.01068878173828,29.02349281311035,43.76617813110352
8113,-36.31816864013672,-4.422431468963623,26.633697509765625,48.80756378173828
8114,-29.09642219543457,3.607133388519287,37.139076232910156,51.23101806640625
8115,-30.745718002319336,-16.790281295776367,40.96499252319336,47.45372009277344
8116,-29.758384704589844,-16.27791404724121,46.12605667114258,41.05849075317383
8117,-31.8377685546875,-5.8772525787353525,42.13558197021485,36.525733947753906
8118,-23.475351333618164,8.252089500427246,53.60211563110352,46.0699577331543
8119,-33.636661529541016,-8.050134658813478,53.44504165649414,32.460460662841804
8120,-32.469810485839844,-1.437991499900818,57.10640335083008,30.025787353515625
8121,-25.54725646972656,2.8928127288818364,45.38555526733398,36.36865615844727
8122,-24.47764587402344,-5.207810878753662,50.76727294921875,39.58871078491211
8123,-25.75295066833496,8.940230369567871,59.38400268554688,40.61344528198242
8124,-38.69674301147461,0.5815544724464417,47.26298522949219,34.00130081176758
8125,-42.01403427124024,13.40567111968994,46.8141975402832,38.26478576660156
8126,-42.982669830322266,8.966409683227539,47.39014053344727,46.81793594360352
8127,-39.95335006713867,0.39829933643341053,51.18614196777344,55.76004028320313
8128,-45.57442092895508,-6.513035774230957,38.85943222045898,42.819984436035156
8129,-39.93465042114258,-8.237129211425781,32.30712509155273,46.141014099121094
8130,-34.167724609375,-8.839253425598145,26.3681640625,46.30557250976562
8131,-43.266902923583984,-21.554912567138672,27.59111213684082,34.135936737060554
8132,-37.80290985107422,-20.133750915527344,28.499908447265625,36.14800262451172
8133,-38.34519577026367,-12.429557800292967,27.385417938232425,40.77799987792969
8134,-22.91436767578125,-2.1261332035064697,34.85399627685547,47.40884017944336
8135,-25.625795364379886,-4.852519989013672,44.79091262817383,40.87897491455078
8136,-28.370880126953125,-18.9556827545166,48.60187149047852,33.919021606445305
8137,-26.089542388916016,-4.448610782623291,50.677513122558594,43.089256286621094
8138,-26.160600662231445,3.5622546672821045,59.3615608215332,39.70090866088867
8139,-24.26447105407715,-7.930458068847656,58.17975234985352,35.42620086669922
8140,-28.509258270263672,-3.969903707504273,60.49101257324219,30.89718437194824
8141,-18.766817092895508,-2.3617467880249023,58.35926818847656,38.934226989746094
8142,-22.443140029907227,1.168718695640564,55.86475372314453,43.1004753112793
8143,-22.90314674377441,-5.368626594543457,62.19640731811523,39.996360778808594
8144,-30.92149353027344,-11.610519409179688,57.76836395263672,39.73082733154297
8145,-34.70627212524414,1.4492112398147583,47.25924682617188,39.14366149902344
8146,-31.99110412597656,0.7423701286315918,40.63214492797852,44.39074325561523
8147,-41.02296447753906,-16.981016159057614,39.25960159301758,36.67158889770508
8148,-40.18522644042969,-10.914897918701172,36.99322128295898,36.177921295166016
8149,-33.86853408813477,-5.851073265075684,29.318944931030273,41.76159286499024
8150,-38.70796585083008,-7.990296363830566,25.68376350402832,41.08467102050781
8151,-37.873966217041016,-13.020462036132812,28.90381622314453,40.45262908935547
8152,-40.61531448364258,-9.47503662109375,25.66132354736328,41.51102066040039
8153,-41.18003845214844,-2.731997013092041,17.859891891479492,45.31449890136719
8154,-32.144439697265625,6.139045715332031,30.31001853942871,55.36360931396485
8155,-35.56644821166992,0.5852943658828735,36.72394943237305,46.802978515625
8156,-31.403940200805664,-12.425817489624025,39.40171432495117,49.51814651489258
8157,-28.88324737548828,-1.0153828859329224,45.6772689819336,51.47037124633789
8158,-18.254451751708984,2.0363755226135254,61.07443618774414,54.3613166809082
8159,-24.309349060058594,-10.342693328857422,66.44866943359375,44.02797317504883
8160,-29.904239654541016,-2.675898313522339,64.16733551025389,42.87982177734375
8161,-30.92897224426269,-9.35536003112793,52.10989761352539,41.94858932495117
8162,-24.698299407958984,-0.9405848383903505,58.72578048706055,50.10905075073242
8163,-32.9410400390625,-13.36827278137207,55.12051391601562,47.37518310546875
8164,-43.165924072265625,-15.73936939239502,38.130149841308594,45.55385208129883
8165,-38.3115348815918,-12.564193725585938,26.061492919921875,59.23066711425781
8166,-37.63087463378906,-16.947357177734375,25.926856994628906,61.07069778442383
8167,-31.729310989379886,-26.506540298461914,37.46070861816406,58.81927490234375
8168,-36.31068801879883,-23.933488845825195,29.18804931640625,54.54830932617188
8169,-32.40997314453125,-16.93613624572754,24.352357864379886,61.49330520629883
8170,-33.17291259765625,-20.178630828857425,27.20590209960937,59.80661010742188
8171,-27.63412094116211,-19.774721145629886,40.018798828125,58.73699951171875
8172,-28.830888748168945,-25.33221244812012,33.83300399780273,55.1541748046875
8173,-30.16977310180664,-18.727548599243164,30.089365005493164,55.41596603393555
8174,-28.75983047485352,-12.279961585998535,37.520545959472656,58.16105270385742
8175,-31.00377082824707,-13.68242359161377,43.27625274658203,57.56267166137695
8176,-37.496238708496094,-7.986556529998778,39.570011138916016,51.13752365112305
8177,-30.966371536254886,-2.5898807048797607,49.26757049560547,63.77838516235352
8178,-28.92438697814941,-3.5884339809417725,52.60356140136719,57.7833251953125
8179,-34.25748443603516,-11.76385498046875,60.88370132446289,49.46578598022461
8180,-38.43495178222656,-15.15968418121338,58.11243438720703,49.74628067016602
8181,-37.58599472045898,-7.91549825668335,45.568809509277344,50.19132614135742
8182,-33.73015594482422,-5.548141479492188,38.43682098388672,58.66968154907226
8183,-31.460039138793945,-26.05775260925293,43.197715759277344,49.5031852722168
8184,-41.56150817871094,-25.61644554138184,35.755313873291016,45.93157958984375
8185,-35.151321411132805,-14.67162799835205,34.71375274658203,49.18716430664063
8186,-27.42094612121582,-10.69611358642578,34.86334609985352,48.73463821411133
8187,-31.77419090270996,-29.40683364868164,31.987363815307614,36.62858200073242
8188,-34.724971771240234,-18.288110733032227,31.97614479064941,38.92113876342773
8189,-30.77189636230469,-13.12704849243164,25.629533767700195,48.27088928222656
8190,-34.93440628051758,-14.226579666137695,19.5372371673584,41.87939834594727
8191,-36.13491439819336,-2.726387023925781,14.7950439453125,48.73463821411133
8192,-40.742469787597656,2.45337438583374,18.79673767089844,41.15011978149414
8193,-41.688663482666016,-8.358675956726074,26.669225692749023,39.99074935913086
8194,-42.41420364379883,-7.072150707244872,22.099069595336914,36.25833129882813
8195,-42.4254264831543,-0.8863562941551208,16.545316696166992,40.73125076293945
8196,-32.286556243896484,6.548564910888673,30.278230667114254,48.53268051147461
8197,-44.740421295166016,-12.32671070098877,26.7028865814209,30.723278045654297
8198,-46.02694702148438,-11.335637092590332,21.4146671295166,30.461484909057614
8199,-39.41106414794922,-3.126556396484375,13.19810676574707,35.2298583984375
8200,-34.61277389526367,-1.0546517372131348,19.29414367675781,43.19210433959961
8201,-43.51373672485352,-11.642308235168455,19.89626693725586,32.31647491455078
8202,-41.46800994873047,-6.776698589324951,16.08905029296875,27.383546829223636
8203,-37.5710334777832,-0.9087957143783568,14.349996566772461,36.355567932128906
8204,-34.878307342529304,-8.403554916381836,15.255051612854006,36.31068801879883
8205,-39.18667221069336,-12.367849349975586,16.549057006835938,27.892173767089844
8206,-36.98387145996094,-12.663301467895508,12.622162818908693,27.98567199707031
8207,-35.74596405029297,-5.8903422355651855,3.795998573303223,30.985071182250977
8208,-35.585147857666016,-2.4122354984283447,10.617575645446776,34.68383407592773
8209,-40.45823669433594,2.3075182437896733,21.69141960144043,33.924633026123054
8210,-43.17340469360352,-8.7999849319458,20.034643173217773,33.210311889648445
8211,-44.46741104125977,-1.495959997177124,15.154074668884276,37.58599472045898
8212,-31.201984405517575,4.020392417907715,22.94428634643555,41.13142013549805
8213,-32.959739685058594,1.783932328224182,29.08894157409668,35.6636848449707
8214,-39.62797927856445,-17.21101951599121,17.850542068481445,29.227317810058594
8215,-40.10668563842773,-0.5385456085205078,18.01883888244629,43.50999450683594
8216,-41.96167755126953,6.9188151359558105,25.120908737182614,48.62617874145508
8217,-52.26510238647461,-9.525525093078613,27.17411231994629,35.3009147644043
8218,-50.56344604492188,-3.09663724899292,25.64823341369629,30.94767189025879
8219,-45.58190155029297,8.052004814147951,25.38644027709961,45.047096252441406
8220,-43.92138671875,9.342269897460938,24.17845344543457,46.6627311706543
8221,-43.24072265625,-9.966833114624023,24.82545661926269,35.45425033569336
8222,-41.46052932739258,-12.8876953125,22.92558670043945,26.3625545501709
8223,-42.24591064453125,-9.37218952178955,10.01919174194336,25.390180587768555
8224,-31.983623504638672,7.532158374786378,25.16952705383301,38.872520446777344
8225,-34.238784790039055,-9.110396385192873,24.24203109741211,30.38668632507324
8226,-39.0445556640625,-6.675721645355225,21.134174346923828,22.592735290527344
8227,-38.15071868896485,1.8250712156295776,15.195213317871096,31.59093475341797
8228,-36.26580810546875,5.6659483909606925,16.01799201965332,36.49768447875977
8229,-30.906532287597656,5.430334568023682,28.486818313598636,36.02645492553711
8230,-48.99269104003906,-8.003385543823242,21.00701713562012,22.551597595214844
8231,-43.11356735229492,2.3823163509368896,18.430227279663086,31.302963256835934
8232,-47.57900619506836,-3.59778380393982,14.630488395690918,31.61337471008301
8233,-46.25508117675781,3.5454251766204834,28.22128486633301,44.37017440795898
8234,-51.64427947998047,-12.012558937072756,22.850788116455078,36.770694732666016
8235,-45.67913818359375,6.092297077178955,22.92184638977051,43.47259521484375
8236,-40.87710571289063,7.1880879402160645,22.96298599243164,48.76081466674805
8237,-47.95299911499024,-10.041631698608398,21.538084030151367,34.19016647338867
8238,-47.34713363647461,-7.7116737365722665,18.845355987548828,32.009803771972656
8239,-40.66767120361328,4.345763683319092,24.00267791748047,39.48212432861328
8240,-35.592628479003906,7.569557666778564,33.161693572998054,43.67829132080078
8241,-40.23384475708008,-6.900115489959718,31.62833404541016,39.29887008666992
8242,-45.8997917175293,-14.87732219696045,23.74088478088379,28.217544555664066
8243,-29.21609878540039,6.892635822296143,30.278230667114254,43.506256103515625
8244,-31.88638687133789,-1.73905348777771,26.44483184814453,40.87336730957031
8245,-35.959136962890625,-9.087956428527832,25.13960838317871,40.742469787597656
8246,-38.068443298339844,-7.924848079681396,20.849943161010746,35.050342559814446
8247,-42.54510116577149,-5.1535820960998535,9.484386444091797,39.19041061401367
8248,-37.93754577636719,-5.071304321289063,17.865501403808594,37.686973571777344
8249,-36.62110137939453,-1.0883108377456665,25.76791000366211,38.554630279541016
8250,-46.78614807128906,-10.684894561767578,15.722538948059082,26.654266357421875
8251,-41.87939834594727,-0.01869950070977211,15.531804084777832,32.34639358520508
8252,-43.794227600097656,-2.501993179321289,14.73520565032959,38.75658416748047
8253,-35.60384750366211,1.2042478322982788,28.58779525756836,38.52845001220703
8254,-45.90353393554688,-7.442400932312013,23.632427215576172,32.959739685058594
8255,-36.45280456542969,5.063824653625488,22.50297737121582,45.9110107421875
8256,-42.38054656982422,-1.144409418106079,25.883848190307614,35.85068130493164
8257,-40.2001838684082,-3.1340360641479488,35.03538131713867,34.68383407592773
8258,-50.22311782836914,-9.413328170776367,22.57403564453125,25.524816513061523
8259,-40.85466766357422,-9.413328170776367,11.997598648071287,29.459192276000977
8260,-34.78107070922852,-4.84691047668457,23.75210380554199,35.23359680175781
8261,-40.37596130371094,-10.82701015472412,25.928726196289066,33.326248168945305
8262,-34.34350204467773,-7.775251865386963,32.70168685913086,36.37052536010742
8263,-33.905933380126946,-2.472073793411255,27.30875015258789,36.21345138549805
8264,-36.89411163330078,1.1182301044464111,29.22357749938965,39.65042114257813
8265,-40.46571731567383,-6.036198616027832,26.26531791687012,34.687572479248054
8266,-45.56320190429688,-9.936914443969727,19.039831161499023,26.61686706542969
8267,-36.46402359008789,-0.8190380930900574,17.057683944702152,32.30899429321289
8268,-35.34205627441406,9.450727462768556,22.529157638549805,38.57706832885742
8269,-39.03707504272461,-5.909041881561278,24.26447105407715,32.383792877197266
8270,-37.32419967651367,2.2775990962982178,31.31418228149414,38.01608276367188
8271,-44.59456634521485,-2.3598768711090092,21.721338272094727,34.874568939208984
8272,-41.924278259277344,4.409341812133789,26.620607376098636,38.88373947143555
8273,-39.317569732666016,-3.5005464553833012,29.941638946533203,35.45799255371094
8274,-42.69843673706055,-4.3607234954833975,20.05708312988281,32.05094146728516
8275,-41.09775924682617,-3.844617128372192,17.944040298461914,37.197044372558594
8276,-34.63521194458008,-4.095190525054932,23.00786399841309,36.60240173339844
8277,-39.52326202392578,-4.730973243713379,34.90448760986328,35.56644821166992
8278,-38.18811798095703,-3.392089366912842,34.646434783935554,33.042015075683594
8279,-36.89411163330078,6.032458782196045,27.327449798583984,35.56270980834961
8280,-36.13491439819336,4.63373613357544,27.948272705078125,40.27872085571289
8281,-38.072181701660156,-7.692974090576173,28.19884490966797,34.298622131347656
8282,-41.7036247253418,-3.014359474182129,26.45979309082031,26.429872512817386
8283,-43.98870468139648,-8.04078483581543,15.572943687438965,30.117414474487305
8284,-38.6518669128418,2.546871900558472,18.415267944335934,33.621700286865234
8285,-39.15675354003906,-1.2379069328308103,24.716999053955078,33.311290740966804
8286,-34.40333938598633,-0.961154282093048,23.961538314819336,41.09402084350586
8287,-43.09860610961914,4.218606948852538,18.609743118286133,36.8080940246582
8288,-42.00655746459961,7.318984031677246,22.514198303222656,38.61820602416992
8289,-50.30539321899414,-8.889741897583008,24.754398345947266,32.69794464111328
8290,-44.11585998535156,-3.863316535949707,21.07059669494629,30.15855407714844
8291,-42.65356063842773,-3.7324202060699454,10.389442443847656,30.405385971069336
8292,-39.15301132202149,-2.752566337585449,18.66209983825684,33.969512939453125
8293,-37.75802993774414,-0.9574143886566162,26.02596473693848,34.21260452270508
8294,-43.5399169921875,-3.867056608200073,23.639907836914066,27.51444435119629
8295,-39.95709228515625,-6.208233833312987,21.69890022277832,29.70228576660156
8296,-33.16543197631836,3.6314427852630615,24.34674835205078,31.96492576599121
8297,-39.91969299316406,-0.6021239161491394,32.21175765991211,23.591289520263672
8298,-38.67056655883789,-0.24309349060058594,30.278230667114254,23.191120147705078
8299,-35.577667236328125,11.17482089996338,26.84126281738281,29.96407890319824
8300,-39.24650955200195,4.596336841583252,30.117414474487305,36.396705627441406
8301,-43.52495574951172,-4.7945518493652335,35.289695739746094,34.03308868408203
8302,-39.867332458496094,-8.549411773681639,34.646434783935554,39.47090530395508
8303,-37.46257781982422,-1.0322123765945437,22.099069595336914,47.15266036987305
8304,-42.077613830566406,-2.449634552001953,16.092788696289062,47.10778045654297
8305,-41.57646942138672,-14.118122100830078,21.257591247558594,34.94936370849609
8306,-40.41709899902344,-1.8250712156295776,22.07288932800293,30.65221977233887
8307,-43.88024520874024,1.316444754600525,12.139715194702148,29.960338592529297
8308,-43.831626892089844,-0.30667179822921753,23.198598861694336,33.15795135498047
8309,-40.31238174438477,-3.321031093597412,34.09292984008789,31.33662223815918
8310,-38.23299789428711,-2.479553699493408,30.3418083190918,32.07338333129883
8311,-37.58225631713867,3.9867334365844727,17.29703712463379,36.4154052734375
8312,-34.58285522460937,9.058037757873537,23.97649955749512,28.73739051818848
8313,-38.98845672607422,6.155875205993652,34.65391159057617,23.37063407897949
8314,-38.38633346557617,12.109796524047852,33.87227249145508,22.3421630859375
8315,-44.90497970581055,9.069257736206056,23.871782302856445,26.803863525390625
8316,-35.58888626098633,19.372682571411133,33.97698974609375,46.71134948730469
8317,-47.736083984375,-2.7376067638397217,28.0230712890625,31.224424362182614
8318,-48.01283645629883,-7.259145736694336,23.3220157623291,33.64039993286133
8319,-41.789642333984375,1.0247325897216797,14.04332447052002,43.09860610961914
8320,-35.90678024291992,3.9194152355194087,21.60540199279785,49.71075057983398
8321,-38.82390213012695,-6.75425910949707,23.363155364990234,42.70217895507813
8322,-46.01198959350586,-8.844862937927246,15.662700653076172,35.64498519897461
8323,-36.83427429199219,-0.7255405783653259,11.122462272644043,46.15036392211914
8324,-38.10958099365234,-3.66884183883667,14.843663215637207,42.35062789916992
8325,-41.3632926940918,-14.447233200073242,14.6865873336792,35.89556121826172
8326,-45.35376739501953,-17.02028465270996,15.415867805480955,27.892173767089844
8327,-39.45220565795898,4.3644633293151855,16.421899795532227,36.91655349731445
8328,-35.60384750366211,0.5048865079879761,22.66753387451172,37.32046127319336
8329,-42.85177230834961,-5.172281742095947,27.177852630615234,27.22273254394531
8330,-39.20162963867188,1.7727125883102417,22.18508720397949,25.206926345825195
8331,-36.7258186340332,5.243339538574219,19.64943504333496,24.97505187988281
8332,-38.65560531616211,2.9133820533752437,27.615421295166016,29.676105499267575
8333,-39.25025177001953,10.737253189086914,32.724124908447266,30.738237380981445
8334,-46.66647338867188,-7.143208980560303,24.32804870605469,20.812543869018555
8335,-40.73125076293945,1.783932328224182,16.687433242797848,33.64788055419922
8336,-31.11222839355469,13.953566551208494,27.282569885253906,48.26340866088867
8337,-42.29079055786133,0.6844016909599304,26.433612823486328,36.25085067749024
8338,-46.11296463012695,-8.732666015625,24.664640426635746,34.878307342529304
8339,-38.6930046081543,1.9148287773132324,18.54616355895996,45.77637481689453
8340,-41.14263916015625,-7.995905876159668,14.402355194091795,43.180885314941406
8341,-44.57960891723633,-6.163355350494385,16.515398025512695,42.54510116577149
8342,-55.48515701293945,-8.736406326293945,6.00253963470459,35.50661087036133
8343,-46.05312728881836,-2.090604066848755,4.8805694580078125,46.00450897216797
8344,-39.766357421875,7.756552696228027,18.048757553100586,49.07870864868164
8345,-47.26111602783203,-6.944994449615479,24.20089340209961,39.44098663330078
8346,-49.97254180908203,-12.457606315612793,20.049604415893555,32.222976684570305
8347,-41.65126419067383,1.03595232963562,18.49006462097168,40.5405158996582
8348,-43.45763778686523,-0.9536744952201844,20.199199676513672,36.7744369506836
8349,-39.16797256469727,-2.8124048709869385,29.657405853271484,34.17520523071289
8350,-41.06410217285156,2.8984224796295166,27.93705177307129,34.17520523071289
8351,-37.23070526123047,14.480892181396484,25.177005767822266,42.76575469970703
8352,-39.52700424194336,11.522631645202635,22.828350067138672,36.76321792602539
8353,-47.70990371704102,6.032458782196045,24.597322463989254,23.194860458374023
8354,-43.91764450073242,1.279045820236206,21.12669563293457,23.759584426879886
8355,-46.40467834472656,4.652435779571533,16.530357360839847,27.92209243774414
8356,-49.73693084716797,7.195567607879639,17.334436416625973,33.53942108154297
8357,-44.171958923339844,-1.54831862449646,25.412620544433594,39.8187141418457
8358,-47.62388610839844,-9.331049919128418,19.757890701293945,35.73848342895508
8359,-45.0770149230957,0.4899269044399262,15.18773365020752,41.17255783081055
8360,-40.551734924316406,3.926894903182984,21.88215446472168,39.83367538452149
8361,-41.28475570678711,-6.470026969909668,23.149980545043945,37.81038665771485
8362,-51.29646682739258,-8.022085189819336,14.611788749694824,32.772743225097656
8363,-44.86009979248047,-5.658468723297119,13.807710647583008,39.01837539672852
8364,-38.65934753417969,1.3762831687927246,26.79638290405273,43.76057052612305
8365,-38.36389541625977,-6.402708530426025,35.3121337890625,40.27498245239258
8366,-35.158798217773445,-8.500792503356934,34.048049926757805,41.292236328125
8367,-41.32589340209961,5.01520586013794,26.46727180480957,41.30719375610352
8368,-38.39381408691406,8.893482208251953,27.48452568054199,37.0960693359375
8369,-41.03792190551758,-4.319584369659424,37.55233383178711,31.55727577209473
8370,-45.53702163696289,-2.7114274501800537,26.747764587402344,23.681047439575195
8371,-42.33566665649414,3.291111946105957,23.96901893615723,31.403940200805664
8372,-38.2928352355957,4.192427635192871,33.7451171875,40.71628952026367
8373,-43.13600540161133,-8.283878326416017,34.336021423339844,30.37172698974609
8374,-45.0844955444336,-2.4271950721740723,25.59213447570801,29.70602607727051
8375,-42.15989303588867,4.678614616394043,10.785871505737305,34.5491943359375
8376,-42.477783203125,9.798538208007812,12.45012664794922,31.6619930267334
8377,-40.98556518554688,-6.402708530426025,20.60684967041016,28.18388557434082
8378,-41.59142684936523,-7.876229286193848,17.41671371459961,23.209819793701172
8379,-36.90907287597656,-1.8886494636535645,14.252758979797365,33.954551696777344
8380,-40.9631233215332,-1.5557984113693235,15.69636058807373,39.97579193115234
8381,-41.54280853271485,-11.945240020751953,28.965524673461914,44.003662109375
8382,-47.81088256835938,-4.484139919281006,20.48343276977539,41.87565994262695
8383,-43.80544662475586,-6.780438423156737,8.699007034301758,37.82160949707031
8384,-40.00944900512695,-6.1727046966552725,28.42510986328125,49.85847473144531
8385,-35.27099609375,-11.359946250915527,29.80887222290039,45.35563659667969
8386,-42.137451171875,5.159192085266113,32.841930389404304,42.670387268066406
8387,-39.86359405517578,4.2990150451660165,30.77750587463379,42.49835205078125
8388,-46.16158676147461,9.381539344787598,33.380477905273445,44.95172882080078
8389,-54.04155349731445,1.022862672805786,41.72419357299805,43.61284255981445
8390,-51.26654815673828,-1.905479073524475,34.55106735229492,37.16525650024414
8391,-50.365234375,5.2713890075683585,23.23786926269531,43.56422424316406
8392,-40.503116607666016,7.52280855178833,34.453826904296875,48.26527786254883
8393,-44.12707901000977,0.05422854796051979,44.43562316894531,46.30183029174805
8394,-48.61495971679688,4.261616230010986,40.183353424072266,48.91602325439453
8395,-47.0255012512207,1.9578375816345213,34.55106735229492,50.09035110473633
8396,-39.18667221069336,1.4641708135604858,47.29664611816406,52.67835998535156
8397,-48.88797378540039,-11.27392864227295,39.33439636230469,45.43791580200195
8398,-43.73065185546875,-13.712343215942385,31.93687629699707,41.675575256347656
8399,-54.32204818725586,-18.402177810668945,33.997562408447266,38.01421356201172
8400,-52.90088653564453,-14.138691902160645,31.25247383117676,40.02627944946289
8401,-57.12697219848633,-6.389618873596191,24.54309272766113,41.45866012573242
8402,-62.2207145690918,-2.702077627182007,32.269725799560554,39.05764389038086
8403,-65.43328857421875,-13.80958080291748,34.77172088623047,26.83191299438477
8404,-70.76264953613281,-21.64841079711914,30.44091606140137,22.45623016357422
8405,-63.043495178222656,-9.71438980102539,24.505695343017575,28.88511657714844
8406,-66.17752838134766,-11.606779098510742,30.01830673217773,30.003347396850586
8407,-60.14507293701172,-13.768442153930664,34.652042388916016,30.58303260803223
8408,-65.201416015625,-9.3927583694458,29.382524490356445,26.51776123046875
8409,-63.275367736816406,-2.0588150024414062,23.83999252319336,32.40810394287109
8410,-57.84129333496094,6.292381763458253,26.222309112548828,38.76967239379883
8411,-60.35076522827149,-3.2929818630218506,30.82238578796387,36.69776916503906
8412,-61.60737228393555,-11.412304878234865,32.82697296142578,32.81201171875
8413,-55.42905807495117,-5.664078712463379,27.97258186340332,33.52633285522461
8414,-46.71883010864258,-0.07666794955730437,38.42934036254883,33.941463470458984
8415,-57.24664688110352,-12.710049629211426,39.83928298950195,22.34029197692871
8416,-50.8888168334961,-10.828880310058594,29.266586303710934,15.148465156555176
8417,-49.05626678466797,-13.027941703796387,26.768333435058594,25.036760330200195
8418,-46.210205078125,-11.075714111328123,29.027233123779297,32.0902099609375
8419,-42.17859268188477,-15.900184631347654,37.45322799682617,28.0286808013916
8420,-49.90896606445313,-20.578800201416016,26.98898887634277,25.66132354736328
8421,-48.88797378540039,-9.561054229736328,22.826478958129886,28.690643310546875
8422,-51.25532913208008,-9.03372859954834,32.202407836914055,31.32353210449219
8423,-65.80354309082031,-17.347526550292972,35.0596923828125,23.51836013793945
8424,-71.70136260986328,-12.081747055053713,29.59943771362305,27.763147354125977
8425,-71.08053588867188,-2.365486621856689,24.41219711303711,39.13992309570313
8426,-69.11708831787111,3.61461329460144,32.4305419921875,41.84012985229492
8427,-68.87400054931639,-5.514482498168945,38.39568328857422,39.06886672973633
8428,-62.74804306030274,-12.149065017700195,30.77376747131348,35.90864944458008
8429,-66.43558502197266,-15.54115390777588,16.981016159057614,34.69692230224609
8430,-52.41095733642578,-5.862293243408202,32.07151031494141,42.59933090209961
8431,-57.83007431030274,-23.361284255981445,28.380229949951172,33.522594451904304
8432,-59.307334899902344,-23.33884620666504,19.40821075439453,24.25138092041016
8433,-46.74874877929688,-5.7126970291137695,26.31206703186035,36.54817199707031
8434,-44.516029357910156,2.5898807048797607,29.56951904296875,35.231727600097656
8435,-56.337852478027344,-14.2022705078125,31.503047943115234,27.04882621765137
8436,-55.54125595092773,-15.956283569335938,27.16102409362793,23.45104217529297
8437,-53.56658554077149,-11.094412803649902,26.94784927368164,29.99960708618164
8438,-53.55536651611328,-4.942277908325195,34.083580017089844,25.268634796142575
8439,-62.70690155029297,-9.205763816833496,37.804779052734375,20.833112716674805
8440,-61.79436874389648,-8.64103889465332,25.91189765930176,19.456829071044922
8441,-60.15629196166992,1.0116429328918457,17.527040481567386,25.814659118652344
8442,-54.73717498779297,1.086440920829773,19.075359344482425,25.051719665527344
8443,-58.7463493347168,-10.843839645385742,20.03651428222656,22.81151962280273
8444,-57.74031448364258,-22.931196212768555,16.984756469726562,17.837451934814453
8445,-47.418190002441406,-8.042654991149902,18.592912673950195,38.0703125
8446,-53.0467414855957,-6.924424648284912,21.2033634185791,38.28722763061523
8447,-60.71727752685547,-6.879546165466309,27.366718292236328,42.07200622558594
8448,-58.36861801147461,-4.4897499084472665,33.952682495117195,42.44599533081055
8449,-58.48829650878906,8.476483345031737,29.876190185546875,42.805023193359375
8450,-56.569725036621094,-1.696044683456421,36.518253326416016,40.63588333129883
8451,-52.10802459716797,-5.7949748039245605,51.56761169433594,37.2774543762207
8452,-54.1500129699707,-15.53741455078125,42.5768928527832,26.083932876586914
8453,-51.27776718139648,-11.771334648132324,35.92734909057617,27.52753448486328
8454,-47.29103469848633,-8.237129211425781,33.975120544433594,22.28045463562012
8455,-51.41240310668945,-14.493982315063475,43.24633407592773,21.28938102722168
8456,-56.74176025390625,-15.761808395385742,33.414134979248054,16.857599258422848
8457,-55.37295913696289,-6.748649597167969,30.28384017944336,21.031328201293945
8458,-54.84937286376953,-2.8217544555664062,38.227386474609375,24.288780212402344
8459,-57.16810989379883,-2.5263023376464844,45.99515914916992,20.732135772705078
8460,-65.51930999755861,-3.061108112335205,36.9259033203125,14.561300277709961
8461,-69.29286956787111,2.8516736030578613,29.74529457092285,17.160530090332028
8462,-63.78025436401367,0.22252404689788816,41.1519889831543,32.81949234008789
8463,-60.623779296875,-8.035175323486326,44.22244644165039,26.51028060913086
8464,-65.50808715820311,-9.209503173828123,27.658430099487305,17.71403694152832
8465,-58.7687873840332,4.8151211738586435,20.339445114135746,30.766286849975586
8466,-51.35630798339844,4.0521817207336435,28.94869613647461,35.654335021972656
8467,-49.6434326171875,-9.961223602294922,31.27117347717285,29.93228912353516
8468,-52.17908477783203,-18.791128158569336,27.262001037597656,22.527286529541016
8469,-51.23662948608398,-6.602793216705322,27.366718292236328,28.137136459350586
8470,-45.166770935058594,4.254136085510254,39.15114212036133,36.88102340698242
8471,-52.94202423095703,-10.376352310180664,35.72913360595703,29.09829139709473
8472,-57.59819793701172,-8.65225887298584,32.72225570678711,28.42510986328125
8473,-57.99462890625,-4.332674026489259,27.69582939147949,25.5940055847168
8474,-55.55247497558594,-9.35909938812256,32.793312072753906,28.98235511779785
8475,-54.9615707397461,-7.792081356048584,40.26189422607422,26.431743621826172
8476,-55.54873275756836,-10.009841918945312,32.052810668945305,23.002254486083984
8477,-60.9940299987793,-8.446563720703125,26.73467445373535,28.88511657714844
8478,-54.2809066772461,-1.4155521392822266,31.753620147705078,29.3787841796875
8479,-61.81680679321289,-15.062447547912598,31.91443634033203,18.319900512695312
8480,-59.34847259521485,-10.851319313049316,30.82612609863281,20.57505989074707
8481,-53.63390350341797,-2.7432165145874023,30.437175750732425,26.67109680175781
8482,-48.5401611328125,5.0058560371398935,35.85629272460937,32.66989517211914
8483,-53.64886474609375,-6.05676794052124,42.057044982910156,32.314605712890625
8484,-58.63041305541992,-8.278268814086914,30.95328140258789,24.67399024963379
8485,-53.77228164672852,3.4463179111480717,22.51606750488281,31.18889617919922
8486,-50.8888168334961,13.716083526611328,37.51306533813477,41.43247985839844
8487,-63.18186950683594,-0.7909888625144958,37.50932693481445,26.611257553100586
8488,-61.95892333984375,2.0363755226135254,33.8741455078125,28.64202308654785
8489,-61.67469024658203,3.453797578811645,30.844825744628906,30.1417236328125
8490,-59.1689567565918,1.2622162103652954,31.6676025390625,31.8433780670166
8491,-61.637290954589844,-12.193943977355955,35.07465362548828,20.97896957397461
8492,-59.22879409790039,-8.966409683227539,29.588218688964844,18.966901779174805
8493,-52.2426643371582,2.2009310722351074,24.273820877075195,22.91249656677246
8494,-60.70979690551758,-4.908618927001953,24.07560539245605,17.871112823486328
8495,-62.77421951293945,-10.279114723205566,39.30073928833008,17.568180084228516
8496,-64.96580505371094,3.3154213428497314,35.100830078125,20.43294334411621
8497,-56.29671478271485,12.945663452148438,34.03870010375977,29.07211303710937
8498,-62.10103988647461,3.618353128433228,36.66785049438477,36.80622482299805
8499,-62.2094955444336,-9.531134605407717,40.69198226928711,31.38710975646973
8500,-59.9318962097168,-5.959530353546143,42.68534851074219,34.17333602905273
8501,-60.86313247680664,-11.733936309814453,34.57724380493164,31.69004249572754
8502,-57.59819793701172,-1.7932820320129397,42.16924285888672,35.613197326660156
8503,-60.75093460083008,-10.61944580078125,44.15886688232422,25.597745895385746
8504,-54.6212387084961,-6.988003253936768,36.645408630371094,23.843732833862305
8505,-58.98196029663086,-6.872066020965576,25.60148429870605,20.522701263427734
8506,-47.66128540039063,1.7110042572021484,38.492919921875,29.229188919067386
8507,-51.96590805053711,-2.0101962089538574,40.516204833984375,26.98898887634277
8508,-55.78434753417969,-0.6600923538208008,35.39628219604492,26.917930603027344
8509,-62.84527969360352,4.149418830871582,28.0698184967041,31.211334228515625
8510,-54.542701721191406,7.78460168838501,31.31979179382324,36.15174102783203
8511,-62.75178146362305,-6.901985168457031,35.24668884277344,27.86038398742676
8512,-65.14905548095703,-0.6077337265014648,37.49810791015625,26.73093414306641
8513,-66.2635498046875,-5.910912036895753,30.837345123291016,29.48724174499512
8514,-57.34388732910156,1.2285571098327637,37.479408264160156,31.62272453308105
8515,-56.337852478027344,4.8674798011779785,44.41692352294922,25.40327072143555
8516,-62.35535049438477,-1.9129588603973389,34.62586212158203,15.84782600402832
8517,-58.74260711669922,3.0648479461669917,29.25910758972168,25.096599578857425
8518,-62.31421279907226,5.596760272979736,35.43742370605469,29.565778732299805
8519,-60.47044372558594,-3.2668025493621826,38.17502975463867,27.50509452819824
8520,-59.90571594238281,-1.561408281326294,37.12785720825195,29.07585144042969
8521,-55.26076126098633,0.4356983304023743,30.066925048828125,36.376136779785156
8522,-57.77397537231445,-2.7806155681610107,36.54069137573242,37.7598991394043
8523,-63.79895401000977,-8.970149993896484,40.83783721923828,34.307971954345696
8524,-56.4986686706543,-5.4396843910217285,39.805625915527344,33.21592330932617
8525,-52.77746963500977,0.12528665363788605,34.76797866821289,34.76797866821289
8526,-50.31287384033203,-3.2069642543792725,42.53201293945313,35.25790786743164
8527,-56.1396369934082,-8.158592224121094,46.79923629760742,31.615243911743164
8528,-55.24580383300781,-11.191650390625,35.4299430847168,21.48011589050293
8529,-45.9409294128418,2.9339516162872314,37.24753189086914,36.9558219909668
8530,-54.41928482055664,-1.6810849905014038,37.58786392211914,35.788970947265625
8531,-55.0139274597168,-9.059907913208008,39.13992309570313,29.969688415527344
8532,-57.75527572631836,-6.183924674987793,37.38591003417969,28.922515869140625
8533,-64.46091461181639,-2.025155782699585,36.73516845703125,34.91383743286133
8534,-56.491188049316406,-7.025402069091798,39.87668228149414,36.08442306518555
8535,-59.71872329711914,-8.192251205444336,41.50727844238281,32.24354934692383
8536,-67.98390197753906,-9.044947624206543,28.27177429199219,21.6147518157959
8537,-60.93045043945313,-5.817414283752441,22.71054267883301,27.16476249694824
8538,-56.8390007019043,0.267402857542038,35.15319061279297,37.82347869873047
8539,-60.36198425292969,-12.160284996032715,33.455276489257805,25.687501907348636
8540,-59.60278701782226,-7.646225452423097,31.316051483154297,27.28444099426269
8541,-55.41783905029297,3.2368834018707275,25.975475311279297,35.00733184814453
8542,-52.20900344848633,8.285748481750487,31.46564865112305,40.800437927246094
8543,-61.54379272460938,-4.8674798011779785,34.307971954345696,25.90441703796387
8544,-58.00958633422852,-0.2898422479629517,37.74494171142578,25.04424095153809
8545,-56.19947814941406,4.504709720611572,32.81575393676758,30.923362731933594
8546,-64.41977691650389,8.166071891784668,38.470481872558594,23.462263107299805
8547,-58.07316589355469,-6.685070991516112,44.90311050415039,21.40157699584961
8548,-58.3349609375,-5.364886283874512,38.0403938293457,19.744802474975586
8549,-59.9730339050293,-1.3295344114303589,26.37564468383789,18.08802604675293
8550,-49.92766571044922,1.4753905534744265,33.141124725341804,27.20590209960937
8551,-55.0064468383789,-6.670111656188965,34.68570327758789,20.51896095275879
8552,-51.42736434936523,-0.974243938922882,32.452980041503906,25.94181632995605
8553,-60.23856735229492,0.23000384867191315,24.91708374023437,30.71392822265625
8554,-56.35281372070313,2.365486621856689,34.69318008422852,33.889102935791016
8555,-67.46779632568361,-3.685671329498291,39.315696716308594,30.88222312927246
8556,-61.3979377746582,-3.2668025493621826,37.19517517089844,26.66735649108887
8557,-56.93623733520508,-1.565148115158081,32.30338668823242,33.62356948852539
8558,-55.67214965820313,-0.6077337265014648,34.55106735229492,36.073204040527344
8559,-65.5006103515625,-20.690996170043945,30.710187911987305,21.850364685058594
8560,-61.35305786132813,-13.327133178710938,33.040145874023445,27.198421478271484
8561,-59.9131965637207,-4.545848369598389,25.33221244812012,24.29252052307129
8562,-56.63704681396485,-1.561408281326294,33.1934814453125,29.423662185668945
8563,-55.28694152832031,-10.937337875366213,41.67931365966797,26.14002990722656
8564,-64.44221496582031,-10.970996856689453,38.38820266723633,29.70041465759277
8565,-59.03805923461914,-1.4080723524093628,35.35140609741211,31.44320869445801
8566,-53.43194961547852,0.5927741527557373,38.94544982910156,37.789817810058594
8567,-56.046142578125,-9.063647270202637,44.08032989501953,31.66012382507324
8568,-61.54379272460938,-7.7434630393981925,36.40231704711914,23.974628448486328
8569,-61.35305786132813,-1.1986379623413086,29.382524490356445,31.02433967590332
8570,-59.9019775390625,-2.4702038764953613,29.348865509033203,27.030126571655273
8571,-66.87315368652344,-19.067880630493164,30.74384689331055,23.41738319396973
8572,-61.28573989868164,-9.703170776367188,35.946048736572266,23.37250518798828
8573,-53.52170944213867,-3.9100654125213614,29.85749053955078,24.2551212310791
8574,-52.99438095092773,-1.5576683282852173,34.988632202148445,30.77750587463379
8575,-54.90547180175781,-2.5337822437286377,43.23137283325195,34.99611282348633
8576,-64.61425018310547,-12.747448921203613,30.160423278808594,15.260662078857422
8577,-68.46634674072266,-7.14133882522583,26.28588676452637,21.09864616394043
8578,-57.29526901245117,3.5398154258728027,35.07465362548828,27.920223236083984
8579,-64.30757904052734,-4.6767449378967285,43.21641540527344,25.751081466674805
8580,-67.41169738769531,-17.186710357666016,32.75217437744141,20.997669219970703
8581,-63.02853393554688,-5.2713890075683585,31.50678634643555,28.38397026062012
8582,-58.57057189941406,0.5665948390960693,37.24005508422852,37.67388153076172
8583,-45.90540313720703,0.17951519787311554,47.02737045288086,46.29996109008789
8584,-44.12520980834961,5.033905506134033,44.828311920166016,46.16532516479492
8585,-56.83712768554688,7.367602825164795,30.70644950866699,45.43230438232422
8586,-44.36830139160156,10.490419387817383,43.71755981445313,47.799659729003906
8587,-46.39906692504883,6.686941146850586,49.1030158996582,50.78410339355469
8588,-53.98358535766602,2.6478490829467773,43.51560592651367,38.10210037231445
8589,-51.43671417236328,10.834489822387695,39.44659423828125,39.66164016723633
8590,-45.16490173339844,11.941500663757324,47.27794647216797,39.930912017822266
8591,-44.25984573364258,6.391489028930664,47.5359992980957,36.62858200073242
8592,-50.68125534057617,-0.9985532760620116,42.74144744873047,32.088340759277344
8593,-47.96234512329102,6.829057216644287,35.44490051269531,38.50600814819336
8594,-39.77944564819336,13.28038501739502,44.87318801879883,47.17509841918945
8595,-46.07743835449219,1.133189678192139,46.1110954284668,33.947071075439446
8596,-51.62371063232422,1.903609037399292,34.34163284301758,31.284263610839844
8597,-50.27360534667969,-0.3702501058578491,24.99936103820801,31.05612945556641
8598,-34.165855407714844,15.984332084655762,43.160316467285156,44.76286315917969
8599,-38.98284530639648,-1.3201847076416016,49.85847473144531,39.39236450195313
8600,-45.08636474609375,4.992766380310059,43.99431228637695,40.08798599243164
8601,-43.36227035522461,12.00507926940918,36.5743522644043,49.45269775390625
8602,-42.15054321289063,8.534451484680176,39.255859375,45.67539978027344
8603,-43.84845733642578,-7.562077522277832,47.775352478027344,46.419639587402344
8604,-44.8844108581543,-0.5123662948608398,43.410888671875,44.60952758789063
8605,-41.61199569702149,10.520339012145996,37.326072692871094,49.53123474121094
8606,-37.041839599609375,15.423347473144533,47.79405212402344,52.96820449829102
8607,-48.497154235839844,0.4001692831516266,45.99515914916992,40.1590461730957
8608,-44.05789184570313,-2.4010157585144043,38.623817443847656,41.46800994873047
8609,-46.62346267700195,3.8520970344543457,35.55335998535156,43.50251770019531
8610,-36.21906280517578,10.860669136047363,40.54238510131836,50.28295516967773
8611,-44.71985244750977,-1.6979146003723145,40.01506042480469,42.05143356323242
8612,-51.54516983032226,-5.826764106750487,32.32582473754883,39.23529052734375
8613,-47.05729293823242,10.97286605834961,24.846025466918945,38.42373275756836
8614,-44.20748901367188,5.434074401855469,30.523193359375,39.60554122924805
8615,-50.10530853271485,-6.4288878440856925,36.42101669311523,30.334327697753906
8616,-50.213768005371094,1.443601369857788,29.191789627075195,31.05238914489746
8617,-44.35708236694336,11.111242294311523,29.46106147766113,41.01548385620117
8618,-46.4439468383789,1.9522278308868408,33.48893356323242,41.85322189331055
8619,-47.506080627441406,-2.827364444732666,41.140769958496094,41.53532791137695
8620,-47.15826797485352,-1.8101115226745603,39.61114883422852,42.67226028442383
8621,-41.25670623779297,5.2358598709106445,40.856536865234375,55.05506896972656
8622,-38.97162628173828,-5.063824653625488,44.1439094543457,55.65719223022461
8623,-41.75411224365234,-13.916167259216307,46.0587387084961,49.392860412597656
8624,-44.14017105102539,-8.396075248718263,43.63528442382813,47.7660026550293
8625,-43.92699432373047,-7.124509334564209,40.35165023803711,48.79447555541992
8626,-41.75411224365234,-0.8339976668357849,53.78163146972656,55.13360595703125
8627,-48.80008316040039,-16.32840347290039,50.868247985839844,38.92113876342773
8628,-40.55360412597656,1.7540130615234375,53.2281265258789,42.01029586791992
8629,-38.27226638793945,7.610696315765381,50.064170837402344,42.94153213500977
8630,-44.70115280151367,-5.033905506134033,48.43731307983398,36.02645492553711
8631,-42.483394622802734,-2.909642219543457,51.85932159423828,34.478137969970696
8632,-40.69572067260742,0.8265178799629211,50.89068984985352,29.07398223876953
8633,-52.62226104736328,5.2620391845703125,29.12447166442871,25.67815399169922
8634,-44.88814926147461,10.45676040649414,41.62695693969727,40.38718032836914
8635,-55.56182479858398,-3.620223045349121,39.85798263549805,30.04261589050293
8636,-54.30895614624024,-2.77500581741333,36.566871643066406,35.03164291381836
8637,-43.54926681518555,6.724339962005615,37.621524810791016,45.74271774291992
8638,-40.94255447387695,5.45651388168335,45.79694366455078,43.96626281738281
8639,-43.71007919311523,8.384855270385742,58.24333190917969,37.1147689819336
8640,-39.06138610839844,-1.4922200441360474,57.36445617675781,35.59636688232422
8641,-31.80597877502441,2.8722431659698486,52.12859725952149,40.211402893066406
8642,-30.54563331604004,4.289665222167969,60.62191009521485,43.16218566894531
8643,-35.62067794799805,-1.0845710039138794,62.761131286621094,43.88398742675781
8644,-36.06198501586914,-2.83484411239624,52.805519104003906,47.72112274169922
8645,-35.788970947265625,-0.1907348930835724,47.84267044067383,55.67214965820313
8646,-41.74663162231445,6.571004390716553,47.29664611816406,50.7766227722168
8647,-46.552406311035156,-2.225240468978882,49.39846801757813,47.23867797851562
8648,-52.34177017211914,-5.6659483909606925,38.283485412597656,42.85177230834961
8649,-46.49630737304688,5.07504415512085,30.49701499938965,46.87590789794922
8650,-50.13148880004883,2.558091640472412,37.23631286621094,42.77323532104492
8651,-43.006980895996094,-3.3584301471710205,44.9666862487793,39.063255310058594
8652,-44.46928024291992,-9.01689910888672,35.231727600097656,37.387779235839844
8653,-37.55046463012695,7.6480956077575675,36.33125686645508,46.71883010864258
8654,-36.99322128295898,8.560630798339844,42.326316833496094,50.25303649902344
8655,-36.9146842956543,-2.038245439529419,46.290611267089844,39.4970817565918
8656,-37.902015686035156,-1.3538438081741333,45.3294563293457,37.840309143066406
8657,-30.9345817565918,4.581377506256104,43.11917495727539,44.53846740722656
8658,-32.393142700195305,-6.305471420288086,51.68354797363281,45.72775650024414
8659,-32.699813842773445,-9.57788372039795,65.06491088867189,44.64318466186523
8660,-33.62356948852539,-8.695267677307129,59.78042984008789,40.9107666015625
8661,-35.01481246948242,-1.125709891319275,56.00313186645508,46.19524383544922
8662,-31.18889617919922,2.4084956645965576,64.25708770751953,55.09994506835938
8663,-40.721900939941406,-1.9148287773132324,66.41127014160156,54.02659606933594
8664,-40.57604598999024,-1.398722529411316,54.88490295410156,62.59844589233398
8665,-42.86860275268555,-0.23935359716415405,45.73336791992188,55.21962356567383
8666,-49.61538314819336,-6.578484058380128,44.33090591430664,53.099098205566406
8667,-42.55819320678711,-8.55315113067627,49.5256233215332,54.68855667114258
8668,-61.80371856689453,-12.74557876586914,31.663862228393555,47.97917556762695
8669,-59.24562454223633,-4.989026546478272,24.39723777770996,50.36897277832031
8670,-46.03629684448242,-0.6844016909599304,34.895137786865234,50.03985977172852
8671,-45.93906021118164,-1.8624701499938965,41.41378402709961,40.72751235961914
8672,-53.12340927124024,-12.180853843688965,35.30278396606445,32.993396759033196
8673,-45.108802795410156,0.6844016909599304,35.92361068725586,36.11247253417969
8674,-39.13992309570313,-0.8713966608047485,41.91119003295898,33.969512939453125
8675,-33.548770904541016,-6.331650733947754,48.6804084777832,37.37656021118164
8676,-29.606918334960934,-7.906148433685303,49.42464828491211,42.309486389160156
8677,-24.606672286987305,-2.6777684688568115,44.86196899414063,47.06290054321289
8678,-32.88681030273437,2.475813865661621,47.73047256469727,49.24700164794922
8679,-34.491226196289055,-5.303178310394287,58.09373474121094,52.7662467956543
8680,-33.941463470458984,-1.922308564186096,51.82940292358398,47.19005584716797
8681,-38.8220329284668,-2.0195460319519043,45.789466857910156,49.07122802734375
8682,-37.97307586669922,6.959953784942628,49.86969757080078,48.15495300292969
8683,-45.3481559753418,-10.740992546081543,47.63323593139648,45.18173217773438
8684,-53.3066635131836,-7.274105548858643,36.82118606567383,47.20875549316406
8685,-47.64445495605469,2.31125807762146,32.165008544921875,53.15145874023438
8686,-47.30786514282226,0.15333589911460874,35.650596618652344,56.35281372070313
8687,-51.25345993041992,-1.7540130615234375,36.84362411499024,58.7164306640625
8688,-50.42320251464844,-7.543378353118896,29.05341339111328,50.56344604492188
8689,-38.60885620117188,5.9389610290527335,35.32896423339844,60.63873672485352
8690,-42.049564361572266,-3.612743377685547,39.83554458618164,52.13046646118164
8691,-44.65253448486328,-15.505624771118164,43.302433013916016,38.08714294433594
8692,-41.06970977783203,-9.52926540374756,42.76014709472656,38.89122009277344
8693,-33.34307861328125,1.9522278308868408,46.5224838256836,45.91475296020508
8694,-32.96908950805664,-0.5834243893623352,55.63288116455078,46.11670684814453
8695,-33.25706100463867,-13.287864685058596,57.28591918945313,39.37740707397461
8696,-36.30133819580078,-2.2738592624664307,63.69610595703125,50.8476791381836
8697,-39.15862274169922,-0.5796844959259033,54.63432693481445,52.35111999511719
8698,-29.292766571044922,6.477506637573242,63.22488021850586,57.11949157714844
8699,-43.4819450378418,-5.9726200103759775,59.630836486816406,43.48755645751953
8700,-47.88006973266602,-4.379422664642334,49.36481094360352,41.18003845214844
8701,-46.8740348815918,1.0957907438278198,40.56108474731445,46.58419418334961
8702,-47.73047256469727,-4.2223472595214835,44.5852165222168,50.918739318847656
8703,-53.22064590454102,-14.679107666015625,44.764732360839844,43.78674697875977
8704,-51.89672088623047,-2.225240468978882,41.31654357910156,40.99678421020508
8705,-44.89936828613281,-1.2042478322982788,32.273468017578125,46.33362197875977
8706,-49.13667678833008,-3.317291259765625,33.690887451171875,49.05626678466797
8707,-52.74942016601562,-15.0680570602417,36.44345474243164,41.41191101074219
8708,-40.03376007080078,-13.527217864990234,36.967041015625,46.48695755004883
8709,-39.30073928833008,-1.5370988845825195,35.127010345458984,52.23892211914063
8710,-37.12037658691406,0.8863562941551208,36.15922164916992,51.43858337402344
8711,-36.8959846496582,-1.7203539609909058,44.63757705688477,51.23662948608398
8712,-44.5253791809082,-4.454220771789551,35.59823608398437,45.94467163085938
8713,-46.743141174316406,-8.096883773803711,30.526933670043945,50.11465835571289
8714,-38.54528045654297,-5.213420391082764,42.37119674682617,51.55826187133789
8715,-45.94280242919922,-9.439507484436037,46.28687286376953,49.68083190917969
8716,-44.1027717590332,-3.1714351177215576,45.02278518676758,51.73777770996094
8717,-40.460105895996094,1.525879144668579,44.09154891967773,57.9647102355957
8718,-38.49665832519531,7.262885570526122,47.39388275146485,48.75707626342773
8719,-41.372642517089844,11.122462272644043,51.53021240234375,44.134559631347656
8720,-44.28228378295898,4.805771350860597,41.37638473510742,42.40298461914063
8721,-34.405208587646484,16.668733596801758,39.79814529418945,48.90667343139648
8722,-33.39169692993164,11.560030937194824,33.66844940185547,51.40492630004883
8723,-38.42560195922852,15.647741317749025,23.821292877197266,64.34871673583984
8724,-37.10915756225586,16.182546615600586,28.98235511779785,66.91429138183594
8725,-43.351051330566406,16.24986457824707,36.30508041381836,62.54608535766602
8726,-45.067665100097656,15.206433296203613,28.75796127319336,60.84069061279297
8727,-41.103370666503906,21.620361328125,25.148956298828125,65.34727478027344
8728,-36.27141952514648,21.59418296813965,34.16959762573242,75.57215881347656
8729,-41.443702697753906,10.3258638381958,32.52404022216797,78.19757080078125
8730,-43.99431228637695,10.748472213745117,25.62766456604004,75.6993179321289
8731,-38.24608612060547,26.628087997436523,27.856645584106445,84.45816040039062
8732,-43.28373336791992,17.40175437927246,29.43114280700684,79.05026245117188
8733,-42.674129486083984,19.25300407409668,39.03520584106445,83.99815368652344
8734,-41.12580871582031,10.568957328796387,30.22026252746582,82.10950469970703
8735,-44.73481369018555,9.80227756500244,17.75517463684082,79.1923828125
8736,-44.13642883300781,0.639522910118103,24.42341613769531,81.21940612792969
8737,-40.381568908691406,-2.4271950721740723,28.07355880737305,69.57335662841797
8738,-35.04099273681641,-0.44878798723220825,28.911296844482425,67.67723083496094
8739,-37.72998046875,8.908441543579102,19.023000717163086,68.95627593994139
8740,-39.68968963623047,9.974312782287598,29.83879089355469,72.8943862915039
8741,-43.732521057128906,6.3503499031066895,36.8959846496582,59.651405334472656
8742,-43.01445770263672,17.293296813964847,43.53430557250977,64.85360717773439
8743,-46.589805603027344,21.601661682128906,30.523193359375,65.00320434570311
8744,-36.50703430175781,26.48971176147461,47.5359992980957,78.4070053100586
8745,-44.60017776489258,12.715660095214846,49.59294509887695,69.74165344238281
8746,-45.69222640991211,15.277491569519045,39.727088928222656,71.22265625
8747,-43.11917495727539,24.832935333251953,30.57181167602539,77.6440658569336
8748,-45.08636474609375,20.07204246520996,34.80537796020508,78.1938247680664
8749,-35.59823608398437,14.80626392364502,41.98972702026367,84.08416748046875
8750,-39.44285583496094,17.450372695922848,34.786678314208984,80.8416748046875
8751,-41.57085800170898,19.368942260742188,23.94096946716309,76.97836303710938
8752,-39.52887344360352,21.81109619140625,31.054258346557614,77.29999542236328
8753,-43.14161682128906,9.394628524780273,32.66241455078125,72.77471160888672
8754,-40.617183685302734,6.657021999359131,21.906463623046875,75.49362182617188
8755,-34.794158935546875,17.977699279785156,15.062447547912598,80.36296844482422
8756,-31.600284576416016,16.313444137573242,25.758560180664066,78.81465148925781
8757,-33.02518844604492,8.886002540588379,28.182016372680664,69.24050903320311
8758,-37.93193435668945,8.721446990966799,23.27900695800781,60.61629867553711
8759,-36.1629638671875,19.51479721069336,27.24704170227051,58.589271545410156
8760,-41.29036712646485,22.07288932800293,32.202407836914055,56.54354858398438
8761,-39.68220901489258,25.659454345703125,46.10735702514648,60.85191345214844
8762,-42.34875869750977,22.70867347717285,37.82721710205078,63.43618392944336
8763,-52.79429626464844,23.33697509765625,28.05111885070801,68.31674957275389
8764,-53.15332794189453,11.86296272277832,28.69812202453613,74.08741760253906
8765,-47.6070556640625,12.648341178894045,33.230880737304695,68.24943542480469
8766,-45.78572463989258,6.148395538330077,24.797407150268555,76.1817626953125
8767,-44.71985244750977,11.836783409118652,23.581939697265625,85.09768676757812
8768,-46.47760772705078,11.997598648071287,24.430896759033203,80.00019836425781
8769,-45.09010314941406,10.999045372009276,29.375043869018555,81.63827514648438
8770,-51.48159408569336,-3.3116815090179443,32.456722259521484,54.4622917175293
8771,-46.68704223632813,4.3214545249938965,25.87823867797852,54.62685012817383
8772,-35.87873077392578,-0.31228163838386536,37.76364135742188,56.33598327636719
8773,-38.54901885986328,-5.693997859954834,40.864017486572266,47.34526443481445
8774,-42.143062591552734,-7.541508197784424,39.59992980957031,41.903709411621094
8775,-43.15283584594727,0.7947287559509277,34.30423355102539,46.93761444091797
8776,-46.593544006347656,-0.12902654707431793,37.01565933227539,46.19711303710938
8777,-55.71516036987305,-4.994636535644531,37.097938537597656,35.70295333862305
8778,-51.45167541503906,-8.536321640014647,33.690887451171875,41.18938827514648
8779,-55.07937622070313,6.726210117340088,35.97596740722656,45.89792251586914
8780,-59.16708755493164,0.5179761648178101,40.83409881591797,42.83120346069336
8781,-58.63976287841797,1.1238399744033811,45.06018447875977,46.03629684448242
8782,-57.30461883544922,-4.471050262451172,31.185155868530273,44.28602600097656
8783,-53.76293182373047,-10.342693328857422,22.91249656677246,51.94533920288086
8784,-48.33259582519531,-4.863739967346191,29.90237045288086,65.53614044189453
8785,-46.89273452758789,-16.165718078613278,33.99008178710937,51.48159408569336
8786,-48.37373733520508,-15.488795280456545,29.66301727294922,49.66773986816406
8787,-49.46578598022461,-3.8090879917144775,27.269479751586914,53.3291015625
8788,-49.4508285522461,-5.4920430183410645,26.40556335449219,48.52707290649414
8789,-48.53081130981445,-7.111419677734375,35.62441635131836,43.26129150390625
8790,-48.07454299926758,0.577814519405365,32.703556060791016,45.60247039794922
8791,-46.22329330444336,-4.04470157623291,28.604625701904297,43.7213020324707
8792,-35.77401351928711,-5.204070568084717,41.443702697753906,45.11254501342773
8793,-34.476268768310554,-13.113959312438965,49.40594863891602,40.84905624389648
8794,-36.36491775512695,-20.13749122619629,39.74578857421875,34.46130752563477
8795,-27.2956600189209,-16.337753295898438,41.91119003295898,47.60331726074219
8796,-29.771472930908203,-21.869064331054688,47.70803451538086,45.05644607543945
8797,-32.774612426757805,-22.822738647460934,54.91107940673828,44.43188095092773
8798,-32.838191986083984,-18.282501220703125,51.03280639648438,55.22149276733398
8799,-46.73939895629883,-4.0521817207336435,39.861724853515625,56.90444946289063
8800,-45.92784118652344,5.507002830505371,45.28083801269531,65.88768768310547
8801,-53.94618606567383,11.51328182220459,48.269020080566406,68.55049896240234
8802,-71.052490234375,-11.109373092651367,29.93976974487305,69.05912017822266
8803,-58.2657699584961,-5.4135050773620605,30.852304458618164,71.08240509033203
8804,-55.5655632019043,-8.816814422607422,34.96619415283203,62.90698623657226
8805,-49.33863067626953,-19.456829071044922,39.091304779052734,52.37168884277344
8806,-49.8248176574707,-28.081039428710934,26.66735649108887,37.79356002807617
8807,-34.599685668945305,-15.425217628479006,28.14461708068848,54.04716491699219
8808,-38.051612854003906,-22.310373306274414,26.99272727966309,53.796592712402344
8809,-37.131595611572266,-23.33510589599609,30.92710304260254,51.90046310424805
8810,-41.89249038696289,-13.214936256408693,31.91443634033203,49.81733703613281
8811,-33.02518844604492,-5.23399019241333,32.026634216308594,53.16080856323242
8812,-31.97053527832031,-9.407718658447266,43.59414291381836,51.67606735229492
8813,-34.659523010253906,-16.06100082397461,51.6910285949707,46.20085525512695
8814,-25.220014572143555,-20.4404239654541,52.13981628417969,55.27385330200195
8815,-24.64407157897949,-5.892212390899657,49.59668350219727,59.22692489624024
8816,-23.54454040527344,-9.946264266967773,55.07563781738281,62.50681686401367
8817,-28.51486778259277,-22.246795654296875,49.49944686889648,60.56581115722656
8818,-38.16381072998047,-23.686656951904297,44.15886688232422,61.52322387695313
8819,-35.49726104736328,-9.018768310546877,37.7711181640625,79.75523376464844
8820,-40.87897491455078,-10.234235763549805,35.39628219604492,73.83871459960938
8821,-54.17432022094727,-19.43065071105957,31.8321590423584,66.62818908691406
8822,-55.49824523925781,-7.900538444519043,26.67857551574707,68.92074584960939
8823,-57.61876678466797,0.4880569577217102,23.35754585266113,69.78092193603516
8824,-56.34720230102539,-0.6077337265014648,23.58568000793457,56.94558715820313
8825,-50.11278915405274,-13.947957038879395,28.42510986328125,46.23077392578125
8826,-48.007225036621094,-14.587479591369627,31.731182098388672,35.00359344482422
8827,-38.0815315246582,-12.373458862304688,27.624771118164066,41.59703826904297
8828,-33.74698638916016,-7.350773334503174,33.6160888671875,40.03376007080078
8829,-41.26418685913086,-21.36043930053711,21.985002517700195,31.903217315673828
8830,-41.30158615112305,-16.326532363891598,19.602685928344727,36.989479064941406
8831,-21.2332820892334,1.3893728256225586,28.45502853393555,52.71202087402344
8832,-25.03302001953125,-5.073174476623535,27.12736511230469,51.57135009765625
8833,-29.40122413635254,-7.361992835998535,38.21990585327149,54.09578323364258
8834,-38.29096603393555,-12.14158535003662,27.778106689453125,52.59234237670898
8835,-46.04751968383789,3.3416006565093994,22.28419303894043,57.74592590332031
8836,-40.82287979125977,5.245209693908691,29.36382484436035,61.05947494506836
8837,-48.078285217285156,-6.337260246276856,29.41618347167969,64.15985107421875
8838,-53.70309448242188,-1.3968526124954224,24.84228515625,60.93980026245117
8839,-53.5684585571289,6.0343284606933585,18.97064208984375,61.94209289550781
8840,-50.53913879394531,6.3335204124450675,25.425710678100586,61.85981369018555
8841,-58.87163543701172,-8.334366798400879,22.830219268798828,48.93471908569336
8842,-56.6688346862793,-0.9705040454864502,22.216875076293945,48.94219970703125
8843,-48.48593139648438,6.071727752685548,15.077406883239744,51.45915222167969
8844,-57.15127944946289,5.1105732917785645,22.714282989501953,47.72299194335938
8845,-59.73929214477539,-4.2429165840148935,27.43029594421387,37.54672622680664
8846,-58.01145935058594,11.550681114196776,26.9553279876709,46.0699577331543
8847,-56.67631530761719,3.9474644660949703,20.926610946655273,41.46987915039063
8848,-48.65796661376953,2.9601309299468994,28.33161163330078,43.09299850463867
8849,-50.72239303588867,-6.557914733886719,26.873050689697266,35.381324768066406
8850,-43.063079833984375,-0.08788765221834183,31.83589744567871,41.94110870361328
8851,-44.44309997558594,-4.463570594787598,30.91214370727539,49.00577926635742
8852,-42.12436294555664,0.35342055559158325,34.77920150756836,59.43635940551758
8853,-43.23511505126953,-12.792327880859375,36.03206634521485,58.31438827514648
8854,-43.89707565307617,-7.2871952056884775,29.90237045288086,58.40788650512695
8855,-52.29315185546875,-0.005609849933534861,25.28359413146973,59.69815444946289
8856,-59.14838790893555,0.7012312412261963,31.32353210449219,61.20159149169922
8857,-61.82989501953125,-10.436190605163574,34.730579376220696,55.76004028320313
8858,-66.14948272705078,-9.983662605285645,30.44465637207031,57.764625549316406
8859,-65.88021087646484,1.0191227197647097,20.747095108032227,57.31583786010742
8860,-62.39836120605469,-9.957483291625977,20.982707977294922,49.21895217895508
8861,-62.44697952270508,-6.053028106689452,29.91732978820801,29.54707908630371
8862,-57.40559387207031,-0.31228163838386536,24.71512794494629,34.599685668945305
8863,-49.4844856262207,-4.538368701934815,20.219768524169922,31.76110076904297
8864,-41.69801330566406,-0.15146595239639282,36.06946563720703,37.65144348144531
8865,-44.099029541015625,-10.970996856689453,36.59305191040039,33.42535400390625
8866,-45.40051651000977,-7.219876766204834,30.130504608154297,36.31629943847656
8867,-35.64685821533203,-1.3070950508117676,28.05111885070801,48.08576202392578
8868,-36.2564582824707,-3.92502498626709,39.38301467895508,56.57159805297852
8869,-47.9473876953125,-13.686163902282715,40.0075798034668,52.4951057434082
8870,-49.36106872558594,-15.679530143737793,37.52802658081055,52.25949096679688
8871,-34.992374420166016,-1.0415620803833008,45.03774642944336,62.60779571533203
8872,-46.54118347167969,-1.998976469039917,39.21846008300781,49.86969757080078
8873,-47.1732292175293,-13.117698669433596,42.90226364135742,50.47930145263672
8874,-46.36540985107422,-6.887025833129883,36.69776916503906,45.86052322387695
8875,-46.84037780761719,-5.447164058685303,32.168750762939446,46.96379470825195
8876,-42.27396011352539,-1.778322458267212,36.40231704711914,49.63782119750977
8877,-53.25056457519531,-6.685070991516112,40.51994705200195,41.0809326171875
8878,-48.56447219848633,-2.1036937236785893,35.48604202270508,44.9068489074707
8879,-55.38230895996094,3.4238784313201904,29.22544860839844,40.86027526855469
8880,-46.975013732910156,-1.277175784111023,41.00239181518555,47.98104476928711
8881,-53.800331115722656,-3.2855021953582764,36.413536071777344,48.01470565795898
8882,-50.53913879394531,-12.437037467956545,33.687149047851555,42.64046859741211
8883,-41.98972702026367,5.2751288414001465,28.634544372558594,49.05813598632813
8884,-42.44973373413086,0.6114736199378967,35.897430419921875,46.94135284423828
8885,-44.914329528808594,-3.932504892349243,36.45841598510742,44.54781723022461
8886,-39.386756896972656,-2.047595262527466,32.550220489501946,47.97356796264648
8887,-42.71152877807617,3.7268102169036874,28.19697570800781,51.99769973754883
8888,-37.10915756225586,11.876051902770994,40.39278793334961,56.05548858642578
8889,-41.4736213684082,2.0438554286956787,43.62032318115234,50.75979232788086
8890,-46.55988311767578,-0.13276645541191098,33.32437896728516,43.23137283325195
8891,-52.274452209472656,2.82923436164856,22.153297424316406,43.46324920654297
8892,-56.085411071777344,3.8876259326934814,21.539953231811523,45.83434295654297
8893,-53.68439483642578,-5.0021162033081055,25.54164695739746,41.862571716308594
8894,-53.2580451965332,-1.4679107666015625,23.64925765991211,40.490028381347656
8895,-44.1850471496582,12.089226722717285,25.99417495727539,44.03171157836914
8896,-45.20603942871094,0.8620469570159912,28.18575668334961,44.84701156616211
8897,-41.29036712646485,-7.679884433746338,40.87897491455078,49.04691696166992
8898,-50.39702224731445,0.6451327204704285,28.398929595947266,45.08636474609375
8899,-46.481346130371094,2.0513350963592534,17.89729118347168,49.55180358886719
8900,-37.50184631347656,1.8531204462051392,35.23546600341797,54.78018569946289
8901,-43.47820663452149,-9.97244358062744,33.784385681152344,43.964393615722656
8902,-43.89707565307617,-15.021307945251465,29.71911430358887,44.48049926757813
8903,-41.55215835571289,-3.2967216968536377,28.264293670654297,46.45516586303711
8904,-36.54817199707031,0.1552058458328247,33.63105010986328,51.590049743652344
8905,-39.46155548095703,-1.3220546245574951,41.59703826904297,45.06018447875977
8906,-42.47591400146485,-3.8165678977966313,33.32063674926758,37.35224914550781
8907,-40.11603546142578,1.086440920829773,28.851457595825195,42.55819320678711
8908,-38.88935089111328,0.7236706614494324,37.66640090942383,44.16634750366211
8909,-39.51391220092773,-4.441131114959717,49.0506591796875,43.197715759277344
8910,-41.78029251098633,-4.62812614440918,40.01131820678711,49.33115005493164
8911,-48.14934158325195,-5.664078712463379,33.71706771850586,49.4508285522461
8912,-39.54383087158203,7.900538444519043,42.2365608215332,54.87742233276367
8913,-53.78163146972656,-14.83431339263916,42.2851791381836,47.1844482421875
8914,-50.50922012329102,-11.517022132873535,37.520545959472656,46.26069259643555
8915,-41.48857879638672,3.4837167263031006,33.313159942626946,51.20484161376953
8916,-39.2857780456543,-5.290088653564453,46.90769577026367,57.843162536621094
8917,-39.61114883422852,-8.798114776611328,46.98623275756836,46.57484436035156
8918,-38.492919921875,-11.861092567443848,41.30532455444336,51.64241027832031
8919,-42.34501647949219,-5.0021162033081055,31.23003387451172,50.87572860717773
8920,-32.550220489501946,1.437991499900818,46.08865737915039,54.64928817749024
8921,-39.22220230102539,-9.456336975097656,49.48822784423828,43.19023513793945
8922,-37.02313995361328,-5.7126970291137695,43.915775299072266,45.03026580810547
8923,-35.366363525390625,-0.5441554188728333,43.67267990112305,50.34466171264648
8924,-32.67363739013672,5.10309362411499,53.76667022705078,49.4433479309082
8925,-40.953773498535156,1.6025471687316897,48.01096725463867,41.46240234375
8926,-45.10132217407226,2.750696420669556,35.269126892089844,36.72020721435547
8927,-43.70634078979492,9.074867248535156,30.84856414794922,49.21147537231445
8928,-35.25042724609375,5.74635648727417,37.81973648071289,49.96693420410156
8929,-40.15717697143555,3.382739543914795,41.97476577758789,48.20544052124024
8930,-48.77764511108398,-10.55960750579834,33.189743041992195,40.59848403930664
8931,-36.073204040527344,4.355113506317139,32.157527923583984,48.03340530395508
8932,-33.86292266845703,4.310234546661377,37.60282516479492,45.78572463989258
8933,-39.88416290283203,-3.1807849407196045,39.678466796875,36.17044067382813
8934,-43.97935485839844,3.35282039642334,36.073204040527344,41.69801330566406
8935,-43.72877883911133,8.08005428314209,26.11385154724121,40.48628616333008
8936,-37.34103012084961,1.3856329917907717,35.35140609741211,49.82855606079102
8937,-43.34730911254883,-3.278022289276123,42.74892807006836,41.43247985839844
8938,-38.750972747802734,-1.5838476419448853,34.797897338867195,45.759544372558594
8939,-33.844223022460945,5.499522686004639,32.980308532714844,52.56990432739258
8940,-35.43368148803711,-5.757575988769531,42.11688232421875,56.34346389770508
8941,-30.669050216674805,-1.3669334650039673,50.43067932128906,49.62286376953125
8942,-41.91866683959961,0.5927741527557373,39.73456573486328,43.61658477783203
8943,-33.81430435180664,8.667218208312987,35.190589904785156,46.0400390625
8944,-30.38107681274414,2.5637013912200928,41.74289321899414,52.5025863647461
8945,-39.73830795288086,-2.0887341499328613,48.3999137878418,44.62261581420898
8946,-47.11713027954102,-0.5703347325325012,36.34995651245117,43.908294677734375
8947,-43.751220703125,10.03602123260498,25.474328994750977,48.71780776977539
8948,-46.23825454711914,7.335813999176025,29.52090072631836,47.98478698730469
8949,-51.26841735839844,1.247256636619568,32.01541519165039,37.85339736938477
8950,-49.0618782043457,7.361992835998535,26.1213321685791,38.706092834472656
8951,-48.156822204589844,9.40397834777832,22.142078399658203,40.23197555541992
8952,-44.74603271484375,1.755882978439331,26.11385154724121,43.90081405639648
8953,-45.57255172729492,-1.430511713027954,28.499908447265625,40.96125411987305
8954,-39.87294387817383,3.2892420291900635,27.61355209350586,46.249473571777344
8955,-34.184555053710945,9.9387845993042,27.53501319885254,51.14874267578125
8956,-46.70948028564453,2.9152519702911377,29.83879089355469,44.304725646972656
8957,-47.30038452148438,-1.1761984825134275,34.229434967041016,50.05295181274414
8958,-42.34127807617188,4.149418830871582,30.69148826599121,47.90250778198242
8959,-39.72334671020508,7.9977760314941415,31.97053527832031,55.38604736328125
8960,-34.940013885498054,9.684471130371094,41.02857208251953,54.032203674316406
8961,-39.618629455566406,-1.4679107666015625,43.00323867797852,46.14849472045898
8962,-42.00842666625977,-3.5959138870239262,31.64516258239746,33.118682861328125
8963,-34.10601806640625,6.614013195037843,37.24379348754883,41.03605270385742
8964,-38.4630012512207,3.996083021163941,36.716468811035156,41.993465423583984
8965,-43.87837600708008,3.8352673053741455,39.49521255493164,43.253814697265625
8966,-51.96403884887695,1.0266025066375732,31.592803955078125,41.45492172241211
8967,-45.75580596923828,6.18766450881958,22.7292423248291,49.533103942871094
8968,-40.65832138061523,9.239422798156738,37.80104064941406,60.87248229980469
8969,-48.59439086914063,-14.561300277709961,37.43452835083008,48.26153945922852
8970,-40.706939697265625,-2.37670636177063,40.28059387207031,49.58172225952149
8971,-38.997806549072266,7.797691345214844,40.592872619628906,48.71780776977539
8972,-40.59474563598633,-2.879723072052002,47.24989700317383,49.51066589355469
8973,-27.20590209960937,-9.705039978027344,52.75128936767578,50.71865463256836
8974,-28.26055335998535,-9.353489875793457,43.52495574951172,50.61019515991211
8975,-36.82118606567383,3.7997384071350098,39.788795471191406,55.59174346923828
8976,-36.14052200317383,-5.07504415512085,45.95962905883789,56.08166885375977
8977,-40.28059387207031,-5.815544605255128,44.19065856933594,52.8952751159668
8978,-44.424400329589844,-7.879969120025635,30.267009735107425,50.2062873840332
8979,-35.845069885253906,6.0773372650146475,34.97554397583008,47.5546989440918
8980,-42.06078338623047,6.425148010253906,40.46571731567383,41.204349517822266
8981,-41.4923210144043,-8.384855270385742,42.156150817871094,33.264541625976555
8982,-42.38615798950195,-8.721446990966799,37.30176162719727,35.69547653198242
8983,-36.87728500366211,10.213666915893556,33.34868621826172,44.79839324951172
8984,-38.36576461791992,5.056344509124756,35.18871688842773,43.10421752929688
8985,-46.72069931030274,-7.008572578430176,38.3115348815918,37.756160736083984
8986,-44.08781051635742,-3.0854175090789795,30.65221977233887,38.941707611083984
8987,-37.995513916015625,5.875382900238037,32.873722076416016,45.23221969604492
8988,-34.397727966308594,14.387394905090332,44.91619873046875,50.55035781860352
8989,-43.29495239257813,0.93497496843338,41.367034912109375,48.29519653320313
8990,-49.26009368896485,1.2491265535354614,30.74197769165039,54.331398010253906
8991,-50.15392684936523,2.827364444732666,24.58236312866211,44.80587005615234
8992,-35.66181564331055,9.536745071411133,38.554630279541016,62.761131286621094
8993,-39.82806396484375,-2.1242632865905757,42.735836029052734,49.682701110839844
8994,-38.29096603393555,1.2827856540679932,43.64463424682617,52.17721557617188
8995,-44.12894821166992,2.142962694168091,34.86708831787109,50.748573303222656
8996,-34.13967514038086,6.829057216644287,43.48007583618164,59.69441223144531
8997,-33.694629669189446,-3.949334383010864,48.06145477294922,52.06875610351562
8998,-45.42295455932617,-1.1406694650650024,39.3848876953125,43.16779708862305
8999,-41.53719711303711,3.814697980880737,35.41685104370117,48.59812927246094
9000,-42.7190055847168,10.864409446716307,39.403587341308594,49.20025253295898
9001,-44.74229431152344,5.598630428314209,38.532188415527344,42.666648864746094
9002,-54.08456420898438,-3.792258501052856,29.60130882263184,35.183109283447266
9003,-44.71985244750977,0.8414775133132935,27.5069637298584,46.27191162109375
9004,-46.93013381958008,7.689234256744385,43.54365539550781,45.38181686401367
9005,-45.40425491333008,2.77500581741333,53.33845138549805,42.02338409423828
9006,-43.36227035522461,8.893482208251953,47.45933151245117,48.04088592529297
9007,-43.65398406982422,10.774651527404783,42.376808166503906,50.53913879394531
9008,-40.841575622558594,3.3546903133392334,50.346534729003906,52.26323318481445
9009,-41.65687561035156,1.8400307893753047,52.40721893310547,49.073097229003906
9010,-45.66230773925781,-1.4847402572631836,44.18317794799805,45.53889083862305
9011,-35.94978713989258,11.963939666748047,44.3327751159668,53.90878677368164
9012,-35.51969909667969,0.5796844959259033,46.22516250610352,55.28881072998047
9013,-39.13244247436523,-4.214867115020752,43.48755645751953,50.023033142089844
9014,-43.47446823120117,-5.269518852233887,36.482723236083984,42.13558197021485
9015,-41.13702774047852,3.885756015777588,33.591781616210945,41.89997100830078
9016,-37.03062057495117,2.341177463531494,41.74850463867188,48.34381866455078
9017,-39.40171432495117,-6.8402771949768075,40.45075607299805,34.57350540161133
9018,-38.97162628173828,-2.902162313461304,30.252050399780273,40.60222244262695
9019,-42.25899887084961,-2.3037784099578857,26.08580207824707,43.20519256591797
9020,-36.20036315917969,8.212820053100586,37.22696304321289,49.80985641479492
9021,-45.759544372558594,-3.84835696220398,34.68383407592773,39.84302520751953
9022,-40.56856536865234,-4.7758522033691415,36.92403411865234,42.33005905151367
9023,-44.11024856567383,5.80058479309082,34.014389038085945,40.97621536254883
9024,-44.615135192871094,6.76547908782959,41.34085464477539,43.87837600708008
9025,-49.21521377563477,-5.5874104499816895,42.309486389160156,33.825523376464844
9026,-40.60970306396485,5.834243774414063,46.67021179199219,43.541786193847656
9027,-33.52633285522461,15.090496063232422,41.75972366333008,49.57050323486328
9028,-42.99201965332031,8.182901382446289,45.70905685424805,50.28108596801758
9029,-38.15633010864258,-0.2954520881175995,42.417945861816406,46.04377746582031
9030,-34.07235717773437,7.416221618652344,35.910518646240234,41.97476577758789
9031,-38.27600479125977,9.084217071533203,31.29548263549805,46.74687957763672
9032,-35.25790786743164,-1.896129250526428,38.18437957763672,49.58920288085938
9033,-37.939414978027344,3.9343748092651367,38.89495849609375,50.35588455200195
9034,-37.23631286621094,-1.1780685186386108,36.38174819946289,55.34490966796875
9035,-35.88621139526367,10.105209350585938,28.50551795959473,55.73386001586914
9036,-35.231727600097656,11.376775741577148,36.66971969604492,58.05259704589844
9037,-45.96524047851562,6.230673313140869,34.92318725585937,55.70019912719727
9038,-50.94304656982422,-3.395829200744629,29.014142990112305,48.42235565185547
9039,-43.63902282714844,8.680307388305664,33.84235382080078,55.90215301513672
9040,-45.96524047851562,5.13488245010376,40.77238845825195,54.7540054321289
9041,-48.86740112304688,2.165402173995972,43.92886352539063,41.60451889038086
9042,-48.85992431640625,1.1855483055114746,30.26327133178711,37.99925231933594
9043,-47.97356796264648,7.7303733825683585,28.337221145629886,33.586170196533196
9044,-45.6884880065918,3.889495849609375,39.590579986572266,39.805625915527344
9045,-45.07514572143555,-1.6679953336715698,43.26316452026367,38.8631706237793
9046,-43.826019287109375,3.7286803722381587,40.02814865112305,33.881622314453125
9047,-31.895736694335934,10.082770347595217,39.22407150268555,48.78886413574219
9048,-37.35224914550781,13.014851570129395,46.41589736938477,46.29809188842773
9049,-35.0185546875,2.202800989151001,45.93345260620117,49.57798385620117
9050,-44.768470764160156,-2.041985273361206,38.247955322265625,51.661109924316406
9051,-33.369258880615234,10.961647033691406,38.41999053955078,62.83218765258789
9052,-36.00214767456055,-3.5603847503662114,40.97808456420898,62.54047775268555
9053,-37.22883224487305,-6.832797050476074,36.13117218017578,52.233314514160156
9054,-40.44888687133789,-9.424548149108887,29.52651023864746,53.02243041992188
9055,-35.29156494140625,1.6081570386886597,33.965770721435554,63.62504959106445
9056,-43.26503372192383,-8.579330444335938,33.483325958251946,53.52357864379883
9057,-38.82577133178711,-14.3051176071167,37.006309509277344,42.588111877441406
9058,-46.96005249023438,-5.568710803985597,29.982778549194336,41.47735977172852
9059,-42.13932418823242,-4.8543901443481445,24.46268653869629,47.33030319213867
9060,-39.39797592163086,-8.437213897705076,36.7557373046875,54.3800163269043
9061,-41.91866683959961,-9.30113124847412,43.33795928955078,46.249473571777344
9062,-43.29869079589844,-0.07853789627552032,39.10065460205078,50.00433349609375
9063,-37.63648223876953,0.5759446024894714,34.537975311279304,58.49764633178711
9064,-29.94350814819336,-5.445294380187988,35.495391845703125,56.97550582885742
9065,-35.18684768676758,-7.894928932189941,43.371620178222656,53.93122863769531
9066,-31.6975212097168,-10.082770347595217,37.14468765258789,52.25201034545898
9067,-27.516313552856445,-0.5048865079879761,31.931264877319336,50.85329055786133
9068,-31.12905693054199,-2.288818836212158,40.96686553955078,40.88271713256836
9069,-29.70041465759277,-4.308364868164063,42.642337799072266,37.28493118286133
9070,-44.05041122436523,1.2678260803222656,27.948272705078125,26.51776123046875
9071,-41.46987915039063,7.509718894958496,23.467872619628906,36.18914031982422
9072,-43.50438690185547,9.951873779296877,28.916906356811523,41.33898544311523
9073,-44.936767578125,-3.051758289337158,31.89012718200684,42.90226364135742
9074,-42.77136611938477,-4.046571731567384,31.463777542114254,49.40594863891602
9075,-41.013614654541016,6.447587490081787,27.88095474243164,60.65556716918945
9076,-40.94255447387695,2.0045864582061768,38.59202575683594,65.91761016845703
9077,-47.94364929199219,-8.822423934936523,43.554874420166016,58.38918685913086
9078,-49.76498031616211,-6.76547908782959,32.23419952392578,59.27554321289063
9079,-43.7400016784668,-0.11593689769506454,34.44821929931641,63.91302108764648
9080,-33.694629669189446,2.0532050132751465,48.16617202758789,62.66015243530274
9081,-38.74349212646485,-5.318137645721436,52.50819396972656,52.21087265014648
9082,-34.53236770629883,5.071304321289063,53.970497131347656,57.48039245605469
9083,-36.334999084472656,12.266871452331545,46.92452621459961,56.16394805908203
9084,-37.58786392211914,5.404155254364014,44.362693786621094,53.31414413452149
9085,-34.27805328369141,6.892635822296143,51.93973159790039,50.87572860717773
9086,-43.32487106323242,2.0606849193573002,38.51348876953125,42.84990310668945
9087,-39.330657958984375,2.39353609085083,31.94996452331543,43.0817756652832
9088,-37.30363082885742,-1.9559676647186282,32.200538635253906,38.0590934753418
9089,-34.865219116210945,-13.946086883544922,39.8785514831543,34.083580017089844
9090,-31.64890289306641,-5.2358598709106445,33.61048126220703,28.55226707458496
9091,-30.609210968017575,8.399815559387207,34.94562530517578,37.12411880493164
9092,-34.51366806030273,5.579930782318115,32.45111083984375,37.55046463012695
9093,-37.81973648071289,4.629996299743652,34.40333938598633,41.5745964050293
9094,-45.34441757202149,-4.405601978302002,13.47111988067627,35.86003112792969
9095,-40.89393615722656,0.09349749982357024,14.93716049194336,56.57533645629883
9096,-44.854488372802734,-3.47810697555542,19.23804473876953,48.41861343383789
9097,-38.41812133789063,-8.377375602722168,30.831735610961914,60.0609245300293
9098,-41.8438720703125,2.3486571311950684,33.25893020629883,56.7398910522461
9099,-32.883071899414055,-4.779592037200928,34.997982025146484,66.14574432373047
9100,-34.898876190185554,-5.351796627044678,40.263763427734375,61.21281433105469
9101,-28.95617485046387,-9.0056791305542,54.2322883605957,60.39003372192383
9102,-31.869558334350586,-1.1930280923843384,48.39804458618164,47.82023239135742
9103,-30.328718185424805,1.8325510025024412,41.00052261352539,46.75061798095703
9104,-31.88077735900879,-1.5819777250289917,44.81148147583008,45.58003234863281
9105,-33.24209976196289,-9.951873779296877,50.234336853027344,41.66435623168945
9106,-41.78777313232422,-2.337437391281128,36.32190704345703,37.57664489746094
9107,-42.95462036132813,12.524925231933596,32.31647491455078,42.015907287597656
9108,-41.69801330566406,4.992766380310059,31.99110412597656,44.005531311035156
9109,-44.01301193237305,1.495959997177124,34.68009185791016,36.1816635131836
9110,-44.24114608764648,-3.781038761138916,28.53917694091797,29.03471374511719
9111,-34.59594345092773,7.505979061126709,27.02825736999512,41.78777313232422
9112,-38.567718505859375,-0.2917121946811676,31.90134620666504,38.31714630126953
9113,-43.46698760986328,-1.2229472398757937,32.15192031860352,36.43597412109375
9114,-47.27420425415039,-6.3241705894470215,17.15492057800293,38.50040054321289
9115,-34.62586212158203,9.75365924835205,26.1867790222168,53.3178825378418
9116,-38.1002311706543,1.7988919019699097,32.91859817504883,54.38375473022461
9117,-42.730228424072266,1.7727125883102417,38.36389541625977,53.32536315917969
9118,-44.304725646972656,1.5109195709228516,35.34953308105469,54.32765579223633
9119,-39.07260513305664,4.974066734313965,34.57163619995117,61.75509643554688
9120,-31.562885284423828,6.638322353363037,43.2706413269043,68.22886657714844
9121,-42.326316833496094,-4.936667919158936,46.05312728881836,50.40076065063477
9122,-43.145355224609375,0.8938360810279846,42.24591064453125,49.58546447753906
9123,-41.279144287109375,7.169388294219972,41.07158279418945,45.34441757202149
9124,-33.91154098510742,7.281585216522218,51.70785522460938,46.331748962402344
9125,-39.81684494018555,1.4323816299438477,46.06434631347656,35.35514450073242
9126,-51.60501098632813,5.164802074432373,35.70856475830078,29.270326614379886
9127,-43.54926681518555,9.589103698730467,35.94791793823242,36.55939102172852
9128,-37.703800201416016,20.6405086517334,35.93669891357422,40.699462890625
9129,-50.28856658935547,2.3299577236175537,31.23564529418945,34.984893798828125
9130,-53.28048324584961,4.386902809143066,21.575483322143555,37.50932693481445
9131,-45.32571792602539,11.126202583312988,24.42154693603516,44.05414962768555
9132,-45.68474960327149,9.813497543334961,27.708919525146484,44.87318801879883
9133,-47.6369743347168,0.6096037030220032,26.77768325805664,38.664955139160156
9134,-47.79030990600586,-1.4286417961120603,24.077476501464844,39.091304779052734
9135,-43.18649291992188,-2.31125807762146,25.023670196533203,50.72613143920898
9136,-41.26418685913086,4.8244709968566895,37.8702278137207,52.25201034545898
9137,-39.89538192749024,-2.337437391281128,40.87710571289063,46.61598205566406
9138,-42.78258514404297,-1.7540130615234375,34.75115203857422,53.06357192993164
9139,-44.60017776489258,6.37278938293457,30.36798858642578,47.9473876953125
9140,-41.83639144897461,6.967433452606201,39.37366485595703,43.97561264038086
9141,-49.28253173828125,-7.042231559753418,43.61471176147461,37.72998046875
9142,-47.31160354614258,-4.001692771911621,33.97698974609375,36.226539611816406
9143,-46.14475631713867,10.684894561767578,39.8598518371582,43.384708404541016
9144,-43.010719299316406,14.23405933380127,46.26630401611328,46.73939895629883
9145,-42.60306930541992,6.683201313018799,48.88797378540039,34.28927230834961
9146,-47.93242645263672,4.903008937835693,39.32504653930664,33.459014892578125
9147,-44.779693603515625,5.80058479309082,33.60674285888672,38.07779312133789
9148,-40.06367874145508,8.399815559387207,39.17171096801758,43.201454162597656
9149,-47.27046585083008,7.345163345336914,36.70711898803711,39.345619201660156
9150,-50.49799728393555,-0.6844016909599304,23.538930892944336,35.7515754699707
9151,-46.41776657104492,3.321031093597412,21.75499725341797,37.86461639404297
9152,-45.14246368408203,1.1668487787246704,28.434459686279297,38.07779312133789
9153,-39.45781326293945,-0.856437087059021,32.810142517089844,35.66929626464844
9154,-38.76967239379883,1.1032705307006836,35.04660415649414,42.25151824951172
9155,-35.845069885253906,5.733266830444336,34.17146682739258,52.41282653808594
9156,-31.82841873168945,4.11014986038208,50.084739685058594,56.67631530761719
9157,-37.16151428222656,-1.7016544342041016,47.7248649597168,55.81987762451172
9158,-41.1632080078125,-5.4527740478515625,47.09281921386719,47.5546989440918
9159,-38.41438293457031,9.308610916137695,43.82414627075195,54.67172622680664
9160,-43.17527389526367,10.666194915771484,46.7038688659668,50.82337188720703
9161,-44.39074325561523,-2.7675259113311768,45.63051986694336,44.11024856567383
9162,-45.980201721191406,3.844617128372192,37.82160949707031,43.66146087646485
9163,-44.32342529296875,11.997598648071287,37.82534790039063,57.91048049926758
9164,-43.19397354125977,3.698760986328125,41.19873809814453,46.85159683227539
9165,-42.70404815673828,3.2649326324462886,45.14433288574219,43.17153549194336
9166,-48.13438415527344,0.2767525911331177,33.49828338623047,39.45407485961914
9167,-40.05619812011719,7.554597854614258,38.7341423034668,45.11254501342773
9168,-41.48857879638672,5.766925811767577,42.05517578125,45.83808517456055
9169,-47.79405212402344,-4.327064037322998,44.168216705322266,41.03979110717773
9170,-50.29230499267578,-3.1489958763122563,33.210311889648445,44.89188766479492
9171,-41.39134216308594,2.9582607746124268,36.0040168762207,50.10905075073242
9172,-37.05679702758789,-2.4982531070709233,40.78734970092773,55.46271514892578
9173,-42.64421081542969,-5.4826931953430185,44.43375015258789,46.48321533203125
9174,-45.20230102539063,-4.7758522033691415,41.71858215332031,53.92561721801758
9175,-40.63962173461914,3.6838014125823975,43.39780044555664,53.5291862487793
9176,-44.28602600097656,7.072150707244872,52.26136016845703,51.04215621948242
9177,-44.33464431762695,1.6979146003723145,60.60881805419922,46.64777374267578
9178,-40.42644882202149,-1.98962676525116,45.529541015625,45.64173889160156
9179,-33.892845153808594,12.753058433532715,42.83307266235352,54.93539047241211
9180,-33.67593002319336,4.820731163024902,49.744407653808594,47.38827133178711
9181,-42.83120346069336,-8.822423934936523,44.90123748779297,39.31008911132813
9182,-45.59125137329102,-4.551458358764648,41.25483703613281,40.04310989379883
9183,-41.21556854248047,9.024378776550293,36.79313659667969,48.71593856811523
9184,-39.5849723815918,1.1593689918518066,46.692649841308594,54.29212951660156
9185,-39.74578857421875,-9.084217071533203,52.23518371582031,52.70267105102539
9186,-45.96524047851562,-6.720600128173827,44.73294448852539,47.44437026977539
9187,-38.4630012512207,1.3014851808547974,42.09257507324219,58.98196029663086
9188,-37.7000617980957,2.3748364448547363,43.02380752563477,52.82982635498047
9189,-43.07429885864258,-12.416467666625975,41.15011978149414,42.68721771240234
9190,-39.124961853027344,-4.626256465911865,36.52012252807617,45.529541015625
9191,-34.607162475585945,-0.7891188859939575,33.150474548339844,45.74645614624024
9192,-42.26274108886719,-3.9194152355194087,37.81412887573242,43.2108039855957
9193,-43.84845733642578,-11.795644760131836,38.31901550292969,38.12080001831055
9194,-47.44998168945313,-12.648341178894045,35.86938095092773,39.36244583129883
9195,-35.98344802856445,4.199907779693604,46.85720825195313,51.67045593261719
9196,-40.13099670410156,1.1518892049789429,48.0876350402832,46.29248046875
9197,-43.13039779663086,-4.289665222167969,53.5291862487793,36.33686828613281
9198,-49.70513916015625,-11.45905303955078,40.90328598022461,21.83353614807129
9199,-38.33210372924805,-0.22439399361610413,38.84634017944336,38.348934173583984
9200,-36.04328536987305,-1.8063716888427732,49.95010375976562,43.17340469360352
9201,-39.80188369750977,-10.034152030944824,51.13565063476562,29.90049934387207
9202,-35.10831069946289,-5.220900535583496,47.32843399047852,42.08883285522461
9203,-36.11434555053711,-1.873689889907837,42.70965576171875,49.78554916381836
9204,-37.53550720214844,8.003385543823242,51.1693115234375,60.115150451660156
9205,-45.37433624267578,-7.715413570404053,49.93888473510742,54.86433410644531
9206,-49.00204086303711,-1.316444754600525,45.9110107421875,58.09934616088867
9207,-49.66400146484375,2.501993179321289,34.26122283935547,59.64766311645508
9208,-50.748573303222656,-7.865009784698486,38.57706832885742,56.046142578125
9209,-54.44733428955078,-9.850896835327148,39.58684158325195,38.81642150878906
9210,-51.30207824707031,-3.0891573429107666,35.32709503173828,42.27582931518555
9211,-46.62346267700195,0.3814697861671448,29.253498077392575,42.65356063842773
9212,-43.410888671875,-4.0652713775634775,31.17206573486328,34.17894744873047
9213,-38.78837203979492,-7.8388304710388175,40.69385147094727,30.5175838470459
9214,-38.57145690917969,-4.2036476135253915,36.68093872070313,32.84754180908203
9215,-33.421615600585945,2.7637860774993896,34.85586929321289,35.77214431762695
9216,-33.92276382446289,2.2663793563842773,40.82474899291992,33.24023056030273
9217,-35.845069885253906,3.5416853427886963,55.63849258422852,33.56186294555664
9218,-35.72539520263672,8.078184127807617,49.54993438720703,35.061561584472656
9219,-30.46709442138672,15.464486122131348,49.6135139465332,40.5816535949707
9220,-39.330657958984375,3.242493152618408,45.40986633300781,26.22043800354004
9221,-32.80453109741211,5.071304321289063,68.11106109619139,36.51638412475586
9222,-37.73746109008789,6.103516578674316,58.43967819213867,34.51553726196289
9223,-39.846763610839844,5.830503940582275,46.76744842529297,43.180885314941406
9224,-40.62466430664063,3.4556674957275386,49.01886749267578,46.655250549316406
9225,-48.94968032836914,-9.215113639831543,42.8779525756836,48.23348999023438
9226,-48.66170883178711,-5.284478664398193,25.45001983642578,45.32758712768555
9227,-44.588958740234375,-4.424301624298097,25.334081649780273,52.81112670898438
9228,-47.48363876342773,-10.329604148864746,32.21175765991211,50.47369003295898
9229,-54.97092056274414,-12.442646980285645,28.329742431640625,48.1886100769043
9230,-52.56242370605469,-3.1714351177215576,19.88130760192871,37.9300651550293
9231,-47.71925354003906,-6.559784412384032,17.15492057800293,45.17425155639648
9232,-32.81575393676758,-1.7652328014373782,37.98616409301758,44.37017440795898
9233,-31.76110076904297,-10.83823013305664,38.872520446777344,28.88324737548828
9234,-26.005393981933594,-6.926294803619385,36.45280456542969,20.161800384521484
9235,-17.411104202270508,6.398968696594237,43.48007583618164,19.9299259185791
9236,-24.494474411010746,3.818437814712525,45.13311386108398,7.113289833068848
9237,-26.68605613708496,-3.4070489406585693,46.232643127441406,-1.2827856540679932
9238,-33.27576065063477,4.0129127502441415,33.84983444213867,3.205094337463379
9239,-32.400623321533196,12.659561157226562,37.51119613647461,17.386795043945312
9240,-31.20759582519531,17.053943634033207,48.97024917602539,31.13466644287109
9241,-41.43247985839844,5.987579822540282,46.55427551269531,30.13237380981445
9242,-49.8135986328125,-10.662454605102539,35.61880874633789,42.1262321472168
9243,-37.7075424194336,0.7105810046195984,40.88458633422852,61.368019104003906
9244,-36.50703430175781,-2.5693113803863525,43.24820327758789,68.24195098876953
9245,-44.573997497558594,-15.838476181030273,37.81038665771485,64.89100646972656
9246,-40.61344528198242,-10.232366561889648,35.379451751708984,65.50434875488281
9247,-47.356483459472656,-11.328157424926758,14.738945960998535,58.95204162597656
9248,-42.92470169067383,-22.94802665710449,20.52457046508789,52.23144149780274
9249,-51.548912048339844,-18.867795944213867,17.5999698638916,47.89690017700195
9250,-52.43526840209961,-10.071550369262695,16.952966690063473,52.11924743652344
9251,-47.29290390014648,1.260346293449402,20.367494583129886,63.67179489135742
9252,-42.65542984008789,-5.654728889465332,34.80350875854492,56.78290176391602
9253,-46.93761444091797,-7.434921264648437,45.06205368041992,53.0243034362793
9254,-31.925655364990234,-8.242739677429201,50.85142135620117,45.14433288574219
9255,-20.268388748168945,-5.774405479431152,55.35052108764648,42.58998107910156
9256,-11.517022132873535,-10.082770347595217,63.41748428344727,24.20089340209961
9257,-8.655998229980469,-17.080123901367188,65.10044097900389,15.090496063232422
9258,-12.53801441192627,-21.35856819152832,48.940330505371094,7.386302471160889
9259,-20.1300106048584,-10.213666915893556,44.321556091308594,13.50851821899414
9260,-27.06752586364746,-12.154674530029295,49.80798721313477,25.83148956298828
9261,-42.09444427490234,-16.911827087402347,44.62448501586914,25.42009925842285
9262,-48.17552185058594,-8.687788009643555,35.16627883911133,32.73908233642578
9263,-46.46638870239258,5.381716251373291,37.02127075195313,55.62727355957031
9264,-54.49221420288086,-2.9133820533752437,31.40768051147461,58.98944091796875
9265,-51.8219223022461,-1.3650634288787842,35.592628479003906,62.47502899169922
9266,-47.00119400024414,-9.82845687866211,28.512996673583984,67.7894287109375
9267,-40.40774917602539,1.398722529411316,25.45749855041504,75.99476623535156
9268,-36.52199172973633,-7.629395961761475,27.18159294128418,74.2519760131836
9269,-37.77486038208008,-11.287017822265625,31.561016082763672,64.24774169921875
9270,-45.09758377075195,-6.133435726165772,23.56510925292969,52.66152954101562
9271,-44.615135192871094,-12.753058433532715,21.014497756958008,49.59855270385742
9272,-34.77172088623047,-1.252866506576538,33.98073196411133,53.71244430541992
9273,-43.351051330566406,-7.715413570404053,34.874568939208984,34.388381958007805
9274,-40.763038635253906,0.02617929875850677,32.49599075317383,36.57622146606445
9275,-38.59763717651367,3.9455945491790767,41.76346206665039,34.73992919921875
9276,-34.51366806030273,-0.8863562941551208,50.05108261108398,27.271350860595703
9277,-36.51077270507813,-7.861269474029541,49.089927673339844,19.63447570800781
9278,-36.21906280517578,-14.85114288330078,36.94272994995117,26.44857215881348
9279,-41.43247985839844,-5.224640369415283,34.44073867797852,34.11162567138672
9280,-44.83578872680664,-1.4473413228988647,39.38114547729492,40.843448638916016
9281,-42.015907287597656,-3.5304656028747563,49.25822067260742,49.19090270996094
9282,-48.7103271484375,-8.313797950744629,31.650774002075195,56.05361938476562
9283,-44.042930603027344,2.606710195541382,41.41939163208008,69.39384460449219
9284,-44.84326934814453,-5.430334568023682,41.84199905395508,70.26524353027344
9285,-44.147647857666016,-14.196660041809082,43.04998779296875,59.67758178710938
9286,-39.618629455566406,-12.801677703857422,36.83053588867188,54.011634826660156
9287,-37.95811462402344,-9.304871559143066,36.78191757202149,58.60423278808594
9288,-33.926502227783196,-10.737253189086914,46.94696426391602,60.15629196166992
9289,-36.44719314575195,-18.53120422363281,38.08340072631836,39.71399688720703
9290,-30.654090881347656,-21.10425567626953,31.41515922546387,39.51578140258789
9291,-33.90032196044922,-7.5396385192871085,30.124895095825195,41.733543395996094
9292,-32.740955352783196,-16.549057006835938,33.27762985229492,33.487064361572266
9293,-31.742401123046875,-19.107149124145508,43.76057052612305,26.463531494140625
9294,-38.88187026977539,-17.760784149169922,33.146732330322266,22.529157638549805
9295,-35.269126892089844,-7.891189098358153,34.163986206054695,31.28800392150879
9296,-35.23546600341797,-0.508626401424408,42.44412612915039,34.42203903198242
9297,-43.773658752441406,-8.796244621276855,38.031044006347656,34.35845947265625
9298,-45.639869689941406,-2.868503332138061,35.94791793823242,42.990150451660156
9299,-49.89213562011719,7.932327747344972,31.1047477722168,51.04963302612305
9300,-47.27046585083008,3.616483211517334,41.62882614135742,61.99258041381836
9301,-52.22957229614258,-11.735806465148926,42.84429550170898,49.20960235595703
9302,-45.63612747192383,-9.62650203704834,40.40587997436523,47.53786849975586
9303,-44.27480697631836,1.0658714771270752,35.712303161621094,55.85166549682617
9304,-42.2776985168457,-11.892881393432615,37.5897331237793,54.13131332397461
9305,-45.49401473999024,-15.924493789672852,37.0960693359375,45.58190155029297
9306,-51.40679550170898,-12.259391784667967,28.07168960571289,45.63800048828125
9307,-40.108558654785156,-4.514059066772461,32.862499237060554,52.58299255371094
9308,-42.37867736816406,-10.770912170410156,37.60095596313477,51.77517318725586
9309,-45.77450561523438,-11.331896781921387,37.42891693115234,42.74331665039063
9310,-42.46469497680664,-8.725186347961426,37.791690826416016,50.3839340209961
9311,-44.01301193237305,-12.63712215423584,24.126094818115234,45.53702163696289
9312,-38.567718505859375,-3.4332282543182373,39.4372444152832,52.91210556030274
9313,-44.727333068847656,-11.126202583312988,40.9818229675293,38.31527328491211
9314,-41.103370666503906,-16.006771087646484,29.758384704589844,41.400691986083984
9315,-32.86437225341797,-5.381716251373291,30.229610443115234,51.48720169067383
9316,-26.67857551574707,-9.50308609008789,45.22660827636719,52.17160415649414
9317,-31.996713638305664,-23.138761520385746,45.67913818359375,44.22805786132813
9318,-33.91154098510742,-20.97709846496582,41.57646942138672,49.44147872924805
9319,-27.362977981567386,-5.796844959259032,40.94442367553711,57.744056701660156
9320,-30.95328140258789,-5.9987993240356445,51.93598937988281,59.61400604248047
9321,-40.74808120727539,-18.673320770263672,42.91535186767578,44.82644271850586
9322,-32.86063003540039,-7.46858024597168,41.7036247253418,51.89859008789063
9323,-39.2969970703125,-7.2441864013671875,35.113922119140625,51.52460098266602
9324,-44.46554183959961,-11.679707527160645,35.536529541015625,46.37102127075195
9325,-43.04438018798828,-10.01545238494873,47.82958221435547,47.55656814575195
9326,-44.56277847290039,-14.017145156860352,39.00715637207031,42.24964904785156
9327,-35.58701705932617,-5.718307018280028,40.99678421020508,51.03841400146485
9328,-41.82143020629883,-1.1182301044464111,44.73294448852539,52.68770980834961
9329,-38.45926284790039,-9.31235122680664,53.16267776489258,44.72920227050781
9330,-44.54781723022461,-13.564617156982422,43.03876876831055,41.928016662597656
9331,-37.84965896606445,5.258299350738525,42.67599868774414,51.44980239868164
9332,-37.7000617980957,3.3397307395935063,54.01537322998047,57.39624404907226
9333,-47.34900283813477,-10.093990325927734,45.320106506347656,50.8476791381836
9334,-47.53225708007813,-12.188333511352539,36.202232360839844,50.574668884277344
9335,-37.10915756225586,-11.328157424926758,37.34289932250977,56.99607467651367
9336,-40.19457626342773,-17.498991012573242,38.95479965209961,55.043846130371094
9337,-38.48543930053711,-16.171327590942386,39.00715637207031,48.36064529418945
9338,-42.44225311279297,-13.295344352722168,32.68298721313477,50.33905410766602
9339,-39.6074104309082,-2.9881801605224614,37.32419967651367,53.71992111206055
9340,-37.097938537597656,-10.056591033935547,43.450157165527344,46.10174560546875
9341,-38.30592346191406,-5.0451250076293945,50.155799865722656,44.83018112182617
9342,-43.725040435791016,-14.61552906036377,44.29911422729492,43.05746841430664
9343,-39.42415618896485,-7.936067581176758,46.07182693481445,48.31950759887695
9344,-36.940860748291016,-11.73206615447998,56.49493026733398,52.69145202636719
9345,-49.03569793701172,-17.99639892578125,51.73029708862305,43.1995849609375
9346,-39.469032287597656,-11.462793350219727,52.42965698242188,50.7766227722168
9347,-34.034957885742195,-3.2836322784423833,53.12527847290039,60.85191345214844
9348,-33.967639923095696,-6.832797050476074,55.22710418701172,58.37983703613281
9349,-42.76014709472656,-10.120169639587402,47.98665618896485,45.62303924560547
9350,-40.433929443359375,-8.033305168151855,43.40901947021485,48.16242980957031
9351,-37.78607940673828,0.5198460817337036,43.68577194213867,52.02948760986328
9352,-36.5556526184082,-5.815544605255128,45.56320190429688,55.26076126098633
9353,-39.570011138916016,-16.549057006835938,53.1290168762207,44.418792724609375
9354,-41.61199569702149,-20.61806869506836,45.36872482299805,49.95010375976562
9355,-40.04497909545898,-2.337437391281128,45.869873046875,54.72969436645508
9356,-40.90515518188477,-9.712520599365234,38.56958770751953,45.59312057495117
9357,-44.9966049194336,-16.190027236938473,41.37825393676758,36.81183624267578
9358,-43.66146087646485,-10.303424835205078,39.0333366394043,42.23469161987305
9359,-39.30447769165039,-2.012066125869751,37.5298957824707,42.309486389160156
9360,-38.133888244628906,-8.295098304748535,43.2706413269043,39.69903945922852
9361,-45.56133270263672,-19.185686111450195,43.34543991088867,30.356767654418945
9362,-41.43996047973633,-17.648588180541992,34.773590087890625,38.49105072021485
9363,-35.68051528930664,-17.390535354614258,35.76840209960937,36.531341552734375
9364,-30.66530990600586,-13.332743644714355,44.17943954467773,44.46366882324219
9365,-34.19203567504883,-16.762231826782227,47.14143753051758,36.98012924194336
9366,-38.5228385925293,-12.17337417602539,37.37656021118164,41.37077331542969
9367,-38.29096603393555,-8.081923484802246,28.935606002807614,40.080509185791016
9368,-37.44948959350586,-15.490665435791016,35.32709503173828,36.198490142822266
9369,-39.77944564819336,-14.623008728027346,42.29452896118164,35.36823272705078
9370,-44.5852165222168,-9.701300621032717,34.78480911254883,34.00317001342773
9371,-37.78607940673828,-8.512012481689451,35.37571334838867,34.59781265258789
9372,-37.599082946777344,-12.274352073669435,39.8598518371582,41.03418350219727
9373,-40.83409881591797,-11.973289489746096,45.27523040771485,44.57960891723633
9374,-33.537551879882805,-9.516175270080566,40.162784576416016,42.73957824707031
9375,-30.58303260803223,1.5127894878387451,37.4775390625,44.00740432739258
9376,-31.390850067138672,-7.571427345275879,48.80569458007813,45.49588394165039
9377,-40.22075271606445,-20.32822608947754,52.40347671508789,39.48960494995117
9378,-48.62804794311523,-15.178383827209473,39.23902893066406,34.01813125610352
9379,-37.95063400268555,1.538968801498413,40.248802185058594,41.44557189941406
9380,-36.10312271118164,-3.386479377746582,49.9837646484375,44.81896209716797
9381,-40.0786361694336,-7.492889404296875,46.88712692260742,35.94791793823242
9382,-44.58147811889648,-10.724163055419922,38.62568664550781,36.695899963378906
9383,-36.08068466186523,3.307941436767578,45.48092269897461,43.62593460083008
9384,-35.39254379272461,-5.7164368629455575,55.29067993164063,42.81437301635742
9385,-38.73227310180664,-9.467556953430176,49.37416076660156,38.41999053955078
9386,-36.84362411499024,-5.308787822723389,38.82764053344727,38.11706161499024
9387,-31.577844619750977,1.0939207077026367,41.00800323486328,45.4996223449707
9388,-32.15005111694336,1.886779546737671,50.32035446166992,45.166770935058594
9389,-43.68016052246094,-12.852166175842285,45.96710968017578,33.0233154296875
9390,-42.06452560424805,-1.86434018611908,43.790489196777344,37.83282852172852
9391,-35.28782653808594,5.147972106933594,41.314674377441406,43.31178283691406
9392,-42.74892807006836,-0.4319584369659424,44.3028564453125,36.44158554077149
9393,-42.674129486083984,2.4141054153442383,45.93719100952149,28.064208984375
9394,-48.67292785644531,-3.3229010105133057,32.222976684570305,29.81448173522949
9395,-39.73456573486328,3.988603353500366,37.34289932250977,43.28934097290039
9396,-33.75820541381836,5.664078712463379,50.20441818237305,45.78385543823242
9397,-51.29085922241211,-1.699784517288208,41.07158279418945,40.2600212097168
9398,-43.45950698852539,-7.036621570587157,35.83198165893555,41.39695358276367
9399,-42.16550064086914,1.4342516660690308,36.92029190063477,48.330726623535156
9400,-45.31449890136719,1.6287264823913574,39.51952362060547,41.310935974121094
9401,-45.35189819335938,0.7386302351951599,42.11127471923828,42.06265640258789
9402,-49.57050323486328,0.0205694492906332,31.403940200805664,36.54256057739258
9403,-45.22848129272461,7.029141902923584,32.533390045166016,50.0436019897461
9404,-51.80696487426758,3.3490803241729736,36.04889678955078,43.266902923583984
9405,-55.07563781738281,-11.139291763305664,37.877708435058594,34.84464645385742
9406,-52.67835998535156,-0.3945594429969788,31.086048126220703,31.276782989501953
9407,-46.7842788696289,-3.356560230255127,37.791690826416016,38.494789123535156
9408,-42.64421081542969,3.3378608226776123,41.355812072753906,32.39127349853516
9409,-45.13498306274414,-8.78315544128418,40.22636413574219,31.01873016357422
9410,-49.54806518554688,-5.649118900299072,30.244571685791016,30.44652557373047
9411,-37.382171630859375,1.1761984825134275,25.94368553161621,37.40647888183594
9412,-35.24294662475586,6.681331157684326,34.968063354492195,42.459083557128906
9413,-43.02568054199219,-9.134705543518066,40.96686553955078,34.590335845947266
9414,-44.55155944824219,-8.674697875976562,31.14962577819824,34.956844329833984
9415,-30.612951278686523,7.683624267578125,35.760921478271484,49.28814315795898
9416,-39.51765441894531,-13.607625961303713,40.82474899291992,39.65789794921875
9417,-40.65458297729492,-18.43209648132324,40.67515182495117,29.3843936920166
9418,-35.990928649902344,-7.133859157562256,41.15760040283203,33.47958374023437
9419,-35.650596618652344,0.4244786500930786,39.96083068847656,38.47235107421875
9420,-35.97222900390625,-1.340754151344299,42.70591735839844,39.57562255859375
9421,-44.495460510253906,-4.250396251678467,45.47344207763672,33.83861541748047
9422,-47.15078735351562,-1.5801076889038086,41.00052261352539,31.42263984680176
9423,-36.66036987304688,15.941323280334473,43.65959167480469,46.29996109008789
9424,-40.13099670410156,5.20033073425293,46.89086532592773,38.90243911743164
9425,-46.253211975097656,-1.086440920829773,45.86613464355469,37.37656021118164
9426,-44.28602600097656,6.441977500915527,31.04864883422852,41.928016662597656
9427,-41.50727844238281,4.968457221984863,29.320816040039066,45.06953430175781
9428,-37.48688888549805,3.487456798553467,35.009204864501946,42.44412612915039
9429,-46.06621932983398,1.4566910266876218,33.44592666625977,41.56150817871094
9430,-44.01301193237305,1.0303424596786501,31.381500244140625,37.75802993774414
9431,-47.42753982543945,3.3603000640869136,27.48078536987305,42.459083557128906
9432,-40.953773498535156,6.195144176483153,43.91764450073242,50.466209411621094
9433,-42.015907287597656,-1.3557137250900269,44.3851318359375,35.49164962768555
9434,-47.82397079467773,1.1761984825134275,31.546056747436523,30.31936836242676
9435,-38.29844665527344,10.48854923248291,33.225269317626946,42.840553283691406
9436,-42.30387878417969,-4.6991844177246085,40.30864334106445,42.21599197387695
9437,-51.7733039855957,-9.47877597808838,40.38343811035156,33.18039321899414
9438,-45.43043518066406,-1.0153828859329224,33.45714569091797,28.83836936950684
9439,-38.91926956176758,7.960377216339111,33.34120941162109,37.44013977050781
9440,-36.74264526367188,3.3116815090179443,37.80664825439453,39.00341796875
9441,-50.07913208007813,-10.088379859924316,38.10958099365234,30.66343879699707
9442,-43.13787460327149,1.2360368967056274,30.03139686584473,30.083755493164066
9443,-51.15622329711914,3.3191611766815186,26.17930030822754,34.45195770263672
9444,-44.41692352294922,6.311081409454347,39.90847396850586,42.552581787109375
9445,-52.24079132080078,3.105986833572388,42.61989974975586,32.11825942993164
9446,-48.687889099121094,11.229049682617188,43.57357406616211,40.951904296875
9447,-41.062232971191406,15.470096588134766,42.395503997802734,52.64657211303711
9448,-45.759544372558594,10.245455741882324,50.66068649291992,46.05312728881836
9449,-49.61538314819336,2.5337822437286377,43.66707229614258,40.85840606689453
9450,-51.399314880371094,9.572274208068848,43.10234832763672,42.50396347045898
9451,-45.80816650390625,17.20541000366211,39.684078216552734,47.526649475097656
9452,-44.5029411315918,19.7074031829834,44.04106140136719,48.42048645019531
9453,-45.43791580200195,9.067387580871582,41.96915817260742,39.99822998046875
9454,-45.74458694458008,8.708356857299805,32.51469039916992,37.29802322387695
9455,-40.42644882202149,13.386971473693848,34.074230194091804,40.05432891845703
9456,-40.755558013916016,8.895352363586426,37.17460632324219,39.53822326660156
9457,-45.44165420532226,10.331473350524902,41.00800323486328,44.89001846313477
9458,-47.33030319213867,8.925271034240723,29.496591567993164,38.74910354614258
9459,-43.80731964111328,16.524747848510742,27.918354034423828,40.80978775024414
9460,-43.769920349121094,3.749249696731568,33.386085510253906,41.49045181274414
9461,-46.66460037231445,-0.4282185435295105,36.45654296875,39.104393005371094
9462,-45.16116333007813,-0.7685494422912598,30.674659729003906,41.25109481811523
9463,-39.59619140625,11.782554626464846,25.341562271118164,44.71798324584961
9464,-38.20494842529297,7.971596717834473,35.9815788269043,45.10693359375
9465,-48.39617538452149,-0.4057791531085968,39.20162963867188,36.16857147216797
9466,-42.61054992675781,7.470449924468994,33.352428436279304,41.03792190551758
9467,-42.397377014160156,9.101046562194824,24.522523880004886,43.81292724609375
9468,-43.36600875854492,9.007549285888672,41.87192153930664,43.42771911621094
9469,-48.85244369506836,-1.5950673818588257,40.43579864501953,37.62713241577149
9470,-48.47471237182617,6.490596294403076,25.71929168701172,41.05662155151367
9471,-51.87054061889648,7.7434630393981925,20.588150024414066,46.614112854003906
9472,-56.74737167358398,4.744062900543213,27.723878860473636,40.162784576416016
9473,-57.274696350097656,4.87869930267334,32.73908233642578,29.95659828186035
9474,-54.8325424194336,7.893058776855469,31.044910430908203,24.50756454467773
9475,-41.5147590637207,14.01527500152588,34.02935028076172,37.55607604980469
9476,-41.148250579833984,6.928164482116699,37.07362747192383,32.301517486572266
9477,-41.73541259765625,0.05796844884753227,42.31322860717773,36.13491439819336
9478,-45.09758377075195,-4.2990150451660165,27.89965438842773,33.442184448242195
9479,-32.59509658813477,13.087779998779295,33.7862548828125,53.72366333007813
9480,-37.06801986694336,1.5165294408798218,42.54136276245117,48.1998291015625
9481,-31.2861328125,-3.2892420291900635,48.98894882202149,45.49588394165039
9482,-31.162715911865234,-4.328934192657472,44.24675750732422,49.6322135925293
9483,-33.795604705810554,3.192004680633545,36.89785385131836,48.88797378540039
9484,-33.122425079345696,-2.82923436164856,46.01947021484375,49.84164810180664
9485,-41.22678756713867,2.56744122505188,45.237831115722656,45.35376739501953
9486,-44.9068489074707,8.31940746307373,42.46282577514648,41.924278259277344
9487,-43.80731964111328,12.100446701049805,38.42747116088867,46.883384704589844
9488,-57.32331466674805,6.610273361206055,41.87939834594727,41.22117614746094
9489,-58.17227554321289,8.020215034484862,45.25653076171875,42.649818420410156
9490,-64.96767425537111,3.7268102169036874,30.334327697753906,33.80869674682617
9491,-49.98937225341797,10.73912239074707,28.86828804016113,42.900390625
9492,-43.31365203857422,6.711250305175781,41.46800994873047,39.38114547729492
9493,-49.94449234008789,-3.8277876377105713,32.93729782104492,32.89989852905273
9494,-41.825172424316406,2.975090503692627,28.26242446899414,43.08738708496094
9495,-43.20893478393555,4.575767517089844,23.494050979614254,42.69469833374024
9496,-43.14161682128906,2.926471710205078,26.859960556030273,42.56006240844727
9497,-41.9373664855957,-3.165825366973877,28.703731536865234,42.69843673706055
9498,-47.36396408081055,2.5001230239868164,24.4664249420166,46.74126815795898
9499,-44.07659149169922,3.674451589584351,19.398860931396484,50.94491577148438
9500,-43.91203689575195,13.23737621307373,33.176651000976555,55.12986373901367
9501,-46.96379470825195,-1.696044683456421,39.7364387512207,51.36752700805664
9502,-44.31968307495117,7.174998283386231,30.55498313903809,52.3735580444336
9503,-39.091304779052734,12.496875762939453,29.25723648071289,55.89654541015625
9504,-39.79440689086914,3.9848635196685787,42.39176559448242,52.91210556030274
9505,-41.88127136230469,-0.009349750354886057,52.31745910644531,46.86094665527344
9506,-43.915775299072266,3.969903707504273,38.532188415527344,42.29079055786133
9507,-36.84362411499024,13.409411430358887,44.95733642578125,49.19838333129883
9508,-40.23197555541992,10.22675609588623,47.80340194702149,43.52869415283203
9509,-44.05789184570313,1.617506742477417,44.508548736572266,37.26436233520508
9510,-50.76727294921875,7.320854187011719,32.724124908447266,43.450157165527344
9511,-51.72842788696289,22.41883087158203,31.20946502685547,53.67878341674805
