,T7,F8,Cz,P4
18000,-43.06494903564453,-6.974913597106934,36.30320739746094,46.74874877929688
18001,-33.531944274902344,7.1357293128967285,41.89809799194336,57.89739227294922
18002,-34.22008514404297,-6.170835018157959,50.39141082763672,56.50240707397461
18003,-39.37366485595703,-19.16324806213379,43.655853271484375,46.34484100341797
18004,-32.96721649169922,-10.561477661132812,42.926570892333984,52.92706298828125
18005,-27.671520233154297,-6.069857597351074,39.8486328125,63.27910614013672
18006,-22.01679039001465,-2.457114219665528,50.387672424316406,64.92840576171875
18007,-34.69131088256836,-19.813989639282227,47.67624282836914,53.69748306274414
18008,-42.65356063842773,-14.275197982788086,36.60614013671875,48.8917121887207
18009,-19.724231719970703,9.761138916015623,52.39599990844727,63.53715896606445
18010,-23.39307403564453,3.268672466278076,57.83381271362305,55.55621337890625
18011,-40.57791519165039,-9.233813285827637,49.34423828125,34.97180557250977
18012,-40.75743103027344,-2.9507811069488525,40.47319793701172,23.72218513488769
18013,-23.2808780670166,-0.18325509130954745,39.407325744628906,34.014389038085945
18014,-23.03404426574707,-0.11593689769506454,47.55282974243164,33.46836471557617
18015,-32.36883544921875,-15.554244041442873,41.95419692993164,26.13442039489746
18016,-27.970712661743164,-7.326464176177978,39.51952362060547,31.75549125671387
18017,-24.60854148864746,-0.063578300178051,36.32938766479492,42.24964904785156
18018,-28.973005294799805,1.3089649677276611,44.93489837646485,42.90787124633789
18019,-39.05203628540039,-16.941747665405273,34.98302459716797,39.34748840332031
18020,-40.742469787597656,-11.68718719482422,28.15770721435547,44.04854202270508
18021,-30.117414474487305,2.1803617477416988,31.246864318847656,59.47562789916992
18022,-31.594675064086914,-4.386902809143066,32.92234039306641,63.20056915283203
18023,-44.86758041381836,-13.744132041931152,28.74487113952637,51.41240310668945
18024,-46.31866073608398,-5.6472487449646,30.237091064453125,51.03841400146485
18025,-25.57717514038086,15.778637886047365,44.81521987915039,70.22409820556639
18026,-33.629180908203125,4.947887420654297,50.96735763549805,61.596153259277344
18027,-44.89001846313477,-12.842816352844238,44.7366828918457,49.42651748657226
18028,-36.97639083862305,2.199061155319214,43.607234954833984,57.02599334716797
18029,-24.58984184265137,6.492466449737549,47.34713363647461,60.46670150756836
18030,-22.499238967895508,1.2566063404083252,57.32144546508789,56.78664016723633
18031,-37.42144012451172,-10.176267623901367,46.98062133789063,42.20476913452149
18032,-35.38319396972656,-4.0091729164123535,41.2810173034668,39.28390884399414
18033,-29.17121887207031,4.1774682998657235,36.09003448486328,45.72401809692383
18034,-36.12743377685547,-3.781038761138916,40.9406852722168,39.025856018066406
18035,-46.67021179199219,-9.259992599487305,40.88458633422852,38.71170425415039
18036,-42.00281524658203,-15.636521339416506,34.137805938720696,47.04046249389648
18037,-37.66079330444336,0.5946440696716309,37.41022109985352,64.30384063720703
18038,-39.11187362670898,-13.803970336914062,39.53822326660156,61.82428741455078
18039,-51.5620002746582,-26.69540596008301,24.571142196655273,50.65320587158203
18040,-53.59276580810547,-14.181700706481935,19.90748786926269,62.89015579223633
18041,-38.86878204345703,3.126556396484375,34.919445037841804,87.24064636230469
18042,-41.449310302734375,-7.6219162940979,41.75224304199219,80.66216278076172
18043,-52.3436393737793,-25.45375823974609,36.23588943481445,61.43159484863281
18044,-46.18402481079102,-9.738699913024902,34.623992919921875,62.81909942626953
18045,-34.40333938598633,1.1593689918518066,41.13515853881836,61.32313919067383
18046,-34.73992919921875,5.718307018280028,50.20815658569336,52.49697494506836
18047,-35.44677352905273,-8.336236953735353,50.56718826293945,45.447265625
18048,-35.99653625488281,-6.8253173828125,51.41240310668945,44.80400085449219
18049,-17.11378288269043,15.838476181030273,63.94107055664063,56.15459823608398
18050,-19.944887161254886,-2.932081460952759,66.55525970458984,55.83296585083008
18051,-26.815082550048828,-9.742439270019533,58.735130310058594,43.67455291748047
18052,-26.60190773010254,-7.756552696228027,48.84683227539063,52.863487243652344
18053,-24.11113548278809,-3.889495849609375,45.9110107421875,66.16631317138672
18054,-24.06251716613769,-4.2485265731811515,48.80569458007813,64.78254699707031
18055,-40.41336059570313,-23.50527191162109,43.03503036499024,51.82753372192383
18056,-44.12707901000977,-18.16469383239746,33.524463653564446,50.33905410766602
18057,-33.87227249145508,2.7376067638397217,38.43869018554688,63.26040649414063
18058,-38.77154159545898,-6.799138069152832,39.19041061401367,60.492881774902344
18059,-51.00849533081055,-8.60176944732666,31.09726905822754,53.98171615600586
18060,-57.89739227294922,-8.900961875915527,22.73859214782715,54.36692428588867
18061,-43.42023849487305,12.150935173034668,31.87516784667969,76.87364196777344
18062,-44.84513854980469,-1.4473413228988647,40.03562927246094,78.86327362060547
18063,-51.80883407592773,-20.91352081298828,32.74282455444336,57.43738174438477
18064,-51.66671752929688,-7.782732009887695,28.180145263671875,62.91633605957031
18065,-34.384639739990234,5.965140342712402,32.009803771972656,68.17837524414061
18066,-37.60095596313477,-7.3302040100097665,36.018978118896484,56.8203010559082
18067,-51.28524780273438,-15.931973457336426,28.64015388488769,49.95010375976562
18068,-42.92283248901367,-2.6590688228607178,31.179546356201172,55.02888870239258
18069,-33.83487319946289,4.031611919403076,37.974945068359375,57.57575988769531
18070,-34.758628845214844,-2.3561370372772217,45.507102966308594,50.66816329956055
18071,-49.50131607055664,-9.364709854125977,42.36558532714844,44.19065856933594
18072,-42.58250045776367,-5.146102428436278,34.10788726806641,44.452449798583984
18073,-30.65596008300781,3.0667178630828857,36.80061721801758,58.83236694335938
18074,-29.99399757385254,-3.15647554397583,42.90413284301758,62.51616668701172
18075,-36.87541198730469,-9.832197189331056,39.23155212402344,49.91270446777344
18076,-39.930912017822266,-14.125601768493652,34.8895263671875,50.98979568481445
18077,-24.97879219055176,-1.2379069328308103,42.24591064453125,64.29261779785156
18078,-32.140701293945305,-10.168787956237793,40.38718032836914,66.27850341796875
18079,-41.456790924072266,-19.174467086791992,40.38343811035156,58.166664123535156
18080,-45.22660827636719,-9.843416213989258,33.44966506958008,68.47383117675781
18081,-30.29319000244141,-2.094343900680542,43.62967300415039,79.06148529052734
18082,-34.56041717529297,-4.1213698387146005,54.5614013671875,83.36237335205078
18083,-47.66128540039063,-7.5171990394592285,44.703025817871094,72.9317855834961
18084,-39.31008911132813,-10.65871524810791,40.42083740234375,64.45343780517578
18085,-32.952259063720696,4.162508487701416,44.95359802246094,71.67144012451172
18086,-28.340961456298828,7.745332717895508,53.39081192016602,70.31759643554689
18087,-44.31033325195313,-13.762831687927244,44.83391952514648,44.7254638671875
18088,-47.02176284790039,-2.8124048709869385,37.35412216186523,44.3851318359375
18089,-35.91426086425781,16.317184448242188,43.5922737121582,52.104286193847656
18090,-35.73474502563477,15.681400299072266,57.03347396850586,58.51821517944336
18091,-42.37306594848633,0.4899269044399262,51.31142807006836,51.26280975341797
18092,-43.655853271484375,5.22838020324707,38.494789123535156,59.34847259521485
18093,-34.99424362182617,14.17422103881836,45.847434997558594,73.32073974609375
18094,-33.973251342773445,9.540484428405762,45.32758712768555,70.88606262207031
18095,-42.63859939575195,-9.630242347717283,44.49732971191406,65.01815795898439
18096,-37.67575073242188,-6.410188674926758,35.719783782958984,67.39299774169922
18097,-25.19570541381836,2.172881841659546,44.44871139526367,76.85868072509766
18098,-30.47644424438477,-4.495359897613525,43.43893814086914,64.23278045654297
18099,-36.91281127929688,-25.24806404113769,37.17086410522461,59.0679817199707
18100,-37.35412216186523,-19.305362701416016,28.355920791625977,57.2129898071289
18101,-21.45206642150879,-0.9499346017837524,43.70820999145508,68.24943542480469
18102,-27.08809471130371,-4.97780704498291,45.1368522644043,58.55935287475586
18103,-38.59202575683594,-5.93148136138916,42.31322860717773,42.23469161987305
18104,-39.62424087524414,-3.807218074798584,31.08230781555176,41.7260627746582
18105,-30.3418083190918,19.245525360107425,42.52266311645508,52.482017517089844
18106,-31.602153778076172,11.129941940307617,54.52774047851562,51.9546890258789
18107,-40.31238174438477,1.795151948928833,52.19030380249024,43.08738708496094
18108,-40.35351943969727,0.3964293897151947,46.77866744995117,46.1915054321289
18109,-35.83946228027344,5.8866024017333975,52.20526504516602,55.94516372680664
18110,-35.36449432373047,-6.903855323791504,50.34279251098633,55.48141479492188
18111,-43.54739379882813,-10.901808738708496,41.78590393066406,54.36318588256836
18112,-37.64583206176758,-0.19447480142116547,36.13117218017578,67.55381011962889
18113,-30.57742118835449,-1.6717352867126465,41.7260627746582,76.98210144042969
18114,-32.828842163085945,1.8662101030349727,46.43833923339844,81.21566772460938
18115,-44.63570785522461,-12.139715194702148,35.252296447753906,64.12432098388672
18116,-46.55053329467773,-19.05479049682617,22.95176696777344,59.24001693725586
18117,-27.37606811523437,2.150442361831665,30.80555534362793,70.39613342285156
18118,-33.10559463500977,-5.400415420532227,35.54774856567383,64.97702026367189
18119,-37.41022109985352,-19.66439437866211,29.141300201416016,48.671058654785156
18120,-37.1895637512207,-22.297283172607425,25.674413681030273,44.83018112182617
18121,-25.565956115722656,-7.752812385559082,33.25519180297852,60.57516098022461
18122,-16.889389038085938,-10.157567977905273,53.29357528686523,55.66841125488281
18123,-30.57368278503418,-16.597675323486328,46.31866073608398,41.52784729003906
18124,-33.823654174804695,-27.383546829223636,51.44232559204102,39.8785514831543
18125,-56.1171989440918,-41.20621871948242,45.04335403442383,22.304763793945312
18126,-64.07570648193361,-29.84814071655273,35.98531723022461,27.196552276611328
18127,-53.02056121826172,-27.37606811523437,39.53074264526367,39.4372444152832
18128,-56.69688415527344,-29.71350479125977,42.72835540771485,39.1156120300293
18129,-59.56538772583008,-54.53895950317383,34.541717529296875,27.686479568481445
18130,-60.13385009765625,-58.39105987548828,19.9187068939209,19.683094024658203
18131,-47.84828186035156,-45.1480712890625,22.387041091918945,33.7039794921875
18132,-48.90667343139648,-51.86119079589844,25.019929885864254,30.45026588439941
18133,-52.91584396362305,-66.52908325195311,20.049604415893555,26.104501724243164
18134,-59.2100944519043,-67.83430480957031,1.0957907438278198,20.438552856445312
18135,-41.31841659545898,-39.590579986572266,15.606602668762207,40.67141342163086
18136,-45.95962905883789,-48.558860778808594,23.78950309753418,45.4173469543457
18137,-60.17499160766602,-51.89485168457031,17.67102813720703,25.45749855041504
18138,-61.19224166870117,-49.17220306396485,12.38654899597168,28.18388557434082
18139,-49.14228439331055,-37.8702278137207,23.7034854888916,42.38802719116211
18140,-30.35863876342773,-0.4749673008918762,47.57900619506836,68.51123046875
18141,-34.77545928955078,-16.410680770874027,46.02320861816406,47.68746566772461
18142,-39.55131149291992,-9.690080642700195,44.04480361938477,43.90642547607422
18143,-24.71512794494629,9.484386444091797,51.07581329345703,51.06459426879883
18144,-28.71308135986328,9.469427108764648,54.34448623657226,56.19199752807617
18145,-43.0406379699707,-3.863316535949707,46.32614135742188,42.56006240844727
18146,-48.57569122314453,-3.975513696670532,36.45654296875,43.70072937011719
18147,-36.45093536376953,20.49839210510254,44.75912094116211,57.74779510498047
18148,-36.84736251831055,3.795998573303223,48.12129211425781,58.7687873840332
18149,-45.60247039794922,-11.451573371887207,41.85322189331055,52.3025016784668
18150,-48.960899353027344,-13.142008781433105,25.565956115722656,54.815711975097656
18151,-33.975120544433594,-2.2962985038757324,29.750904083251953,62.37405014038086
18152,-33.13738250732422,-8.302577972412111,34.22756576538086,64.7376708984375
18153,-41.55963897705078,-32.77648162841797,29.33577537536621,58.82488632202149
18154,-45.00034713745117,-22.74607086181641,16.496698379516598,59.78604125976562
18155,-30.661569595336914,-18.265670776367188,26.542070388793945,66.66745758056639
18156,-33.59739303588867,-23.49031066894531,34.84464645385742,64.92092132568361
18157,-42.31509780883789,-27.106794357299805,29.68358612060547,51.42736434936523
18158,-38.45926284790039,-5.194721221923828,31.55727577209473,51.28524780273438
18159,-27.763147354125977,8.893482208251953,47.06664276123047,63.23048782348633
18160,-28.286733627319336,12.405247688293455,60.41060256958008,64.1392822265625
18161,-41.04353332519531,5.882862567901611,62.18705749511719,56.31541442871094
18162,-44.86196899414063,12.906394958496096,56.69688415527344,51.58818054199219
18163,-38.33210372924805,14.23405933380127,53.27113342285156,54.80823516845703
18164,-39.614891052246094,6.8103580474853525,58.11804580688477,55.3766975402832
18165,-52.584861755371094,-7.636875629425049,44.418792724609375,42.5189208984375
18166,-44.34212493896485,0.5310658216476439,34.298622131347656,42.926570892333984
18167,-41.24922561645508,-0.8601769804954529,29.440492630004886,50.7579231262207
18168,-34.18829727172852,6.466287136077881,37.02874755859375,54.924171447753906
18169,-44.63383483886719,-25.756690979003906,25.0535888671875,47.66128540039063
18170,-40.000099182128906,-16.46303939819336,19.185686111450195,60.26848602294922
18171,-29.51342010498047,-7.580777168273926,27.08809471130371,69.38636016845703
18172,-32.236068725585945,-11.417914390563965,28.57283592224121,66.15882873535156
18173,-42.45347595214844,-16.941747665405273,23.73340606689453,51.419883728027344
18174,-42.670387268066406,0.0822777971625328,19.956106185913086,51.9210319519043
18175,-35.91613006591797,8.179161071777344,27.948272705078125,57.64681625366211
18176,-42.2776985168457,-2.034505605697632,35.289695739746094,55.42905807495117
18177,-46.52996444702149,-16.25734519958496,31.086048126220703,41.76720428466797
18178,-47.15826797485352,-4.487879753112793,29.081462860107425,43.89146423339844
18179,-29.01227378845215,-0.6208233833312988,38.42747116088867,47.10029983520508
18180,-24.034467697143555,1.8175914287567136,56.66696548461914,46.501914978027344
18181,-33.040145874023445,-16.593936920166016,49.63969039916992,36.27328872680664
18182,-36.95207977294922,-8.470873832702638,42.09257507324219,39.63172149658203
18183,-20.42546272277832,-0.4861869812011719,54.853111267089844,58.31251907348633
18184,-29.07211303710937,-3.6576220989227295,54.71847534179688,61.05386734008789
18185,-37.60282516479492,-16.986625671386722,47.85575866699219,48.28584671020508
18186,-37.2961540222168,-13.358922958374025,41.38947296142578,57.13071060180664
18187,-26.345726013183594,5.056344509124756,48.31576919555664,77.23641204833984
18188,-34.214473724365234,1.4623008966445925,51.47224426269531,80.48638916015625
18189,-49.01699829101562,-10.352043151855467,43.6109733581543,66.58143615722656
18190,-48.21665954589844,-6.855236530303955,32.006065368652344,71.31241607666016
18191,-35.36262512207031,2.610450267791748,36.695899963378906,79.11758422851562
18192,-35.52717971801758,-13.205586433410645,45.63800048828125,81.88884735107422
18193,-39.78692626953125,-21.149133682250977,47.35087203979492,65.73248291015625
18194,-29.274066925048828,-10.621315956115724,45.56694030761719,67.85300445556639
18195,-23.09575271606445,1.6530357599258425,51.59939956665039,72.14266967773438
18196,-24.30373954772949,0.6208233833312988,65.98679351806639,61.58493423461914
18197,-38.1002311706543,-10.408141136169434,57.52714157104492,36.4453239440918
18198,-34.88391494750977,-0.6432628035545349,52.55307388305664,32.49599075317383
18199,-26.56637954711914,27.869733810424805,63.00235366821289,39.35870742797852
18200,-43.50438690185547,3.365910053253174,56.77915954589844,26.79638290405273
18201,-52.1846923828125,2.57305121421814,49.69953155517578,19.518537521362305
18202,-53.45251846313477,2.520692586898804,39.3961067199707,26.429872512817386
18203,-38.23486709594727,10.621315956115724,39.19789123535156,50.316612243652344
18204,-33.44031524658203,3.1714351177215576,44.841400146484375,61.97388076782226
18205,-39.13992309570313,-12.102315902709961,38.99967575073242,72.17633056640625
18206,-41.279144287109375,-11.80312442779541,32.34265518188477,75.54972076416016
18207,-33.919021606445305,-3.6800615787506095,34.44073867797852,94.48483276367188
18208,-30.77002716064453,-7.270365715026855,45.58563995361328,96.03314971923828
18209,-31.90695571899414,-25.6108341217041,45.27148818969727,96.98308563232422
18210,-32.25476837158203,-24.911474227905273,36.06759643554688,91.60884857177734
18211,-23.163070678710934,-14.047063827514648,41.00426483154297,95.74891662597656
18212,-22.613304138183594,-15.04561710357666,48.87675094604492,85.30712127685547
18213,-33.32437896728516,-34.02186965942383,49.202125549316406,62.935035705566406
18214,-27.037607192993164,-22.671274185180664,49.17220306396485,55.58239364624024
18215,-12.998022079467773,-1.469780683517456,59.08293914794922,69.18067169189453
18216,-16.176937103271484,-1.252866506576538,67.98390197753906,70.38491821289062
18217,-38.8220329284668,-19.496097564697266,57.94601058959961,46.46825790405274
18218,-38.87065124511719,-18.837875366210934,55.95638275146485,45.5407600402832
18219,-25.46310806274414,2.415975332260132,53.69748306274414,52.41095733642578
18220,-33.01770782470703,-12.917613983154295,56.47623062133789,50.32035446166992
18221,-42.39363479614258,-17.839323043823242,53.92187881469727,48.00535583496094
18222,-38.0590934753418,-6.3503499031066895,50.66068649291992,46.43085861206055
18223,-24.33365821838379,13.777791023254395,59.120338439941406,54.31082534790039
18224,-28.92999649047852,2.7301268577575684,56.58094787597656,48.4691047668457
18225,-37.67388153076172,-5.138622760772705,51.49842071533203,45.44352340698242
18226,-47.2442855834961,-3.5192458629608154,37.268104553222656,45.237831115722656
18227,-34.846519470214844,9.559184074401855,39.56440353393555,64.37115478515625
18228,-35.508480072021484,4.218606948852538,45.43978500366211,59.25497436523438
18229,-42.382415771484375,-18.03379821777344,36.29946899414063,51.64427947998047
18230,-42.61054992675781,-16.713613510131836,27.432167053222656,57.441123962402344
18231,-29.92854881286621,-7.26662540435791,33.898452758789055,77.70016479492188
18232,-32.58761978149414,-9.978053092956543,42.073875427246094,67.24340057373047
18233,-35.67303466796875,-24.37292861938477,36.45280456542969,57.1905517578125
18234,-37.77486038208008,-15.673920631408693,25.46497917175293,55.41783905029297
18235,-23.23412895202637,-2.0606849193573002,40.83222961425781,68.66456604003906
18236,-14.617399215698242,-6.88515567779541,59.71872329711914,67.14242553710939
18237,-25.43692970275879,-27.170373916625977,53.8208999633789,55.13734436035156
18238,-17.519561767578125,-11.844263076782227,60.82947158813477,58.17414474487305
18239,-9.561054229736328,-0.9237552881240844,65.75118255615234,69.84637451171875
18240,-9.508695602416992,-1.125709891319275,69.4798583984375,54.90547180175781
18241,-27.01142692565918,-14.522031784057615,65.22385406494139,38.89122009277344
18242,-31.67508316040039,-9.723739624023438,46.00450897216797,35.54401016235352
18243,-24.28129959106445,-7.745332717895508,41.59142684936523,35.27473449707031
18244,-19.419429779052734,2.098083972930908,50.7766227722168,36.25085067749024
18245,-44.196266174316406,-11.444093704223633,43.47633743286133,28.673812866210934
18246,-41.671836853027344,-8.725186347961426,34.567893981933594,44.71050262451172
18247,-35.19432830810547,2.3523969650268555,40.271244049072266,60.01043319702149
18248,-37.93567657470703,8.242739677429201,48.67853927612305,56.27053451538086
18249,-48.61309051513672,-15.644001960754395,38.10583877563477,42.96397018432617
18250,-48.41113662719727,-6.582223892211914,32.944778442382805,47.38079071044922
18251,-31.03556060791016,11.582469940185547,38.57332992553711,56.21069717407226
18252,-26.633697509765625,-2.0569450855255127,47.76974105834961,60.01791381835938
18253,-41.8438720703125,-19.900007247924805,45.48092269897461,52.2950210571289
18254,-36.15922164916992,-12.883955001831055,40.72003173828125,54.32952499389648
18255,-24.77870750427246,0.1682955026626587,50.52978897094727,74.50628662109375
18256,-24.43837547302246,-15.090496063232422,61.87664413452149,75.70305633544922
18257,-33.04762649536133,-24.87033462524414,52.97942352294922,64.943359375
18258,-36.809967041015625,-20.849943161010746,47.04794311523438,61.23712158203125
18259,-25.560346603393555,-0.4974066913127899,52.47827529907226,70.64671325683594
18260,-26.154991149902344,0.19447480142116547,51.98086929321289,62.744300842285156
18261,-37.789817810058594,-21.710119247436523,53.92187881469727,44.91993713378906
18262,-37.67388153076172,-8.268918991088867,49.14228439331055,45.7988166809082
18263,-19.57276725769043,12.592243194580078,58.94456481933594,61.18850326538086
18264,-22.15703773498535,-8.882262229919434,61.4390754699707,59.43075180053711
18265,-39.52887344360352,-11.926541328430176,48.9328498840332,40.611572265625
18266,-40.381568908691406,-3.28737211227417,41.39695358276367,51.573219299316406
18267,-34.453826904296875,0.9312350749969482,42.00281524658203,62.38901138305664
18268,-43.93447494506836,-8.998199462890625,40.07302856445313,51.9846076965332
18269,-49.85099792480469,-14.952119827270508,31.17580604553223,45.8810920715332
18270,-50.70369338989258,-13.063470840454102,22.7236328125,52.20526504516602
18271,-39.02398681640625,4.996506214141847,27.185333251953125,63.81765365600586
18272,-42.42355346679688,5.32561731338501,35.47669219970703,63.96350860595703
18273,-57.27843856811523,-3.0891573429107666,34.567893981933594,45.36498641967773
18274,-48.71780776977539,-1.9335283041000368,25.63327407836914,51.85745239257813
18275,-32.509078979492195,16.515398025512695,38.96601867675781,65.94191741943361
18276,-26.67857551574707,-8.661608695983888,35.20367813110352,54.12009048461914
18277,-32.591358184814446,-17.801923751831055,35.81328201293945,42.309486389160156
18278,-24.322439193725586,-10.049111366271973,37.31672286987305,41.80834197998047
18279,-2.82923436164856,-0.3403308987617493,58.29756164550781,42.25339126586914
18280,-2.8180146217346187,-12.356629371643065,61.48021697998047,34.163986206054695
18281,-11.902231216430664,-17.476552963256836,63.23796844482422,25.97360610961914
18282,-17.975830078125,-19.5073184967041,56.59590530395508,38.76032257080078
18283,-17.923471450805664,-12.753058433532715,60.71353530883789,68.18211364746094
18284,-23.48844146728516,-7.5882568359375,53.94431686401367,67.41169738769531
18285,-45.42669296264648,-21.324909210205078,47.14891815185547,59.18017578125
18286,-46.66086196899414,-7.924848079681396,41.640045166015625,68.53740692138672
18287,-37.15777587890625,6.3241705894470215,44.66188430786133,83.51570892333984
18288,-34.91757583618164,-3.8820161819458012,45.99328994750977,74.22579193115234
18289,-50.24368667602539,-13.396321296691895,39.38862609863281,59.01935958862305
18290,-52.4427490234375,-9.600322723388672,33.019577026367195,59.85709762573242
18291,-32.68485641479492,12.749319076538086,47.85202026367188,76.23412322998047
18292,-33.013965606689446,-5.392935752868652,52.76250839233398,60.04035568237305
18293,-42.08696365356445,-17.027765274047848,50.94117736816406,45.1181526184082
18294,-39.87294387817383,-4.686094760894775,44.557167053222656,37.65331268310547
18295,-28.05111885070801,9.132835388183594,49.2208251953125,45.74645614624024
18296,-26.25596809387207,14.67162799835205,54.74465560913086,43.00510787963867
18297,-41.96728897094727,-3.7286803722381587,44.50481033325195,29.56390953063965
18298,-40.10481643676758,2.4907734394073486,37.77299118041992,32.810142517089844
18299,-30.676528930664066,17.383054733276367,40.36848068237305,47.13021850585938
18300,-36.72768783569336,9.001938819885254,43.09486770629883,47.24615478515625
18301,-45.45287322998047,-8.635429382324219,36.41166687011719,46.6328125
18302,-43.55674362182617,-7.023531913757324,27.147933959960934,56.259315490722656
18303,-32.774612426757805,10.034152030944824,31.650774002075195,74.00514221191406
18304,-42.88730239868164,-16.190027236938473,33.296329498291016,68.88521575927734
18305,-44.49171829223633,-17.09134292602539,31.71809196472168,63.86252975463867
18306,-48.95341873168945,-22.91436767578125,23.90544128417969,67.16860198974611
18307,-38.5527572631836,-4.596336841583252,26.153120040893555,70.64671325683594
18308,-32.37444305419922,0.007479799911379814,38.32275390625,72.5129165649414
18309,-41.12580871582031,-7.547118186950684,39.72895812988281,60.59759902954102
18310,-37.7187614440918,-4.543978214263916,33.90219497680664,58.780006408691406
18311,-33.33559799194336,6.585963726043701,49.44521713256836,62.489990234375
18312,-34.891395568847656,-4.349503517150879,60.50410079956055,58.82114791870117
18313,-35.77027130126953,-14.035844802856445,61.28200149536133,40.439537048339844
18314,-36.38361740112305,-18.32176971435547,44.452449798583984,31.878908157348636
18315,-27.35175895690918,-1.305225133895874,50.02864074707031,34.152767181396484
18316,-23.79885292053223,-7.827610492706299,53.34593200683594,23.24721717834473
18317,-29.17683029174805,-19.963586807250977,46.52061462402344,26.39621353149414
18318,-28.4101505279541,-11.638568878173828,46.27752304077149,29.42179298400879
18319,-14.508941650390625,-4.63373613357544,48.9515495300293,51.45728302001953
18320,-19.81212043762207,1.3837629556655884,56.12467956542969,68.09983825683594
18321,-41.013614654541016,-13.587056159973145,48.77577590942383,67.64356994628906
18322,-40.145957946777344,-5.793105125427246,40.55547332763672,77.16161346435547
18323,-35.36262512207031,-7.446140766143799,34.00317001342773,83.62416076660156
18324,-36.10312271118164,-1.3949826955795288,45.09945297241211,89.25645446777344
18325,-56.85582733154297,-25.59213447570801,30.68587875366211,71.4059066772461
18326,-50.68125534057617,-14.742685317993164,27.16289329528809,75.31410217285156
18327,-36.90346145629883,-5.39667558670044,30.47644424438477,81.5447769165039
18328,-37.939414978027344,-10.89806842803955,37.78794860839844,74.28189086914062
18329,-48.17552185058594,-24.414066314697266,33.191612243652344,64.58058929443361
18330,-51.661109924316406,-15.59164333343506,29.00666427612305,60.08523178100586
18331,-37.82347869873047,4.955367565155028,38.008602142333984,73.07764434814453
18332,-34.62212371826172,-7.962246894836426,48.34942626953125,60.40312576293945
18333,-46.4439468383789,-20.31887626647949,41.797122955322266,30.259531021118164
18334,-45.2471809387207,-16.39946174621582,38.12828063964844,26.85622215270996
18335,-31.36467170715332,4.005433082580566,48.76455688476562,33.06819534301758
18336,-29.311466217041016,-3.2275335788726807,59.86083984375,31.430118560791016
18337,-43.80731964111328,-23.815683364868164,43.412757873535156,16.268564224243164
18338,-37.51680755615234,-15.617822647094727,39.75887680053711,35.77214431762695
18339,-27.22834205627441,1.2379069328308103,41.400691986083984,63.503501892089844
18340,-25.46684837341309,0.9200153946876526,47.56030654907226,67.60990905761719
18341,-44.02049255371094,-14.16300106048584,31.28800392150879,62.65454483032226
18342,-43.160316467285156,-23.022823333740234,23.55763053894043,72.01925659179688
18343,-31.02059936523437,-0.3328510820865631,31.587194442749023,95.44598388671876
18344,-36.39109802246094,-19.638214111328125,33.08689498901367,89.25645446777344
18345,-42.40485382080078,-28.43071937561035,32.42493438720703,83.73635864257812
18346,-41.73541259765625,-21.208972930908203,26.643047332763672,81.17079162597656
18347,-28.324132919311523,-18.912673950195312,33.898452758789055,82.12071990966797
18348,-22.70306205749512,-13.572096824645994,56.27801513671875,79.47661590576172
18349,-33.081283569335945,-24.185932159423828,51.43858337402344,58.0656852722168
18350,-33.889102935791016,-8.904702186584473,50.82524108886719,49.44147872924805
18351,-27.96510124206543,6.013759136199951,58.757568359375,43.95504379272461
18352,-23.716575622558594,10.284725189208984,69.19188690185547,39.8261947631836
18353,-39.10252380371094,-8.515751838684082,62.2207145690918,20.502132415771484
18354,-39.2446403503418,0.4413082003593445,50.11465835571289,17.551349639892578
18355,-38.40690231323242,0.3291111886501312,46.000770568847656,33.782516479492195
18356,-34.259353637695305,-9.559184074401855,50.30539321899414,42.98640823364258
18357,-38.39942169189453,-13.979745864868164,46.5617561340332,56.09101867675781
18358,-39.71960830688477,-13.501038551330565,39.18667221069336,67.50519561767578
18359,-30.32497787475586,-10.666194915771484,37.26436233520508,81.48493957519531
18360,-24.76374816894531,-9.289911270141602,47.3546142578125,84.77605438232422
18361,-34.67822265625,-29.212358474731445,37.27184295654297,64.97328186035156
18362,-34.54358673095703,-28.512996673583984,28.30356216430664,55.55621337890625
18363,-18.203962326049805,-1.4847402572631836,41.55776977539063,70.54573059082031
18364,-24.0681266784668,-14.432273864746096,43.69699096679688,58.58179473876953
18365,-31.65264320373535,-25.08350944519043,43.139747619628906,47.66502380371094
18366,-24.083086013793945,-10.303424835205078,40.97808456420898,57.21672821044922
18367,-14.030234336853027,11.593689918518065,59.38587188720703,59.4681510925293
18368,-18.529335021972656,3.6314427852630615,62.9537353515625,53.75732040405274
18369,-29.72659492492676,-3.1041169166564937,61.76444625854492,41.17255783081055
18370,-28.02120018005371,10.116429328918457,65.86711883544922,43.29682159423828
18371,-17.11191177368164,22.577775955200195,65.78484344482422,53.016822814941406
18372,-21.031328201293945,21.276290893554688,74.42401123046875,55.21588134765625
18373,-33.32437896728516,5.823024272918701,71.58916473388672,43.554874420166016
18374,-36.34621810913086,9.342269897460938,58.49577331542969,44.68058395385742
18375,-40.523685455322266,20.20668029785156,51.83127212524414,53.98545455932617
18376,-37.86835861206055,22.360862731933594,58.12178421020508,56.43508911132813
18377,-47.2255859375,0.3515506088733673,44.64318466186523,42.43290328979492
18378,-51.18239974975586,-3.122816562652588,27.05817604064941,38.59576797485352
18379,-37.3896484375,12.2332124710083,29.3432559967041,53.54788589477539
18380,-34.300491333007805,-6.0511579513549805,32.39501190185547,52.40721893310547
18381,-43.201454162597656,-20.41237449645996,32.79144287109375,36.94272994995117
18382,-38.384464263916016,-3.885756015777588,30.34928894042969,38.913658142089844
18383,-27.20216178894043,12.955013275146484,35.155059814453125,45.847434997558594
18384,-24.74504852294922,4.4430012702941895,50.29417419433594,50.13335800170898
18385,-36.757606506347656,-5.733266830444336,43.57731246948242,39.54570388793945
18386,-37.24005508422852,2.0232858657836914,44.3739128112793,45.71279525756836
18387,-27.69582939147949,8.504532814025879,41.41565322875977,64.27766418457031
18388,-39.44285583496094,1.181808352470398,44.0634994506836,59.1577377319336
18389,-50.2960433959961,-13.332743644714355,40.80978775024414,49.54993438720703
18390,-44.47676086425781,-3.889495849609375,34.201385498046875,55.50385665893555
18391,-36.65288925170898,2.543132066726685,39.175453186035156,58.18536376953125
18392,-39.27082061767578,6.50368595123291,49.553672790527344,62.9238166809082
18393,-46.8740348815918,-12.663301467895508,49.72945022583008,61.53631210327149
18394,-38.515357971191406,4.9852867126464835,55.01766967773438,75.74793243408203
18395,-34.77920150756836,12.270611763000488,48.36064529418945,81.23062896728516
18396,-33.43283462524414,5.0974836349487305,64.95084381103516,81.36526489257812
18397,-46.96753311157226,-9.155275344848633,58.26764297485352,68.60098266601561
18398,-49.15537643432617,-0.9013158679008484,51.44980239868164,67.81934356689453
18399,-42.44225311279297,13.373882293701172,50.83272171020508,73.76952362060547
18400,-49.11797714233398,-11.728325843811035,47.38827133178711,59.90945816040039
18401,-46.19711303710938,-17.087602615356445,50.14831924438477,53.36089324951172
18402,-45.30327987670898,-13.370141983032227,39.590579986572266,49.72945022583008
18403,-27.325578689575195,0.493666797876358,35.155059814453125,51.07207489013672
18404,-26.92914962768555,-7.1619086265563965,40.95564270019531,45.36124801635742
18405,-33.260799407958984,-12.135974884033205,30.16603279113769,36.37800598144531
18406,-34.689441680908196,-4.428041458129883,25.117168426513672,31.90882682800293
18407,-29.419923782348636,7.229226589202881,26.75150489807129,36.25085067749024
18408,-26.528980255126953,10.640015602111816,45.12189483642578,49.3629379272461
18409,-37.49062728881836,-3.122816562652588,43.30804061889648,40.72003173828125
18410,-37.12785720825195,6.264332294464111,41.6624870300293,43.76430892944336
18411,-29.22170829772949,9.705039978027344,47.01802062988281,63.09211349487305
18412,-34.48000717163086,0.9574143886566162,46.55053329467773,56.78290176391602
18413,-49.52188491821289,-12.278091430664062,43.51747512817383,54.08643341064453
18414,-47.966087341308594,-2.8385841846466064,41.85696029663086,64.29636383056639
18415,-38.55649948120117,8.167941093444824,47.25363540649414,76.41363525390625
18416,-39.11748504638672,4.536498546600342,51.81631469726562,76.40989685058594
18417,-46.28687286376953,-9.708780288696287,48.39430618286133,61.77192687988281
18418,-46.81045913696289,-7.618175983428955,40.34230041503906,54.56888198852539
18419,-30.83360481262207,2.868503332138061,51.079551696777344,62.9013786315918
18420,-32.75217437744141,2.861023426055908,52.867225646972656,53.517967224121094
18421,-44.233665466308594,-7.756552696228027,50.40262985229492,38.85008239746094
18422,-39.88416290283203,-5.841723918914795,44.30659484863281,40.30116271972656
18423,-34.21073532104492,10.79335117340088,45.23408889770508,52.05940628051758
18424,-36.2452392578125,-0.4600076973438263,51.9846076965332,51.1580924987793
18425,-41.64191436767578,-3.822177648544312,52.59795379638672,50.29417419433594
18426,-48.08576202392578,4.730973243713379,44.44123077392578,53.8994369506836
18427,-43.82975769042969,17.005325317382812,46.614112854003906,64.25521850585939
18428,-52.51006698608398,5.119923114776611,50.7990608215332,70.11564636230469
18429,-53.9798469543457,-5.441554546356201,46.53557586669922,56.17703628540039
18430,-52.04631805419922,7.311504364013673,42.982669830322266,61.26330184936523
18431,-47.90250778198242,-2.6889879703521733,37.71689224243164,65.79979705810547
18432,-50.76727294921875,3.0031397342681885,42.97893142700195,62.403968811035156
18433,-55.1953125,-8.519492149353027,31.78915023803711,47.99413681030274
18434,-57.86934280395508,-4.570157527923584,22.54037666320801,45.8810920715332
18435,-39.386756896972656,3.1602153778076167,36.23963165283203,57.41868591308594
18436,-36.33125686645508,0.05235859751701355,44.59456634521485,54.6212387084961
18437,-47.87258911132813,-21.55678367614746,35.23359680175781,35.9815788269043
18438,-40.7593002319336,-12.360369682312012,32.563308715820305,38.93983840942383
18439,-25.38083076477051,7.5396385192871085,44.130821228027344,54.95782852172852
18440,-26.21108818054199,12.603463172912598,52.2725830078125,58.3461799621582
18441,-35.11952972412109,-15.62904167175293,45.4884033203125,47.67624282836914
18442,-41.885009765625,-5.8866024017333975,26.51589012145996,44.703025817871094
18443,-24.932043075561523,-0.8414775133132935,35.53279113769531,60.46296310424805
18444,-33.455276489257805,-3.8782763481140137,42.62363815307617,57.975929260253906
18445,-46.16719436645508,-15.370988845825195,38.689266204833984,47.33217239379883
18446,-41.4923210144043,-1.6754751205444336,39.73269653320313,54.02659606933594
18447,-36.03206634521485,8.074443817138674,38.2816162109375,65.82598114013672
18448,-40.4301872253418,4.05031156539917,43.82414627075195,60.73597717285156
18449,-48.09324264526367,-8.616729736328125,40.1777458190918,52.55681228637695
18450,-47.67437362670898,1.3725433349609375,41.04540252685547,61.64850997924805
18451,-44.686195373535156,-3.4594075679779053,37.33916091918945,61.899085998535156
18452,-38.82577133178711,9.68260097503662,53.74610137939453,69.09091186523439
18453,-50.89442825317383,-11.99385929107666,40.9818229675293,53.85456085205078
18454,-47.9698257446289,-12.132235527038574,34.163986206054695,57.90487289428711
18455,-35.026031494140625,0.26553291082382197,41.0117416381836,74.77182006835938
18456,-39.25960159301758,1.9671874046325684,53.03926086425781,66.36826324462889
18457,-42.26274108886719,-16.6612548828125,42.455345153808594,54.01911544799805
18458,-45.81938552856445,-14.828702926635742,25.9810848236084,48.70471572875977
18459,-37.939414978027344,-0.11967679858207705,31.359060287475586,60.09271240234375
18460,-35.56457901000977,12.63712215423584,46.2625617980957,65.08547973632811
18461,-53.71431350708008,-15.808557510375975,38.95853805541992,45.98955154418945
18462,-47.72299194335938,-1.5146595239639282,36.86419296264648,50.72052383422852
18463,-42.95088195800781,0.3814697861671448,36.32564926147461,62.632102966308594
18464,-35.4299430847168,-4.192427635192871,51.03841400146485,61.0164680480957
18465,-44.8844108581543,-17.86176300048828,44.73294448852539,50.70556259155274
18466,-42.85364532470703,-15.599123001098633,39.42228698730469,55.7581672668457
18467,-35.29904556274414,-14.297637939453125,40.4993782043457,64.21034240722656
18468,-36.884761810302734,-10.785871505737305,40.933204650878906,61.16232299804688
18469,-42.29265975952149,-11.761985778808596,42.95275115966797,53.61894607543945
18470,-37.88331604003906,-11.204740524291992,38.72666549682617,47.97169494628906
18471,-26.08767127990723,2.5655713081359863,43.02006912231445,64.88726043701172
18472,-23.37998390197754,1.3314043283462524,49.71075057983398,57.89739227294922
18473,-37.73746109008789,-18.32176971435547,44.65066528320313,51.760215759277344
18474,-36.1330451965332,-11.54133129119873,39.52700424194336,55.46645736694336
18475,-21.84662628173828,3.672581672668457,45.72401809692383,73.35813903808594
18476,-24.46829605102539,-1.4884802103042605,49.66961288452149,73.69847106933594
18477,-45.01530456542969,-14.245279312133787,41.81956100463867,62.37405014038086
18478,-43.65772247314453,-11.42165470123291,35.23733901977539,64.93214416503906
18479,-37.03062057495117,1.768972635269165,41.61012649536133,76.9222640991211
18480,-50.04547119140625,-2.8909425735473637,39.04081726074219,59.62522506713867
18481,-60.94353866577149,-24.08121490478516,34.545455932617195,44.54594802856445
18482,-61.98697280883789,-8.526971817016603,26.123201370239254,43.53243637084961
18483,-46.7618408203125,12.25565242767334,35.487911224365234,45.77637481689453
18484,-38.58641815185547,0.7330203652381897,38.82764053344727,47.89690017700195
18485,-46.74687957763672,-14.17422103881836,34.78107070922852,44.09716033935547
18486,-38.567718505859375,-4.405601978302002,34.122848510742195,52.55681228637695
18487,-26.30458641052246,2.1467025279998784,39.923431396484375,67.37803649902344
18488,-15.750588417053224,8.654128074645996,55.32059860229492,71.03565979003906
18489,-30.56059265136719,-11.780684471130373,48.34568786621094,53.74984359741211
18490,-29.247886657714844,-21.044416427612305,43.165924072265625,55.49263381958008
18491,-16.913698196411133,0.5123662948608398,47.15639877319336,64.67408752441406
18492,-22.508588790893555,-15.105456352233887,47.51543045043945,68.89643859863281
18493,-36.9969596862793,-24.197153091430664,42.077613830566406,60.43678283691406
18494,-42.64046859741211,-11.320676803588867,35.9815788269043,62.11599731445313
18495,-29.72285461425781,2.4084956645965576,48.30828857421875,69.30408477783203
18496,-35.54587936401367,3.444447755813598,56.84647750854492,66.86193084716797
18497,-45.5987319946289,-2.801185131072998,53.68252563476562,48.03153610229492
18498,-42.45347595214844,5.164802074432373,51.32264709472656,49.49383544921875
18499,-34.218215942382805,11.320676803588867,52.98316192626953,58.97448348999024
18500,-34.93253707885742,6.9188151359558105,57.18307113647461,55.13360595703125
18501,-47.6182746887207,-22.301023483276367,48.30454635620117,42.35062789916992
18502,-43.915775299072266,-25.689373016357425,38.58454895019531,42.25712966918945
18503,-24.2850399017334,-8.396075248718263,41.314674377441406,56.16581726074219
18504,-24.408456802368164,-15.539284706115724,46.1802864074707,57.32892608642578
18505,-32.75591278076172,-23.759584426879886,43.76804733276367,47.3546142578125
18506,-34.898876190185554,-24.993751525878906,35.012943267822266,48.38682556152344
18507,-23.59689903259277,-13.538437843322756,42.0439567565918,61.54005432128906
18508,-27.31435966491699,-17.278337478637695,47.59396743774414,57.35136413574219
18509,-35.66181564331055,-22.77972984313965,44.06724166870117,48.32324600219727
18510,-36.60053253173828,-21.25385093688965,36.81931686401367,55.85914611816406
18511,-27.538753509521484,-4.895529270172119,39.684078216552734,61.45403671264648
18512,-33.728286743164055,-5.632289409637451,42.077613830566406,58.75008773803711
18513,-47.73421478271485,-18.650880813598636,35.70482635498047,45.01717758178711
18514,-43.65024185180664,-9.342269897460938,38.85008239746094,43.01633071899414
18515,-29.53211975097656,7.184347629547119,56.20321655273438,66.54029846191406
18516,-36.79126739501953,-0.4974066913127899,55.20840454101562,62.65828323364258
18517,-50.41197967529297,-13.658114433288574,52.88966369628906,50.70556259155274
18518,-51.017845153808594,-15.389688491821287,40.72751235961914,49.07870864868164
18519,-34.86895751953125,15.423347473144533,54.80823516845703,67.61365509033203
18520,-36.86606216430664,-2.5132126808166504,53.74236297607422,54.46042251586914
18521,-38.18251037597656,-16.261085510253903,47.94177627563477,40.75368881225586
18522,-37.46070861816406,-16.911827087402347,43.23324203491211,49.71075057983398
18523,-23.17428970336914,-0.003739899955689907,48.43544387817383,64.58807373046875
18524,-25.26115417480469,-9.727479934692383,53.80220031738281,60.29092788696289
18525,-30.209041595458984,-18.890233993530273,48.5177230834961,50.810279846191406
18526,-35.4935188293457,-16.104009628295902,45.53328323364258,44.35895156860352
18527,-23.44356346130371,1.2453867197036743,44.46741104125977,60.878089904785156
18528,-28.563486099243164,-8.407295227050781,54.94660949707031,56.31167221069336
18529,-39.37179565429688,-19.72797203063965,40.742469787597656,44.95359802246094
18530,-43.0181999206543,-19.19690704345703,42.649818420410156,47.3770523071289
18531,-36.36865615844727,-1.4735206365585327,43.315521240234375,57.85625076293945
18532,-40.87523651123047,-9.731219291687012,45.53328323364258,55.77312850952149
18533,-56.95306777954102,-26.75150489807129,35.289695739746094,44.3552131652832
18534,-49.73880004882813,-24.13731384277344,26.429872512817386,46.97688293457031
18535,-35.06717300415039,-1.5445786714553833,34.22008514404297,65.47816467285156
18536,-43.063079833984375,-15.25879192352295,28.95056533813477,58.52943420410156
18537,-44.88066864013672,-25.85392761230469,27.693958282470703,64.11684417724611
18538,-45.026527404785156,-21.568002700805664,22.41322135925293,59.09041976928711
18539,-30.19034194946289,-3.6052634716033936,27.147933959960934,70.05954742431639
18540,-19.14641761779785,-7.259145736694336,41.03044128417969,67.56503295898439
18541,-21.334259033203125,-20.614328384399414,45.60433959960938,53.58154678344727
18542,-28.894466400146484,-8.517621994018555,42.20103073120117,39.68033981323242
18543,-16.077829360961914,6.535475254058838,58.56683349609375,48.80569458007813
18544,-20.131881713867188,3.5024163722991943,68.08487701416016,46.71509170532226
18545,-33.91715240478516,-16.599546432495114,57.72909545898438,28.77104949951172
18546,-39.022117614746094,-11.872312545776367,53.50674819946289,31.912567138671875
18547,-30.562461853027344,1.3070950508117676,49.32928085327149,48.39056396484375
18548,-34.044307708740234,-10.185617446899414,50.55222702026367,58.64911270141602
18549,-44.14952087402344,-15.754328727722168,44.078460693359375,53.27861404418945
18550,-47.36209487915039,-10.410011291503906,38.90991973876953,64.93588256835939
18551,-39.684078216552734,5.884732723236084,42.137451171875,69.44620513916016
18552,-39.37366485595703,-15.137245178222654,47.21997833251953,67.28827667236328
18553,-43.70072937011719,-23.35006523132324,45.83621215820313,62.34787368774414
18554,-41.7036247253418,-22.80777931213379,43.26316452026367,59.25871658325195
18555,-35.401893615722656,-18.2226619720459,43.01258850097656,66.19996643066406
18556,-25.775390625,-14.864232063293455,59.5205078125,74.39035034179688
18557,-40.45075607299805,-30.145463943481445,44.20187759399414,56.62956619262695
18558,-42.94153213500977,-31.99297332763672,25.79783058166504,50.155799865722656
18559,-28.23250389099121,-9.86772632598877,34.878307342529304,59.1278190612793
18560,-21.92329406738281,-15.043747901916506,45.19295120239258,54.39684295654297
18561,-36.69215774536133,-24.670249938964844,41.86817932128906,36.46028518676758
18562,-35.05408096313477,-2.384186267852783,36.23215103149414,29.720985412597656
18563,-26.02596473693848,2.7806155681610107,48.06519317626953,45.49214172363281
18564,-19.26048469543457,1.142539381980896,65.87833404541016,47.54160690307617
18565,-30.880353927612305,-5.20033073425293,60.69109725952149,40.07676696777344
18566,-34.49309539794922,4.4336514472961435,54.27342987060547,45.11441421508789
18567,-29.20113945007324,4.1082801818847665,55.98256301879883,61.54005432128906
18568,-33.012096405029304,-1.778322458267212,59.62522506713867,62.67698287963867
18569,-40.98556518554688,-14.467803001403807,55.30937957763672,64.97328186035156
18570,-47.57900619506836,-9.35909938812256,44.508548736572266,69.85011291503906
18571,-42.96023178100586,-1.9578375816345213,43.9737434387207,82.76398468017578
18572,-42.93031311035156,-14.348126411437988,47.56030654907226,76.32762145996094
18573,-49.77058792114258,-26.83191299438477,43.70072937011719,54.72221755981445
18574,-47.7173843383789,-27.5125732421875,31.63581466674805,54.04155349731445
18575,-29.88928031921387,-11.58434009552002,35.95166015625,57.35136413574219
18576,-31.50491714477539,-19.93553733825684,42.642337799072266,58.05820846557617
18577,-44.691802978515625,-33.50763320922852,29.87058067321777,32.080860137939446
18578,-30.74945831298828,-19.292274475097656,39.066993713378906,31.785409927368164
18579,-21.560523986816406,-4.706664085388184,50.959877014160156,45.64547729492188
18580,-26.34011459350586,-9.041208267211914,55.39165878295898,35.917999267578125
18581,-38.77902221679688,-14.725855827331545,51.46850204467773,34.837169647216804
18582,-35.32709503173828,-1.1537591218948364,46.2700424194336,40.9930419921875
18583,-29.960338592529297,12.178984642028807,49.03382873535156,49.87530517578125
18584,-30.667179107666016,-0.3048018515110016,54.93912887573242,45.41360473632813
18585,-38.58080673217773,-7.350773334503174,45.507102966308594,39.88977432250977
18586,-41.53158950805664,-20.11505126953125,45.22660827636719,41.77842330932617
18587,-25.13586807250977,2.1784918308258057,52.104286193847656,65.97183227539061
18588,-31.486217498779297,-3.876406192779541,52.34737777709961,59.31855392456055
18589,-35.19245910644531,-23.933488845825195,47.64258575439453,58.96326446533203
18590,-34.279922485351555,-18.59665298461914,35.27099609375,56.38273239135742
18591,-23.98771858215332,-5.020815849304199,43.15096664428711,67.76324462890625
18592,-33.401046752929695,-17.687856674194336,41.44182968139648,61.33061981201172
18593,-43.12104797363281,-22.73672103881836,41.367034912109375,58.79496765136719
18594,-43.92138671875,-13.461770057678224,32.54460906982422,58.18162536621094
18595,-31.841508865356445,-4.388772487640382,36.3630485534668,66.30094909667969
18596,-29.69106483459473,-3.3603000640869136,52.16412353515625,62.2094955444336
18597,-36.108734130859375,-20.343185424804688,50.85515975952149,40.69758987426758
18598,-32.256637573242195,-15.743108749389648,44.0335807800293,33.898452758789055
18599,-18.938854217529297,-2.384186267852783,56.69314193725586,50.0548210144043
18600,-25.99978446960449,-4.609426498413086,57.2204704284668,48.88423156738281
18601,-32.53712844848633,-11.109373092651367,52.47453689575195,43.67829132080078
18602,-35.51409149169922,-12.46695613861084,43.02006912231445,45.55572128295898
18603,-34.60903549194336,4.631865978240967,46.07556915283203,60.27596664428711
18604,-40.13286590576172,-6.053028106689452,49.3031005859375,59.651405334472656
18605,-53.29731369018555,-11.214090347290039,47.61266708374024,48.28210830688477
18606,-46.3036994934082,-14.235929489135742,39.18667221069336,60.14133071899414
18607,-32.59322738647461,-7.7733821868896475,42.66477966308594,72.89813232421875
18608,-24.15975379943848,-14.82309341430664,48.16242980957031,76.3238754272461
18609,-35.495391845703125,-26.499061584472656,46.43085861206055,66.12142944335939
18610,-32.058422088623054,-20.582538604736328,37.54485702514648,63.29780578613281
18611,-21.220191955566406,-4.059661388397217,52.41843795776367,78.5341567993164
18612,-33.692760467529304,-20.810672760009766,49.34423828125,67.40422058105469
18613,-44.62074661254883,-22.448749542236328,46.40841674804688,53.33845138549805
18614,-45.80629348754883,-30.033266067504886,31.87516784667969,47.81088256835938
18615,-34.74740982055664,-11.924671173095705,38.12453842163086,58.3349609375
18616,-31.878908157348636,-4.9759368896484375,42.395503997802734,53.4581298828125
18617,-40.74620819091797,-17.149311065673828,34.38090133666992,40.90328598022461
18618,-33.83113479614258,-7.601346492767334,27.54062271118164,44.45993041992188
18619,-25.405139923095703,-3.633312702178955,32.525909423828125,56.38273239135742
18620,-25.09098815917969,-5.2751288414001465,39.0333366394043,61.51387405395508
18621,-41.22865676879883,-21.704509735107425,30.207172393798828,51.42362594604492
18622,-36.94647216796875,-9.673251152038574,29.982778549194336,66.09899139404297
18623,-31.83028793334961,-6.281161785125732,35.39815139770508,70.14930725097656
18624,-39.407325744628906,-6.688811302185059,39.257728576660156,69.00863647460939
18625,-53.33845138549805,-24.54309272766113,28.617713928222656,55.13734436035156
18626,-59.33351135253906,-14.886672019958494,18.153474807739254,56.26305389404297
18627,-46.63655090332031,-9.67699146270752,24.141054153442386,74.24075317382812
18628,-43.22576522827149,-6.011888980865479,39.639198303222656,68.84781646728516
18629,-42.74705505371094,-8.910311698913574,42.27209091186523,60.19369125366211
18630,-42.8891716003418,-6.531735420227051,41.99907684326172,62.30299377441406
18631,-28.61397361755371,-8.001516342163086,47.66128540039063,64.92465972900389
18632,-25.38644027709961,-5.106833457946777,57.34388732910156,53.43194961547852
18633,-32.095821380615234,-20.975229263305664,55.17474365234375,45.29393005371094
18634,-30.19595146179199,-13.080300331115724,44.95733642578125,38.872520446777344
18635,-27.312488555908203,-1.725963830947876,41.165077209472656,52.39973831176758
18636,-35.51782989501953,-2.8741130828857417,42.90413284301758,56.18077850341797
18637,-41.21743774414063,-14.553820610046387,33.53942108154297,51.70785522460938
18638,-40.04684829711914,-8.715836524963379,23.759584426879886,61.15484237670898
18639,-34.534236907958984,-3.678191661834717,27.04695701599121,67.22843933105469
18640,-39.19041061401367,-4.078361034393311,33.019577026367195,56.87639999389648
18641,-48.44666290283203,-11.07197380065918,26.31767654418945,47.87071990966797
18642,-43.29308319091797,-18.252582550048828,25.08350944519043,54.45668411254883
18643,-28.195106506347656,-1.340754151344299,30.68587875366211,68.37659454345703
18644,-31.89760589599609,-10.563347816467283,32.668025970458984,64.98824310302734
18645,-37.35786056518555,-26.73467445373535,32.327693939208984,49.26570129394531
18646,-24.926433563232425,-14.493982315063475,32.428672790527344,57.22794723510742
18647,-19.511058807373047,-4.246656417846681,34.30236053466797,58.7987060546875
18648,-19.114627838134766,-1.3706732988357544,47.3246955871582,60.45922088623047
18649,-31.665733337402344,-16.27791404724121,43.23324203491211,43.51747512817383
18650,-33.60674285888672,-3.996083021163941,36.19475173950195,46.33362197875977
18651,-32.993396759033196,8.005255699157715,34.25748443603516,60.24604797363281
18652,-40.9818229675293,-6.299861431121826,34.36968231201172,63.41748428344727
18653,-59.67758178710938,-22.30663299560547,26.654266357421875,52.65031051635742
18654,-54.471641540527344,-8.723316192626951,23.52397155761719,57.64681625366211
18655,-50.4587287902832,5.174151420593262,27.24143218994141,68.65334320068361
18656,-54.30334854125977,8.790635108947754,27.48078536987305,69.52474212646484
18657,-69.30034637451172,-10.331473350524902,26.47849082946777,60.61629867553711
18658,-60.97158813476562,-12.033127784729006,24.840415954589844,60.99776840209961
18659,-42.5077018737793,1.3594536781311035,35.79832077026367,77.54682922363281
18660,-30.11367416381836,1.80450177192688,55.043846130371094,67.96520233154297
18661,-33.76755523681641,-14.77821445465088,53.45064926147461,56.74924087524414
18662,-28.804710388183594,-9.669511795043944,52.45957565307617,55.47019577026367
18663,-15.786117553710938,-4.6206464767456055,57.31022644042969,60.32832717895508
18664,-12.412728309631348,-7.253535747528076,61.33435821533203,52.21274185180664
18665,-24.803016662597656,-19.1202392578125,51.99583053588867,35.876861572265625
18666,-22.783470153808594,-26.16995048522949,38.28535461425781,35.386932373046875
18667,-11.313197135925293,-3.225663661956787,54.07895278930664,56.15085983276367
18668,-20.57318878173828,-11.157991409301758,51.19549179077149,57.572021484375
18669,-30.618560791015625,-24.344879150390625,47.26859664916992,53.06917953491211
18670,-39.01089477539063,-21.51377487182617,33.26641082763672,52.57551193237305
18671,-27.46956443786621,3.427618265151977,40.47693634033203,63.76155471801758
18672,-37.09232711791992,-4.545848369598389,41.3520736694336,57.92356872558594
18673,-45.55572128295898,-24.909603118896484,35.75344467163086,47.20875549316406
18674,-44.19065856933594,-7.388172149658202,30.06505584716797,56.37525177001953
18675,-40.84718704223633,1.9391381740570068,29.63870620727539,64.92092132568361
18676,-44.25049591064453,-10.757822036743164,36.007755279541016,63.18935012817383
18677,-48.74585723876953,-4.695444583892822,30.117414474487305,61.49143600463867
18678,-57.96844863891602,-17.886072158813477,17.435413360595707,56.218177795410156
18679,-43.19210433959961,1.0939207077026367,23.25843811035156,69.90621185302734
18680,-42.38802719116211,-4.59072732925415,30.697099685668945,66.55525970458984
18681,-50.578407287597656,-17.478422164916992,27.89965438842773,45.90727233886719
18682,-55.724510192871094,-19.277315139770508,8.983240127563477,34.545455932617195
18683,-29.87432098388672,-0.08040785044431686,31.276782989501953,57.6019401550293
18684,-22.338422775268555,-0.817168116569519,45.27148818969727,55.89654541015625
18685,-38.19186019897461,-25.71742248535156,36.03767776489258,47.7473030090332
18686,-33.150474548339844,-12.3360595703125,35.910518646240234,48.409263610839844
18687,-20.99953842163086,-3.8614466190338135,43.11730575561523,60.24979019165039
18688,-23.602508544921875,-2.5637013912200928,49.39659881591797,67.03022766113281
18689,-36.95769119262695,-28.032419204711914,38.341453552246094,44.40009307861328
18690,-36.55752182006836,-14.70715618133545,28.752351760864254,50.26425552368164
18691,-26.153120040893555,-1.0041631460189822,41.41191101074219,72.19129180908203
18692,-29.70602607727051,-2.2607696056365967,40.00571060180664,63.09585189819336
18693,-40.01692962646485,-19.008041381835934,36.99509048461914,58.56683349609375
18694,-47.07038116455078,-15.316760063171387,31.115966796875,56.49493026733398
18695,-21.63158226013184,2.8628933429718018,47.0142822265625,77.21397399902344
18696,-30.23335075378418,-6.778568744659424,47.16761779785156,70.02588653564453
18697,-36.47150421142578,-26.293367385864254,47.949256896972656,54.14627075195313
18698,-44.35147476196289,-24.03820610046387,39.72895812988281,47.81088256835938
18699,-35.633766174316406,-12.956883430480955,36.74825668334961,47.87071990966797
18700,-26.770204544067386,-13.476729393005373,51.04589462280274,49.36668014526367
18701,-32.955997467041016,-26.644916534423828,44.49732971191406,35.32709503173828
18702,-28.04176902770996,-9.931303977966307,37.08484649658203,39.74391555786133
18703,-22.88070869445801,0.1589457541704178,41.07158279418945,49.59107208251953
18704,-26.28401756286621,-8.495182991027832,44.16073989868164,42.46282577514648
18705,-33.543163299560554,-14.19105052947998,41.606388092041016,37.062408447265625
18706,-33.232749938964844,-1.3257945775985718,35.585147857666016,47.13021850585938
18707,-25.539775848388672,5.9258713722229,37.1484260559082,56.32663345336914
18708,-28.879507064819336,-5.4135050773620605,42.08883285522461,62.703163146972656
18709,-38.58080673217773,-18.66023063659668,43.00510787963867,57.03721237182617
18710,-38.50600814819336,-17.074512481689453,32.34639358520508,64.18416595458984
18711,-30.32684898376465,-4.1868181228637695,39.8785514831543,78.80342864990234
18712,-34.429519653320305,-5.050734996795653,41.05662155151367,69.98101043701172
18713,-36.51638412475586,-20.78823471069336,38.397552490234375,60.33206558227539
18714,-29.148780822753906,-16.023601531982422,40.48815536499024,58.86228561401367
18715,-19.095930099487305,-1.752143144607544,42.4067268371582,62.71438217163086
18716,-28.655113220214844,-4.392512321472168,44.55342864990234,60.41060256958008
18717,-33.191612243652344,-25.49302864074707,46.6440315246582,42.42916488647461
18718,-37.82534790039063,-20.459123611450195,33.367385864257805,34.76610946655273
18719,-27.155412673950195,-2.5786609649658203,37.21574401855469,48.43544387817383
18720,-27.8585147857666,-0.951804518699646,41.53158950805664,50.959877014160156
18721,-35.53279113769531,-12.410858154296875,35.20741653442383,43.99992370605469
18722,-47.50046920776367,-9.325440406799316,22.076629638671875,52.3548583984375
18723,-40.98556518554688,7.84443998336792,33.25519180297852,62.03746032714844
18724,-35.443031311035156,5.626679420471191,53.17763900756836,71.51062774658203
18725,-49.67708969116211,-12.66517162322998,44.92741775512695,63.14447021484375
18726,-40.87336730957031,-9.983662605285645,47.44063186645508,70.74020385742188
18727,-37.69445037841797,-2.406625509262085,44.7553825378418,77.71138000488281
18728,-38.99967575073242,-12.97558307647705,45.8287353515625,76.18923950195312
18729,-45.72027587890625,-21.151004791259766,42.56380081176758,61.30818176269531
18730,-40.09546661376953,-5.099353790283203,39.7775764465332,62.80039978027344
18731,-27.787456512451172,5.48456335067749,39.15301132202149,72.7073974609375
18732,-26.63182830810547,7.279715061187744,49.42651748657226,64.08692932128906
18733,-42.22346878051758,-19.180076599121094,38.17316055297852,38.61072540283203
18734,-42.63859939575195,-6.24750280380249,25.97360610961914,45.10319519042969
18735,-31.905086517333984,11.543201446533205,37.8889274597168,56.8390007019043
18736,-34.306102752685554,3.0947673320770264,45.64547729492188,51.83501434326172
18737,-42.35810852050781,-15.133504867553713,40.46945571899414,44.34025573730469
18738,-37.37656021118164,-8.053874969482424,32.208019256591804,50.56718826293945
18739,-25.83148956298828,1.2547364234924316,38.02356338500977,62.31795120239258
18740,-22.61143493652344,-3.393959283828736,38.532188415527344,58.3985366821289
18741,-31.546056747436523,-11.434743881225586,36.55004119873047,50.084739685058594
18742,-25.79034996032715,-13.472990036010742,32.80640411376953,51.89485168457031
18743,-20.485301971435547,-0.12154674530029295,34.960586547851555,59.76359939575195
18744,-24.4608154296875,-1.4492112398147583,48.99642944335938,60.12637329101562
18745,-41.64565658569336,-16.161977767944336,37.75802993774414,48.05397415161133
18746,-39.31943893432617,-5.7388763427734375,31.587194442749023,52.92332458496094
18747,-33.04762649536133,6.505556106567383,31.05238914489746,64.09814453125
18748,-39.13992309570313,13.13265895843506,32.26785659790039,62.90885543823242
18749,-45.37059783935547,-4.085840702056885,31.03742980957031,54.87555313110352
18750,-52.14729690551758,-1.3856329917907717,20.509611129760746,51.86119079589844
18751,-45.54263305664063,9.819107055664062,26.14190101623535,64.97328186035156
18752,-44.61887741088867,-6.337260246276856,30.083755493164066,66.74599456787111
18753,-50.62141418457031,-17.224109649658207,21.336130142211914,54.87555313110352
18754,-47.80900955200195,-12.504355430603027,10.84945011138916,49.50879669189453
18755,-34.57724380493164,-3.001269817352295,8.16046142578125,61.30070114135742
18756,-28.93373680114746,-12.384678840637207,24.02137756347656,64.43473815917969
18757,-35.23546600341797,-15.754328727722168,24.316829681396484,56.14337921142578
18758,-29.135690689086914,-3.839007377624512,20.31887626647949,56.74550247192383
18759,-19.759761810302734,2.0363755226135254,30.37546730041504,66.74599456787111
18760,-11.89475154876709,-2.82923436164856,36.16857147216797,70.03336334228516
18761,-25.156436920166016,-14.856752395629885,35.54401016235352,59.15399932861328
18762,-23.6978759765625,-11.39360523223877,36.374267578125,54.64741897583008
18763,-20.26090812683105,-9.527395248413086,33.83861541748047,59.21383666992188
18764,-20.062692642211914,-4.287795066833496,44.67310333251953,57.90113067626953
18765,-36.55939102172852,-18.465755462646484,34.287403106689446,37.66079330444336
18766,-34.083580017089844,-3.1994843482971187,37.90388488769531,45.738975524902344
18767,-28.45502853393555,6.139045715332031,49.40781784057617,59.41952896118164
18768,-31.559144973754886,9.549834251403807,55.41783905029297,61.27825927734375
18769,-44.75725173950195,-8.158592224121094,45.22286987304688,47.69494247436523
18770,-37.326072692871094,5.06943416595459,43.12852478027344,49.88652420043945
18771,-21.880285263061523,2.7955751419067383,48.64487838745117,62.76300048828125
18772,-20.881731033325195,-3.240623235702514,46.02320861816406,59.97677612304688
18773,-33.29071807861328,-20.69473648071289,35.162540435791016,52.53063583374024
18774,-34.81659698486328,-18.9444637298584,29.94911956787109,53.057960510253906
18775,-25.68002319335937,-4.145678997039795,35.53279113769531,64.31880187988281
18776,-30.377336502075195,-10.451150894165039,34.22756576538086,56.60712432861328
18777,-40.7518196105957,-10.7017240524292,34.818470001220696,52.13046646118164
18778,-42.37867736816406,-12.575413703918455,23.149980545043945,50.17449951171875
18779,-32.168750762939446,0.4207387566566467,27.686479568481445,65.53052520751953
18780,-39.96269989013672,0.2150442451238632,32.49599075317383,59.68880462646485
18781,-57.8656005859375,-15.941323280334473,27.596721649169922,50.4587287902832
18782,-50.09783172607422,0.761069655418396,31.572235107421875,61.09874725341797
18783,-34.52114486694336,7.620046138763428,46.423377990722656,72.44186401367188
18784,-38.706092834472656,-4.7291035652160645,50.17449951171875,72.2847900390625
18785,-48.50463104248047,-12.223862648010256,46.2401237487793,56.21443557739258
18786,-48.37747573852539,-10.757822036743164,37.39152145385742,49.67708969116211
18787,-30.65782928466797,12.178984642028807,49.63969039916992,67.89414215087889
18788,-33.754467010498054,3.012489318847656,55.17848205566406,54.64741897583008
18789,-37.78234100341797,-14.314467430114744,49.08244705200195,41.688663482666016
18790,-33.791866302490234,-8.151111602783201,42.62738037109375,45.33880615234375
18791,-26.1923885345459,-1.213597536087036,46.34857940673828,54.1500129699707
18792,-18.697629928588867,-5.0058560371398935,52.35860061645508,60.92671203613281
18793,-23.80633354187012,-20.83685302734375,49.35171890258789,50.33157348632813
18794,-28.11469841003418,-16.954835891723633,38.42747116088867,53.0355224609375
18795,-15.111065864562988,4.403732299804688,49.89026641845703,61.50265502929688
18796,-17.83371353149414,1.86434018611908,52.81112670898438,59.73742294311523
18797,-32.77835464477539,-14.594959259033205,41.25483703613281,43.85780715942383
18798,-32.11265182495117,-13.544047355651855,35.820762634277344,42.55632019042969
18799,-23.54080009460449,-0.18138514459133148,42.982669830322266,50.68312454223633
18800,-29.606918334960934,-7.908018589019775,51.80883407592773,51.83875274658203
18801,-41.5147590637207,-10.649365425109863,49.86782455444336,37.238182067871094
18802,-46.16719436645508,-3.3677799701690674,42.0963134765625,34.915706634521484
18803,-42.65542984008789,17.12687110900879,34.926925659179695,49.01886749267578
18804,-45.62490844726562,6.434497833251952,32.821361541748054,46.43833923339844
18805,-54.43611526489258,-9.931303977966307,23.96901893615723,43.31178283691406
18806,-43.10421752929688,4.003562927246094,17.98891830444336,56.88761901855469
18807,-28.380229949951172,6.988003253936768,28.2399845123291,69.06098937988281
18808,-26.00165367126465,-6.83092737197876,44.25797653198242,81.24559020996094
18809,-31.181415557861328,-16.016120910644528,40.40587997436523,64.015869140625
18810,-33.73202896118164,-9.953743934631348,34.848388671875,64.57311248779297
18811,-19.015522003173828,3.240623235702514,42.59746170043945,81.66071319580078
18812,-20.71717643737793,-2.90029239654541,43.38283920288086,70.09694671630861
18813,-26.44670295715332,-15.870265007019045,51.71533584594727,57.31396865844727
18814,-31.132797241210934,-10.67928409576416,45.68661880493164,48.86553192138672
18815,-25.36213111877441,-0.9705040454864502,44.841400146484375,55.07002639770508
18816,-25.433189392089844,-7.410611629486084,57.77397537231445,55.66466903686523
18817,-39.88416290283203,-12.433297157287598,48.64487838745117,44.078460693359375
18818,-44.04667282104492,-7.290935039520264,45.35002517700195,43.45389938354492
18819,-30.31001853942871,4.235436916351318,47.3546142578125,58.14048385620117
18820,-29.61813735961914,-5.114313125610352,47.0367202758789,50.7766227722168
18821,-33.51137542724609,-19.69244384765625,53.858299255371094,49.65839004516602
18822,-31.473127365112305,-10.959776878356934,47.45933151245117,52.736328125
18823,-29.27780723571777,8.618599891662598,53.64138412475586,68.92635345458984
18824,-32.841930389404304,4.579507350921631,53.94057846069336,69.60701751708984
18825,-46.975013732910156,-5.540661811828613,44.07472229003906,49.894004821777344
18826,-49.90335464477539,6.782308578491211,35.02042388916016,50.47369003295898
18827,-37.097938537597656,13.525348663330078,39.33626937866211,57.43364334106445
18828,-39.74578857421875,5.263909339904785,46.34857940673828,50.8588981628418
18829,-44.2149658203125,-7.597606658935548,42.54884338378906,40.37969970703125
18830,-45.40051651000977,-0.761069655418396,33.389827728271484,44.684326171875
18831,-29.51716041564941,9.744309425354004,34.579116821289055,61.25208282470703
18832,-30.669050216674805,3.5547749996185303,37.922584533691406,63.653099060058594
18833,-37.68136215209961,-15.40651798248291,40.57417297363281,58.62293243408203
18834,-30.42595672607422,-16.977275848388672,37.238182067871094,61.82428741455078
18835,-24.39723777770996,-12.691350936889648,48.61122131347656,77.29251098632812
18836,-23.1107120513916,-13.476729393005373,55.50385665893555,65.99427795410156
18837,-43.94195556640625,-24.91708374023437,51.10199356079102,44.41131210327149
18838,-43.68016052246094,-6.718730449676514,47.736083984375,48.330726623535156
18839,-26.753374099731445,19.531627655029297,60.21986770629883,59.883277893066406
18840,-41.58581924438477,11.445963859558105,58.64537048339844,54.6212387084961
18841,-52.846656799316406,-3.7829089164733887,54.46790313720703,43.70820999145508
18842,-55.99191284179688,-1.699784517288208,41.33711242675781,44.77034378051758
18843,-33.47771453857422,11.363685607910154,46.6739501953125,57.66925811767578
18844,-30.19408226013184,-8.798114776611328,49.63969039916992,51.15435028076172
18845,-35.95726776123047,-16.913698196411133,48.43544387817383,40.18522644042969
18846,-32.61379623413086,-9.587233543395996,50.43255233764648,47.59022521972656
18847,-20.728395462036133,4.482270240783691,49.84164810180664,63.01731491088867
18848,-24.64033126831055,6.075467586517334,55.25702285766602,66.62631988525389
18849,-38.95666885375977,-14.867972373962402,39.46342468261719,51.63306045532226
18850,-40.68824005126953,-12.055567741394045,28.42697906494141,46.6515121459961
18851,-30.291318893432614,4.164378643035889,28.064208984375,59.27741241455078
18852,-29.382524490356445,-9.695691108703613,35.69734573364258,54.59505844116211
18853,-38.04787063598633,-16.722963333129886,31.198246002197266,47.19005584716797
18854,-28.38397026062012,-10.088379859924316,24.42154693603516,51.10573196411133
18855,-20.75831413269043,-6.827187538146973,36.64727783203125,56.51362991333008
18856,-19.034221649169922,-9.460077285766602,42.32444763183594,57.03721237182617
18857,-28.294212341308594,-24.90212440490723,37.31672286987305,47.06664276123047
18858,-34.35659027099609,-12.190203666687012,34.900745391845696,50.31287384033203
18859,-22.80030059814453,-0.267402857542038,40.52181625366211,66.15135192871094
18860,-27.748188018798828,-8.353066444396973,45.4584846496582,66.34956359863281
18861,-48.0184440612793,-19.314712524414066,37.1259880065918,40.547996520996094
18862,-44.955467224121094,-2.1485724449157715,34.695053100585945,41.928016662597656
18863,-42.78632354736328,5.58180046081543,34.94562530517578,47.25737762451172
18864,-37.748680114746094,1.2883955240249634,42.567543029785156,43.2818603515625
18865,-46.62346267700195,-15.01382827758789,26.414913177490234,23.998937606811523
18866,-40.991172790527344,-4.923578262329102,28.853328704833984,23.82690238952637
18867,-22.867618560791016,14.445363998413086,45.8511734008789,44.691802978515625
18868,-16.360193252563473,-3.618353128433228,56.16581726074219,48.1773910522461
18869,-32.74469375610352,-15.810426712036133,47.0255012512207,47.85202026367188
18870,-34.27431488037109,-12.889565467834473,37.69819259643555,54.72595596313477
18871,-19.93927574157715,-3.3976991176605225,49.51253509521485,70.65792846679688
18872,-25.425710678100586,-9.441377639770508,55.36922073364258,68.70570373535156
18873,-43.17901611328125,-19.131458282470703,41.77842330932617,44.474891662597656
18874,-44.78343200683594,-5.566841125488281,33.995689392089844,48.47658157348633
18875,-36.30881881713867,1.0266025066375732,31.54979515075684,59.46440887451172
18876,-39.992618560791016,-1.591327428817749,45.38742446899414,58.69025039672852
18877,-50.42694091796875,-12.15280532836914,36.30320739746094,44.03732299804688
18878,-44.9479866027832,-0.3010619580745697,40.22262573242188,48.1287727355957
18879,-35.25790786743164,17.081993103027347,46.9843635559082,53.79098129272461
18880,-30.612951278686523,4.9497575759887695,51.46850204467773,42.41046524047852
18881,-44.31594467163086,-18.39469718933105,44.68806457519531,25.120908737182614
18882,-34.48748779296875,-9.834067344665527,42.24216842651367,30.28570938110352
18883,-19.7186222076416,-4.714143753051758,43.03876876831055,38.15071868896485
18884,-24.75252723693848,-7.354513168334961,41.62882614135742,29.975297927856445
18885,-31.09913825988769,-21.19962310791016,37.50371551513672,28.531696319580078
18886,-36.1928825378418,-13.544047355651855,29.84814071655273,35.59636688232422
18887,-19.62138557434082,-5.308787822723389,35.353275299072266,57.42990493774414
18888,-22.848918914794922,-5.432204723358153,48.34942626953125,60.01043319702149
18889,-31.11783790588379,-24.01950836181641,36.64353942871094,52.36233901977539
18890,-35.422462463378906,-16.352712631225586,30.704578399658203,57.84129333496094
18891,-29.28528594970703,-7.163778305053711,37.533634185791016,70.14556121826172
18892,-36.45841598510742,-15.413997650146484,47.7473030090332,68.72814178466797
18893,-47.352745056152344,-22.85265922546387,39.72895812988281,51.12443161010742
18894,-49.59294509887695,-16.599546432495114,24.93391227722168,46.77492904663086
18895,-38.92675018310547,6.404578685760497,33.84235382080078,58.08438491821289
18896,-39.72334671020508,3.842747211456299,44.557167053222656,48.33820724487305
18897,-49.29001235961914,-15.896444320678713,41.53158950805664,27.88095474243164
18898,-44.68245315551758,-4.792681694030762,36.40792465209961,30.05009651184082
18899,-23.41364288330078,12.874605178833008,53.970497131347656,46.30744171142578
18900,-27.62103080749512,-5.282608509063722,56.11346054077149,35.46547317504883
18901,-31.02433967590332,-14.770734786987305,49.49757766723633,24.32056999206543
18902,-28.656984329223636,-9.467556953430176,38.820159912109375,25.341562271118164
18903,-26.70101547241211,11.019615173339844,42.4665641784668,37.268104553222656
18904,-29.57325935363769,1.2322970628738403,43.92512512207031,37.62713241577149
18905,-42.438514709472656,-12.825986862182615,34.44073867797852,35.256038665771484
18906,-42.39363479614258,-14.232189178466795,28.42323875427246,44.18317794799805
18907,-33.23836135864258,-2.44776463508606,30.77189636230469,60.43678283691406
18908,-34.708141326904304,-15.29058074951172,28.25494384765625,60.23856735229492
18909,-40.32173156738281,-35.25416564941406,21.990612030029297,51.1880111694336
18910,-39.6373291015625,-25.44440841674805,18.411527633666992,48.330726623535156
18911,-22.83769989013672,-20.485301971435547,22.974205017089844,49.284400939941406
18912,-22.714282989501953,-10.073420524597168,37.29802322387695,49.56115341186523
18913,-32.49412155151367,-18.865924835205078,38.22551727294922,39.52700424194336
18914,-35.24668884277344,-5.507002830505371,32.619407653808594,32.978439331054695
18915,-27.531272888183594,6.075467586517334,37.1072883605957,53.42446899414063
18916,-32.76339340209961,4.800161361694336,45.73149490356445,56.62956619262695
18917,-37.6589241027832,-12.627772331237793,50.537269592285156,50.91499710083008
18918,-44.65253448486328,-18.46949577331543,45.95962905883789,51.74525451660156
18919,-36.00962829589844,-5.787495136260986,52.23518371582031,58.63788986206055
18920,-37.07923889160156,-17.65793800354004,49.76310729980469,56.640785217285156
18921,-48.538291931152344,-40.706939697265625,37.94502639770508,35.40563201904297
18922,-45.42669296264648,-47.9997444152832,31.08230781555176,31.86394691467285
18923,-27.617290496826172,-31.31979179382324,38.81642150878906,48.28584671020508
18924,-23.211688995361328,-36.06946563720703,37.06614685058594,43.87650680541992
18925,-36.8959846496582,-50.37458419799805,34.27618408203125,38.36389541625977
18926,-37.96559524536133,-40.7593002319336,26.92728042602539,44.08594131469727
18927,-25.96799468994141,-7.33207368850708,33.40478515625,58.83984756469727
18928,-24.12048530578613,-9.59471321105957,40.73125076293945,60.18994903564453
18929,-43.68016052246094,-15.126025199890135,27.892173767089844,36.205970764160156
18930,-45.98767852783203,-9.886425971984863,19.57089614868164,39.23155212402344
18931,-41.15946960449219,7.223616600036621,25.962385177612305,46.44955825805664
18932,-42.55819320678711,3.491196632385254,30.854175567626953,48.51398086547852
18933,-49.5443229675293,-14.557560920715332,33.03827667236328,52.736328125
18934,-42.07948303222656,-8.061354637145996,30.753196716308594,57.84503173828125
18935,-37.3597297668457,-10.967256546020508,29.174959182739254,63.14821243286133
18936,-34.831558227539055,-21.708250045776367,40.07302856445313,60.7060546875
18937,-41.30532455444336,-31.331012725830078,40.99678421020508,48.97024917602539
18938,-40.97247314453125,-24.76374816894531,38.6743049621582,54.31830596923828
18939,-29.07585144042969,-10.582046508789062,47.86697769165039,57.32892608642578
18940,-28.395191192626953,-23.45104217529297,51.5694808959961,45.58190155029297
18941,-31.74614143371582,-35.22424697875977,51.53582000732422,31.807849884033203
18942,-32.81575393676758,-25.597745895385746,41.15011978149414,36.98012924194336
18943,-19.606426239013672,-8.023955345153809,50.45125198364258,59.34847259521485
18944,-20.696605682373047,-14.853013038635256,53.71618270874024,63.19683074951172
18945,-39.75887680053711,-26.237268447875977,41.50915145874024,55.63475036621094
18946,-32.72786331176758,-22.23557472229004,38.36389541625977,67.1087646484375
18947,-33.184131622314446,-7.189957618713379,47.42941284179688,80.42655181884766
18948,-34.00317001342773,-6.1203460693359375,54.29960632324219,76.44355773925781
18949,-48.36064529418945,-15.567333221435547,52.44087600708008,63.43244171142578
18950,-49.68083190917969,-12.78858757019043,49.15350341796875,60.62003707885742
18951,-34.433258056640625,-8.31940746307373,52.47453689575195,63.38008499145508
18952,-27.54810333251953,-8.218430519104004,66.18501281738281,62.74056243896485
18953,-33.520721435546875,-23.701616287231445,60.76215362548828,46.2513427734375
18954,-31.246864318847656,-18.75372886657715,52.40721893310547,45.69409942626953
18955,-19.492359161376953,-2.6085801124572754,57.00729370117188,61.42037582397461
18956,-20.075782775878906,-9.662031173706056,62.41519165039063,60.14507293701172
18957,-30.39416694641113,-17.033374786376953,57.56079864501953,56.04240036010742
18958,-34.01813125610352,-10.716683387756348,48.4691047668457,64.41230010986328
18959,-25.81653022766113,-3.184524774551392,53.47309112548828,77.17657470703125
18960,-25.098468780517575,-6.075467586517334,57.94601058959961,79.4915771484375
18961,-43.47259521484375,-25.87823867797852,48.45040512084961,62.52738571166992
18962,-43.85406875610352,-19.247394561767575,41.93923950195313,66.70485687255861
18963,-34.728710174560554,-8.368025779724121,46.83850860595703,82.1843032836914
18964,-41.62882614135742,-12.384678840637207,50.16327667236328,76.38372039794922
18965,-52.79616928100586,-28.92999649047852,42.91535186767578,54.12009048461914
18966,-47.43315124511719,-12.713789939880373,42.66477966308594,56.93623733520508
18967,-37.43265914916992,4.59072732925415,48.01657485961914,64.62173461914061
18968,-44.06724166870117,7.631265640258789,53.06169891357422,58.39105987548828
18969,-52.145423889160156,1.0714813470840454,47.608924865722656,47.04046249389648
18970,-52.84104537963867,9.908864974975586,45.93719100952149,42.186073303222656
18971,-28.150226593017575,11.887271881103516,46.67021179199219,55.705810546875
18972,-28.647634506225586,6.913205146789551,53.88447952270508,50.05855941772461
18973,-31.67695236206055,0.08788765221834183,54.34074783325195,36.50142288208008
18974,-34.17520523071289,7.982816219329834,44.418792724609375,39.58684158325195
18975,-25.43132019042969,11.730195999145508,51.55078125,57.79267501831055
18976,-26.691665649414066,3.8577067852020255,53.01308059692383,57.53836059570313
18977,-37.66079330444336,-17.227849960327152,35.68986511230469,46.74501037597656
18978,-36.30320739746094,-7.803301334381103,31.47873878479004,60.55271911621094
18979,-26.97215843200684,1.4903501272201538,33.565601348876946,75.95362854003906
18980,-34.777328491210945,1.7932820320129397,44.08219909667969,80.77436065673828
18981,-47.54908752441406,-15.15594482421875,39.26520919799805,69.63319396972656
18982,-53.7685432434082,-14.090072631835938,22.076629638671875,69.41254425048828
18983,-42.19729232788086,1.0640015602111816,30.77189636230469,81.91128540039062
18984,-44.68806457519531,-7.27223539352417,38.31901550292969,78.80717468261719
18985,-54.37440490722656,-18.37599754333496,35.6823844909668,69.58831787109375
18986,-51.59939956665039,-9.288041114807127,37.03248977661133,70.75890350341797
18987,-38.99967575073242,11.980769157409668,42.0439567565918,71.14411926269531
18988,-33.827396392822266,10.17813777923584,56.62582397460938,69.75287628173828
18989,-49.56115341186523,-10.12951946258545,44.97977828979492,45.62677764892578
18990,-43.57357406616211,6.082947254180907,40.82100677490234,37.9525032043457
18991,-32.70542526245117,19.569026947021484,50.52230834960938,54.49782180786133
18992,-39.14553451538086,7.908018589019775,44.21683883666992,41.07158279418945
18993,-45.36124801635742,-5.323747634887695,43.75682830810547,32.15565872192383
18994,-40.45823669433594,-4.478530406951903,35.40563201904297,31.770450592041016
18995,-26.605648040771484,12.900784492492676,39.27642822265625,49.86408615112305
18996,-25.76791000366211,7.174998283386231,39.4148063659668,47.87071990966797
18997,-36.45280456542969,-8.139892578125,31.246864318847656,40.32734298706055
18998,-37.07362747192383,-6.969303607940674,26.57572937011719,39.257728576660156
18999,-27.151674270629886,5.166671752929688,33.41974639892578,59.50554656982422
19000,-29.537729263305664,3.8053481578826895,39.66537857055664,64.35245513916016
19001,-48.59626007080078,-27.53501319885254,29.14504051208496,56.74550247192383
19002,-44.72172546386719,-7.870619297027588,31.826549530029297,68.33544921875
19003,-38.876258850097656,2.9601309299468994,31.086048126220703,86.65721893310547
19004,-50.37271118164063,-2.2607696056365967,37.01005172729492,81.22314453125
19005,-69.18441009521484,-12.122885704040527,32.563308715820305,64.78628540039061
19006,-59.692543029785156,-4.332674026489259,27.462085723876953,66.34956359863281
19007,-43.88024520874024,9.198284149169922,41.2810173034668,74.69328308105469
19008,-36.164833068847656,11.718976974487305,50.537269592285156,65.27247619628906
19009,-46.21394348144531,3.86518669128418,39.88603210449219,43.17714309692383
19010,-33.95081329345703,-1.9466179609298704,42.68347930908203,44.25423431396485
19011,-20.973358154296875,27.03386688232422,57.2204704284668,57.77771377563477
19012,-26.05962371826172,15.79920768737793,57.91609191894531,53.51049041748047
19013,-32.63436889648437,12.223862648010256,57.74031448364258,41.69988632202149
19014,-40.33856201171875,-1.9914966821670528,41.28475570678711,41.082801818847656
19015,-39.63172149658203,14.38178539276123,33.45340347290039,43.2108039855957
19016,-36.84549331665039,1.374413251876831,45.20791244506836,50.02116012573242
19017,-48.218528747558594,-19.12771797180176,32.099559783935554,40.79108810424805
19018,-46.28874206542969,-10.683024406433104,25.057329177856445,53.37959289550781
19019,-32.70542526245117,0.15146595239639282,27.37606811523437,69.46490478515625
19020,-37.12224578857422,-4.691704273223877,36.47150421142578,70.34751892089844
19021,-44.85261917114258,-18.47323608398437,28.26616477966309,61.177284240722656
19022,-46.94696426391602,-6.296121597290039,25.319122314453125,67.28079986572266
19023,-36.61362075805664,3.764209270477295,29.021623611450195,75.56468200683594
19024,-34.50057601928711,12.53801441192627,46.23638153076172,76.09574127197266
19025,-45.529541015625,-5.219030380249023,42.90787124633789,65.76614379882811
19026,-52.13046646118164,0.18138514459133148,31.007511138916016,61.73452758789063
19027,-47.70990371704102,16.741662979125973,37.44387817382813,71.37599182128906
19028,-41.56898880004883,9.015028953552246,45.9297103881836,65.60158538818361
19029,-56.50614929199219,-2.343047380447388,37.06614685058594,48.1998291015625
19030,-49.56863403320313,3.6258330345153813,31.587194442749023,48.75707626342773
19031,-37.877708435058594,19.09405899047852,42.04769515991211,50.86264038085938
19032,-37.81038665771485,4.717883586883545,48.04649353027344,49.86034774780274
19033,-44.3552131652832,-5.869772911071777,41.45305252075195,33.31502914428711
19034,-30.798076629638672,-10.12203884124756,39.11187362670898,35.401893615722656
19035,-14.907240867614744,5.420985221862793,51.34882736206055,52.91958618164063
19036,-14.993258476257324,2.5337822437286377,61.15110397338867,54.15375137329102
19037,-31.706871032714844,-8.566241264343263,58.506996154785156,36.12743377685547
19038,-36.7669563293457,-9.09730625152588,46.48695755004883,50.619544982910156
19039,-34.960586547851555,-4.538368701934815,45.06205368041992,61.81306457519531
19040,-40.74995040893555,-5.230249881744385,51.41240310668945,60.78085327148438
19041,-51.44606399536133,-17.30264663696289,45.95962905883789,53.89196014404297
19042,-50.107177734375,-10.361392974853516,37.649574279785156,52.50819396972656
19043,-35.38319396972656,2.761916160583496,40.95938491821289,69.71547698974611
19044,-34.68383407592773,3.2032244205474854,39.66164016723633,67.07510375976561
19045,-41.09775924682617,-22.41883087158203,32.047203063964844,52.89714431762695
19046,-35.674903869628906,-11.991989135742188,33.49828338623047,55.02140808105469
19047,-31.359060287475586,-3.3789997100830083,29.70602607727051,60.90053176879883
19048,-31.94996452331543,-9.46381664276123,35.36823272705078,49.6733512878418
19049,-42.33192825317383,-14.228449821472168,36.60614013671875,32.98965835571289
19050,-42.799415588378906,-4.908618927001953,34.27244186401367,37.05867004394531
19051,-30.46896553039551,9.777968406677246,41.995338439941406,52.56803512573242
19052,-24.55992317199707,1.969057321548462,57.42990493774414,57.50096130371094
19053,-45.43604278564453,-16.341493606567386,44.63570785522461,47.96795654296875
19054,-45.05457305908203,-14.273327827453613,30.74945831298828,43.37910079956055
19055,-33.30754852294922,2.1485724449157715,39.3549690246582,56.64452362060547
19056,-34.14154815673828,-3.442577838897705,45.85491180419922,64.00838470458984
19057,-52.10802459716797,-22.03736114501953,35.110179901123054,45.888572692871094
19058,-39.867332458496094,-12.605332374572756,37.559814453125,56.599647521972656
19059,-35.155059814453125,-1.1313197612762451,37.76924896240234,67.03396606445311
19060,-41.71858215332031,-4.1269798278808585,39.91595077514648,60.25726699829102
19061,-48.43170547485352,-13.416891098022461,38.98097610473633,47.264854431152344
19062,-49.202125549316406,-9.10478687286377,34.78854751586914,47.59770584106445
19063,-36.56874084472656,6.232543468475343,38.37137222290039,59.00065994262695
19064,-35.18124008178711,-3.8838860988616943,43.83536911010742,52.485755920410156
19065,-44.19813919067383,-12.66891098022461,34.676353454589844,41.35955429077149
19066,-45.26026916503906,-5.1105732917785645,35.72352600097656,53.69748306274414
19067,-33.33746719360352,13.746002197265625,45.99702835083008,65.05181884765625
19068,-33.22901153564453,1.3893728256225586,44.43001174926758,56.74924087524414
19069,-45.701576232910156,-8.543801307678223,37.80664825439453,52.063148498535156
19070,-45.72401809692383,-5.86603307723999,28.217544555664066,46.17280578613281
19071,-25.49115753173828,6.763608932495117,39.4372444152832,60.74719619750977
19072,-26.37751388549805,-0.22252404689788816,49.48635482788086,61.64477157592773
19073,-46.93948364257813,-14.030234336853027,45.05831527709961,49.40781784057617
19074,-46.52061462402344,-20.23098945617676,36.91281127929688,47.44811248779297
19075,-30.278230667114254,1.0939207077026367,44.130821228027344,63.00609588623047
19076,-35.304656982421875,-12.265002250671387,46.30744171142578,52.93828201293945
19077,-48.69723892211914,-24.344879150390625,35.570186614990234,42.1075325012207
19078,-49.63969039916992,-19.40821075439453,24.61602210998535,40.80604934692383
19079,-29.61252784729004,-4.0746212005615225,33.857315063476555,58.0245475769043
19080,-37.66827392578125,-6.165225028991699,27.60046195983887,58.66407012939453
19081,-40.129127502441406,-14.6921968460083,25.92498588562012,51.71533584594727
19082,-38.56584930419922,-17.328826904296875,27.21899223327637,55.48141479492188
19083,-26.47475242614746,-5.641639232635497,36.08629608154297,68.44017028808594
19084,-23.16868019104004,3.195744514465332,45.63800048828125,65.69508361816406
19085,-37.74681091308594,-17.568180084228516,44.22805786132813,55.77312850952149
19086,-36.449066162109375,-4.987156391143799,39.69529724121094,59.31855392456055
19087,-36.38174819946289,3.659492015838623,40.30116271972656,71.3236312866211
19088,-42.58624267578125,2.9339516162872314,40.5816535949707,70.49711608886719
19089,-52.41095733642578,-5.091873645782472,41.13890075683594,69.07595062255861
19090,-46.90582656860352,-4.112020015716554,34.137805938720696,66.65997314453125
19091,-27.30875015258789,-0.12902654707431793,37.25688171386719,80.40785217285156
19092,-20.719045639038086,-14.39300537109375,40.91824722290039,71.84347534179688
19093,-26.168079376220703,-21.77556800842285,44.03732299804688,51.86493301391602
19094,-20.74522590637207,-15.19334316253662,43.132266998291016,52.59047317504883
19095,-13.097129821777346,-15.754328727722168,49.602294921875,59.5728645324707
19096,-17.581270217895508,-24.184062957763672,57.27656936645508,57.5832405090332
19097,-33.13177490234375,-29.50594139099121,46.692649841308594,46.68891143798828
19098,-39.97204971313477,-25.16017723083496,39.81497573852539,46.78614807128906
19099,-30.46896553039551,-2.6160600185394287,43.66707229614258,62.63958358764648
19100,-30.267009735107425,-13.596405982971193,42.44412612915039,59.883277893066406
19101,-41.09402084350586,-24.85350608825684,38.872520446777344,50.66442489624024
19102,-35.88059997558594,-21.581092834472656,42.35436630249024,64.34871673583984
19103,-28.71495246887207,-10.911158561706543,43.73439025878906,69.13204956054689
19104,-30.061315536499023,-7.702323913574219,53.70496368408203,68.56732940673828
19105,-34.21634292602539,-25.814659118652344,49.38911819458008,55.22710418701172
19106,-46.86094665527344,-17.287687301635742,39.979530334472656,46.64777374267578
19107,-30.760677337646484,6.0380682945251465,51.82753372192383,60.37320327758789
19108,-36.46776580810547,-5.323747634887695,60.00669479370117,59.90571594238281
19109,-48.81317520141602,-21.237022399902344,53.1177978515625,50.66816329956055
19110,-44.62822723388672,-9.336660385131836,56.48370742797852,61.63355255126953
19111,-33.45714569091797,-0.10284724831581116,56.4874496459961,70.459716796875
19112,-35.30839538574219,-2.705817699432373,65.81475830078125,69.33774566650389
19113,-46.65899276733398,-25.79595947265625,53.23373413085938,51.763954162597656
19114,-43.04998779296875,-22.437530517578125,33.367385864257805,54.37814712524414
19115,-29.01040458679199,-3.8090879917144775,37.62339401245117,62.4712905883789
19116,-40.34230041503906,-3.7829089164733887,42.758277893066406,53.862037658691406
19117,-40.24132537841797,-11.958330154418945,43.48755645751953,45.28644943237305
19118,-45.28270721435547,-6.292381763458253,35.58888626098633,42.94153213500977
19119,-39.75139617919922,5.245209693908691,38.23673629760742,50.765403747558594
19120,-38.54340744018555,-4.6991844177246085,36.91281127929688,49.39659881591797
19121,-48.09137344360352,-21.57735252380371,31.89012718200684,37.1259880065918
19122,-43.82414627075195,-6.191404342651367,20.064563751220703,48.84683227539063
19123,-35.05408096313477,-1.6810849905014038,22.77225112915039,56.31915283203125
19124,-31.093528747558594,2.8516736030578613,40.03189086914063,61.22590255737305
19125,-41.52410888671875,-19.520408630371094,32.39127349853516,46.46077728271485
19126,-34.728710174560554,-15.832866668701172,32.428672790527344,47.0030632019043
19127,-28.131526947021484,-11.71523666381836,34.4669189453125,56.12841796875
19128,-28.067949295043945,-10.282855033874512,37.98242568969727,57.47478103637695
19129,-34.71375274658203,-24.692689895629886,36.31068801879883,44.05976104736328
19130,-39.62424087524414,-30.994421005249023,28.673812866210934,47.02176284790039
19131,-29.05528259277344,-8.674697875976562,44.59830856323242,66.93299102783203
19132,-34.75489044189453,-11.685317039489744,48.83187484741211,66.02793121337889
19133,-50.18197631835938,-24.8011474609375,38.6406478881836,49.01512908935547
19134,-46.36727905273438,-16.607025146484375,37.81038665771485,55.30937957763672
19135,-27.409727096557614,-1.5015698671340942,45.82125473022461,67.33316040039061
19136,-31.807849884033203,-10.469849586486816,44.0634994506836,59.04553985595703
19137,-36.09003448486328,-19.46430969238281,45.02839660644531,52.6241340637207
19138,-30.8990535736084,-19.830820083618164,42.85551452636719,50.40262985229492
19139,-17.076383590698242,0.8358676433563232,48.34194564819336,53.48431015014648
19140,-15.87961483001709,-12.223862648010256,56.39395141601562,54.07895278930664
19141,-23.957799911499023,-26.1512508392334,40.56295394897461,39.27642822265625
19142,-30.44652557373047,-27.938922882080078,32.17061996459961,36.27328872680664
19143,-9.854636192321776,2.4552443027496342,43.20706558227539,53.17389678955078
19144,-17.824363708496094,-3.8240478038787837,42.129974365234375,51.28150939941406
19145,-30.186601638793945,-5.116183280944824,43.86715698242188,47.31160354614258
19146,-42.92096328735352,-0.1009773015975952,32.57265853881836,42.73770523071289
19147,-39.14366149902344,10.621315956115724,39.69342803955078,54.20050048828125
19148,-36.39857482910156,8.848603248596191,50.74483108520508,61.20907211303711
19149,-49.19277572631836,-10.688633918762207,45.340675354003906,54.79888534545898
19150,-48.09324264526367,-5.437814712524414,34.88391494750977,54.22668075561523
19151,-38.72105407714844,9.581624031066896,45.20603942871094,64.94523620605469
19152,-40.953773498535156,5.710827350616455,48.81130599975586,68.58789825439453
19153,-47.75291442871094,-10.052850723266602,50.97296524047852,59.04367065429688
19154,-40.84905624389648,-8.369895935058594,44.29724502563477,57.71226501464844
19155,-34.906356811523445,-0.7554597854614258,47.68933486938477,63.946678161621094
19156,-27.658430099487305,-0.7778992056846619,58.38171005249024,62.230064392089844
19157,-45.26961898803711,-21.33238983154297,51.25345993041992,46.74687957763672
19158,-36.85484313964844,-14.709026336669922,49.90709686279297,49.873435974121094
19159,-22.501108169555664,7.105809688568115,58.1535758972168,61.86729431152344
19160,-24.161623001098636,-8.713967323303223,54.54457092285156,52.38290786743164
19161,-31.06547927856445,-16.807109832763672,44.29724502563477,40.673282623291016
19162,-24.01950836181641,-24.911474227905273,31.03182029724121,41.095890045166016
19163,-15.440176963806152,-12.5062255859375,35.897430419921875,45.217262268066406
19164,-15.28684139251709,-6.986133098602295,43.13039779663086,42.30387878417969
19165,-29.042192459106445,-34.27244186401367,38.53779983520508,31.17393684387207
19166,-28.0698184967041,-17.259637832641598,36.9146842956543,44.52911758422852
19167,-24.973182678222656,3.126556396484375,41.372642517089844,51.04776382446289
19168,-31.98923492431641,-7.767772197723389,42.969581604003906,46.92265319824219
19169,-40.7293815612793,-22.98916435241699,41.61199569702149,43.33609008789063
19170,-45.29205703735352,-15.034398078918455,34.27431488037109,41.80647277832031
19171,-32.217369079589844,1.495959997177124,42.64794921875,50.64385604858398
19172,-30.54189300537109,1.2977452278137207,45.17986297607422,55.71141815185547
19173,-40.856536865234375,-15.610342025756836,43.852195739746094,39.31943893432617
19174,-39.80188369750977,-7.4872798919677725,27.538753509521484,38.92675018310547
19175,-33.93772125244141,-5.299437999725342,33.687149047851555,49.33115005493164
19176,-26.689796447753906,-5.710827350616455,46.290611267089844,48.58691024780274
19177,-37.21387481689453,-23.93161964416504,33.840484619140625,36.5556526184082
19178,-32.759654998779304,-20.962139129638672,31.177675247192386,43.94569396972656
19179,-16.614505767822266,2.31125807762146,47.094688415527344,61.39606857299805
19180,-25.08163833618164,-20.23659896850586,46.80671691894531,44.73107528686523
19181,-34.293014526367195,-29.440492630004886,44.5029411315918,37.93567657470703
19182,-30.76254653930664,-20.06830406188965,36.00588607788086,38.02543258666992
19183,-23.80633354187012,1.3426240682601929,36.73142623901367,57.87682342529297
19184,-29.70041465759277,-14.649188041687012,39.36431884765625,50.3072624206543
19185,-35.781494140625,-14.357476234436035,30.829864501953125,43.64276123046875
19186,-38.00299453735352,-15.011958122253418,25.115297317504886,49.31245040893555
19187,-37.87957763671875,-9.95561408996582,25.51546669006348,47.09095001220703
19188,-37.51306533813477,-11.55255126953125,34.09105682373047,53.759193420410156
19189,-41.24922561645508,-17.958999633789062,26.697275161743164,42.65542984008789
19190,-39.54757308959961,-15.05309772491455,22.261754989624023,49.0805778503418
19191,-27.778106689453125,-1.5632781982421875,29.89488983154297,60.87996292114258
19192,-36.69028854370117,-11.87418270111084,31.742401123046875,58.93521499633789
19193,-53.24308395385742,-21.68394088745117,25.31725311279297,40.23571395874024
19194,-44.64131546020508,-17.56631088256836,30.949542999267575,40.7593002319336
19195,-26.854351043701172,-7.835090637207031,40.42644882202149,57.49161148071289
19196,-26.40930366516113,-10.617575645446776,45.58377075195313,57.4542121887207
19197,-33.18600082397461,-19.036090850830078,41.46987915039063,50.72613143920898
19198,-24.68146896362305,-18.332988739013672,40.433929443359375,55.40848922729492
19199,-7.919238090515138,-6.8253173828125,48.16430282592773,65.94752502441406
19200,-14.471543312072756,-8.904702186584473,56.126548767089844,64.44034576416016
19201,-20.403024673461914,-23.617467880249023,52.43152618408203,52.46892547607422
19202,-24.85724449157715,-16.395721435546875,47.07973098754883,55.09807586669922
19203,-22.153297424316406,-7.102069854736327,46.87777709960938,58.96513366699219
19204,-20.14871025085449,-5.789365291595459,56.06296920776367,54.94847869873047
19205,-34.17333602905273,-26.25035858154297,47.38266372680664,49.7836799621582
19206,-35.95726776123047,-26.57572937011719,37.135337829589844,52.083717346191406
19207,-25.38457107543945,-7.5396385192871085,42.857383728027344,64.71710205078125
19208,-28.08477783203125,-11.518892288208008,43.88211441040039,62.84714889526367
19209,-33.743247985839844,-26.493452072143555,40.79669952392578,42.674129486083984
19210,-34.34163284301758,-25.745471954345703,32.509078979492195,41.00987243652344
19211,-13.28599452972412,-3.422008514404297,35.56831741333008,52.67835998535156
19212,-22.86387825012207,-13.60201644897461,39.58123016357422,53.39268112182617
19213,-29.28154754638672,-28.07916831970215,36.71272659301758,41.88127136230469
19214,-24.92082405090332,-19.64195442199707,30.00708770751953,46.31304931640625
19215,-16.786540985107422,-1.144409418106079,49.97067260742188,69.38823699951172
19216,-20.919130325317386,-11.642308235168455,48.42235565185547,58.94269180297852
19217,-30.612951278686523,-24.986270904541016,47.01989364624024,51.86306381225586
19218,-33.87040328979492,-18.684539794921875,36.9558219909668,50.65507507324219
19219,-23.230388641357425,-4.716013908386231,38.02917098999024,68.53927612304689
19220,-23.065832138061523,-6.686941146850586,44.99286651611328,66.20183563232422
19221,-31.59654426574707,-27.678998947143555,40.40774917602539,56.42200088500977
19222,-25.70246315002441,-23.83812141418457,33.54129409790039,52.07997512817383
19223,-15.054966926574707,-9.813497543334961,30.36237716674805,56.702491760253906
19224,-12.250041961669922,-20.401153564453125,41.5334587097168,51.7097282409668
19225,-24.93952369689941,-40.37596130371094,29.812612533569336,43.42584991455078
19226,-27.83794593811035,-22.046710968017575,25.20505523681641,49.091796875
19227,-16.835159301757812,-13.72543239593506,28.320392608642575,58.5350456237793
19228,-16.812719345092773,-8.556891441345215,41.24548721313477,62.20388412475586
19229,-33.72454833984375,-19.342761993408203,33.62356948852539,45.871742248535156
19230,-39.04268646240234,-5.172281742095947,29.4087028503418,45.81564331054688
19231,-27.66964912414551,-1.0658714771270752,35.10457229614258,52.60356140136719
19232,-22.067279815673828,-14.226579666137695,50.026771545410156,59.14464950561523
19233,-32.80453109741211,-27.170373916625977,47.33778381347656,50.16888809204102
19234,-31.974275588989254,-16.481739044189453,37.63274383544922,57.91796112060547
19235,-21.188404083251953,-13.987225532531738,40.86027526855469,66.02232360839844
19236,-18.66771125793457,-11.156121253967283,47.2368049621582,65.49125671386719
19237,-34.11349868774414,-17.723386764526367,43.93821334838867,54.32391738891602
19238,-34.566024780273445,-17.042724609375,31.58906555175781,47.75665283203125
19239,-30.98694038391113,-1.5557984113693235,36.48459243774414,55.89093399047852
19240,-28.612104415893555,-5.8566832542419425,41.013614654541016,60.1431999206543
19241,-39.78318405151367,-25.3939208984375,35.04099273681641,44.73481369018555
19242,-39.1848030090332,-15.853435516357422,29.09455108642578,47.41258239746094
19243,-24.65529060363769,-10.853189468383787,32.120132446289055,51.00288391113281
19244,-29.184309005737305,-18.13851547241211,39.79814529418945,44.51416015625
19245,-29.27780723571777,-17.364355087280273,41.9448471069336,40.7293815612793
19246,-27.01142692565918,-11.365555763244627,28.746740341186523,38.07405090332031
19247,-22.351512908935547,1.5071797370910645,31.98175430297852,49.90335464477539
19248,-26.091411590576172,-13.250465393066404,34.24439239501953,54.95595932006836
19249,-33.380477905273445,-29.32455635070801,31.05799865722656,42.46095275878906
19250,-29.1730899810791,-14.933420181274414,28.825279235839844,48.97959899902344
19251,-18.02444839477539,-12.857775688171387,33.904064178466804,59.76921081542969
19252,-21.143524169921875,-9.0056791305542,43.29869079589844,58.69211959838867
19253,-35.23920822143555,-24.069995880126953,28.024940490722656,39.37927627563477
19254,-31.25995445251465,-20.520830154418945,31.74987983703613,44.69367599487305
19255,-25.63514518737793,-5.209680557250977,33.30194091796875,51.21606063842773
19256,-18.806087493896484,-6.7579994201660165,47.87258911132813,55.21775436401367
19257,-34.74180221557617,-19.963586807250977,43.69512176513672,47.97356796264648
19258,-33.402915954589844,-25.939945220947266,36.73516845703125,48.79260635375977
19259,-32.179969787597656,-12.509964942932127,36.32378005981445,51.57508850097656
19260,-19.546586990356445,-19.48113822937012,49.76498031616211,57.11014175415039
19261,-27.362977981567386,-33.11681365966797,42.95088195800781,43.53056716918945
19262,-30.79246711730957,-16.679954528808597,36.80622482299805,49.38351058959961
19263,-21.72694969177246,-5.9726200103759775,38.79959106445313,60.363853454589844
19264,-19.89813804626465,-7.004832744598389,47.51729965209961,57.82820129394531
19265,-39.70464706420898,-28.299823760986328,36.2751579284668,41.047271728515625
19266,-25.04424095153809,-16.021732330322266,40.8116569519043,53.246826171875
19267,-23.45104217529297,-5.628549575805664,44.155128479003906,61.90095520019531
19268,-24.03820610046387,-9.850896835327148,49.95945358276367,58.11991500854492
19269,-33.919021606445305,-33.92837142944336,41.43996047973633,49.37602996826172
19270,-41.144508361816406,-28.808448791503906,31.01312065124512,51.50777053833008
19271,-30.65782928466797,-3.938114643096924,37.72998046875,67.37616729736328
19272,-31.74987983703613,-9.0056791305542,36.58930969238281,63.93920135498047
19273,-36.645408630371094,-28.04924964904785,33.08876419067383,55.77125930786133
19274,-33.114944458007805,-18.34046936035156,28.80657958984375,53.51235961914063
19275,-22.7591609954834,-9.44698715209961,37.22883224487305,65.95874786376953
19276,-20.06643295288086,-9.88455581665039,49.222694396972656,63.8644027709961
19277,-30.38107681274414,-17.87672233581543,40.68824005126953,50.37832260131836
19278,-33.24958038330078,-12.682001113891602,35.740352630615234,52.5025863647461
19279,-20.90791130065918,-0.1907348930835724,46.60850143432617,64.80311584472656
19280,-20.904170989990234,-7.692974090576173,50.557838439941406,60.02352523803711
19281,-30.40351676940918,-39.94961166381836,36.69776916503906,46.04377746582031
19282,-32.15005111694336,-29.96781921386719,31.86581802368164,50.44190216064453
19283,-23.07331275939941,-14.832443237304688,41.97476577758789,70.18482971191406
19284,-26.84313201904297,-22.798429489135746,41.63817596435547,60.90988159179688
19285,-37.7075424194336,-38.3003158569336,34.371551513671875,51.743385314941406
19286,-37.748680114746094,-26.358814239501953,27.808025360107425,51.26094055175781
19287,-23.35754585266113,-18.770557403564453,41.13702774047852,62.914466857910156
19288,-27.18720245361328,-21.283771514892575,42.06452560424805,60.434913635253906
19289,-33.09250640869141,-24.84415626525879,41.92988967895508,52.37916946411133
19290,-36.47711563110352,-13.534697532653807,27.740707397460934,52.56990432739258
19291,-26.30458641052246,-10.221146583557127,31.20385551452637,62.17022705078125
19292,-26.14002990722656,-10.935467720031738,43.7923583984375,58.5574836730957
19293,-29.18804931640625,-29.34699440002441,42.84990310668945,44.51416015625
19294,-32.24354934692383,-15.782378196716307,42.79006576538086,48.18300247192383
19295,-18.742507934570312,-5.852943420410156,48.87114334106445,54.70912551879883
19296,-23.843732833862305,-11.343116760253904,51.130043029785156,53.11967086791992
19297,-33.35803604125977,-16.324663162231445,44.5552978515625,46.96005249023438
19298,-35.953529357910156,-13.19810676574707,36.49955368041992,48.26527786254883
19299,-23.170549392700195,-1.0322123765945437,41.49605941772461,57.57014846801758
19300,-26.054012298583984,-7.4611005783081055,53.56471633911133,63.1426010131836
19301,-41.03605270385742,-25.5996150970459,46.3915901184082,54.27155685424805
19302,-40.29555130004883,-17.49525260925293,29.644317626953125,54.604408264160156
19303,-23.783893585205078,-4.349503517150879,41.28662490844727,63.677406311035156
19304,-25.42197036743164,-14.0321044921875,44.88066864013672,66.01484680175781
19305,-28.746740341186523,-24.61602210998535,47.38640213012695,51.63492965698242
19306,-35.56457901000977,-17.218500137329098,35.63937759399414,49.93327331542969
19307,-24.58049201965332,4.543978214263916,43.51560592651367,59.76547241210938
19308,-32.61379623413086,-9.207633972167967,43.51560592651367,51.04776382446289
19309,-32.165008544921875,-16.485479354858402,38.35828399658203,45.04522323608398
19310,-29.898630142211914,-22.61143493652344,32.699813842773445,48.79260635375977
19311,-27.57241249084473,-8.025825500488281,41.12580871582031,54.72782516479492
19312,-30.19408226013184,-9.75365924835205,48.56072998046875,55.75255966186523
19313,-39.92530059814453,-25.25180435180664,41.68305587768555,45.65108871459961
19314,-38.0815315246582,-15.539284706115724,39.670989990234375,55.89093399047852
19315,-23.11819076538086,-8.747626304626465,41.436222076416016,59.28676223754883
19316,-30.46335601806641,-13.32900333404541,43.86715698242188,54.91482162475586
19317,-43.29121017456055,-21.88215446472168,38.4405632019043,49.71635818481445
19318,-37.64770126342773,-20.771404266357425,34.55106735229492,54.88116073608398
19319,-30.081884384155273,-12.502485275268555,33.945201873779304,64.48522186279297
19320,-26.14377021789551,-4.641215801239014,44.07659149169922,64.98262786865234
19321,-43.60910415649414,-23.63616752624512,26.10263252258301,49.794898986816406
19322,-40.65832138061523,-17.102561950683597,28.881378173828125,55.86849594116211
19323,-25.46684837341309,0.6245632767677307,36.85110473632813,62.34600067138672
19324,-20.964008331298828,-0.08601769804954529,46.78801727294922,58.69211959838867
19325,-34.67822265625,-19.948625564575195,42.629249572753906,42.59185028076172
19326,-34.13967514038086,-22.704933166503906,33.354297637939446,45.7408447265625
19327,-22.17947578430176,-1.279045820236206,37.812259674072266,58.66593933105469
19328,-24.169103622436523,-9.82471752166748,42.48713302612305,52.62974166870117
19329,-32.98404693603516,-18.953813552856445,36.69402694702149,44.94424819946289
19330,-27.87908363342285,-18.097375869750977,37.26997375488281,49.95197296142578
19331,-18.46949577331543,-6.993612766265869,44.44309997558594,65.78296661376953
19332,-24.872203826904297,-14.810004234313965,50.33344268798828,62.43949890136719
19333,-34.999855041503906,-24.541223526000977,51.03654479980469,60.00482559204102
19334,-35.414981842041016,-13.95730686187744,42.25151824951172,59.30172348022461
19335,-28.541046142578125,-6.552304744720459,48.14560317993164,66.55712890625
19336,-31.050519943237305,-4.865609645843506,55.94329452514648,64.96767425537111
19337,-38.23112869262695,-16.567756652832028,46.04377746582031,53.33284378051758
19338,-35.87873077392578,-9.349749565124512,42.397377014160156,57.083961486816406
19339,-25.163917541503906,0.747979998588562,43.91951370239258,64.27578735351561
19340,-25.33969306945801,-9.424548149108887,46.36540985107422,58.05633544921875
19341,-34.547325134277344,-27.22273254394531,38.75845336914063,49.8435173034668
19342,-31.03182029724121,-8.979499816894531,37.902015686035156,56.3285026550293
19343,-18.88836479187012,0.4300884902477264,43.22015380859375,65.88394927978516
19344,-22.32533264160156,-8.545671463012695,48.54577255249024,60.4124755859375
19345,-36.46589279174805,-25.35652160644531,42.07200622558594,48.95341873168945
19346,-33.995689392089844,-15.832866668701172,37.25875473022461,55.31124877929688
19347,-25.68189239501953,2.6609387397766118,41.1108512878418,61.1866340637207
19348,-23.12006187438965,-5.20033073425293,49.63034057617188,58.72951889038086
19349,-35.73100280761719,-23.5221004486084,39.237159729003906,46.45516586303711
19350,-37.09232711791992,-15.559853553771973,32.277206420898445,46.37289047241211
19351,-30.53628349304199,0.577814519405365,41.21930694580078,60.11328125
19352,-28.60275459289551,-6.479376792907715,49.55180358886719,56.57159805297852
19353,-40.11042785644531,-12.317360877990724,42.64421081542969,51.20484161376953
19354,-45.01717758178711,-17.46720314025879,38.5527572631836,53.39642333984375
19355,-38.04600143432617,-1.2098575830459597,39.16236114501953,65.09482574462889
19356,-32.795181274414055,9.101046562194824,49.56676483154297,59.65327453613281
19357,-45.65295791625977,-3.992343187332153,50.41946029663086,59.10725021362305
19358,-48.35690689086914,4.553328037261963,42.70404815673828,56.90444946289063
19359,-28.89820671081543,21.685810089111328,48.83748245239258,64.90035247802734
19360,-31.437599182128906,17.175491333007812,53.6282958984375,55.86475372314453
19361,-38.498531341552734,-6.688811302185059,45.35563659667969,48.24657821655274
19362,-37.08484649658203,-8.00899600982666,34.420169830322266,43.30617141723633
19363,-24.96383285522461,5.9857096672058105,36.2751579284668,52.20713424682617
19364,-25.622055053710934,0.5890342593193054,42.99201965332031,50.47930145263672
19365,-33.3636474609375,-8.910311698913574,36.63418960571289,39.75700759887695
19366,-32.60818862915039,1.0640015602111816,32.62501907348633,43.17901611328125
19367,-25.962385177612305,15.881484985351562,37.88705825805664,53.6881332397461
19368,-23.43047332763672,8.59242057800293,51.67606735229492,46.67956161499024
19369,-34.096668243408196,-5.869772911071777,41.87752914428711,37.89079666137695
19370,-34.53049468994141,-2.9115121364593506,34.01625823974609,35.07465362548828
19371,-24.118614196777344,5.0806541442871085,38.45552062988281,53.3478012084961
19372,-26.08580207824707,-7.14133882522583,43.12291717529297,47.18070602416992
19373,-40.13286590576172,-18.854705810546875,37.23631286621094,36.54069137573242
19374,-36.28824996948242,-8.90283203125,26.585079193115234,39.37927627563477
19375,-25.543516159057614,9.826586723327637,39.338138580322266,54.65302658081055
19376,-32.017284393310554,2.6871180534362797,37.225093841552734,49.32366943359375
19377,-40.439537048339844,-8.929011344909668,32.81575393676758,41.23426818847656
19378,-37.159645080566406,-1.0714813470840454,31.71622085571289,43.53430557250977
19379,-29.18243980407715,9.493736267089844,39.85424423217773,54.34635543823242
19380,-24.6309814453125,-2.047595262527466,48.39243698120117,56.57907485961914
19381,-31.92004585266113,-18.043148040771484,40.98743438720703,39.958961486816406
19382,-29.87058067321777,-4.078361034393311,33.571212768554695,48.29145812988281
19383,-21.893373489379886,0.17016544938087466,33.713329315185554,55.20279312133789
19384,-26.82256317138672,5.349926948547363,41.46987915039063,51.31329727172852
19385,-32.439891815185554,-0.8583070635795593,41.481101989746094,42.40111541748047
19386,-35.570186614990234,-7.3432936668396,33.118682861328125,37.59160614013672
19387,-22.44688034057617,11.662878036499025,42.670387268066406,52.315589904785156
19388,-26.20921897888184,9.467556953430176,48.05210494995117,47.44998168945313
19389,-41.61760711669922,-17.751434326171875,39.2035026550293,37.77486038208008
19390,-39.42228698730469,-13.027941703796387,36.42101669311523,41.062232971191406
19391,-30.562461853027344,-3.696891069412232,44.75725173950195,61.06695556640625
19392,-29.11138153076172,-0.6937514543533325,50.61767578125,56.13776779174805
19393,-36.37800598144531,-7.7733821868896475,42.70404815673828,41.907447814941406
19394,-38.37511444091797,-11.285147666931152,35.90116882324219,48.31389617919922
19395,-30.87661361694336,6.296121597290039,40.7929573059082,55.976951599121094
19396,-32.948516845703125,-0.8545671105384827,40.03376007080078,54.032203674316406
19397,-46.17280578613281,-13.544047355651855,30.945802688598636,38.18624877929688
19398,-40.1366081237793,-10.978476524353027,34.05365753173828,43.253814697265625
19399,-22.506717681884766,11.70401668548584,45.81190490722656,59.66823196411133
19400,-27.544363021850586,-4.100800514221191,47.00867080688477,58.81553649902344
19401,-38.33023452758789,-6.920684814453125,42.46095275878906,44.345863342285156
19402,-39.90099334716797,-23.0994930267334,29.47602081298828,42.46095275878906
19403,-25.38644027709961,-8.229649543762207,38.95292663574219,55.8946762084961
19404,-25.06855010986328,-4.9460177421569815,47.10964965820313,52.52128601074219
19405,-42.01777648925781,-12.104186058044435,43.90455627441406,34.569766998291016
19406,-35.330833435058594,-10.956036567687988,36.48085403442383,45.74458694458008
19407,-35.85816192626953,-1.6661254167556765,39.6373291015625,47.29290390014648
19408,-30.21465110778809,4.011042594909668,46.13727569580078,53.14210891723633
19409,-42.05143356323242,-15.896444320678713,42.30013656616211,42.042083740234375
19410,-38.49105072021485,-15.357898712158205,38.582679748535156,46.4102897644043
19411,-25.150827407836914,-4.1830782890319815,41.46987915039063,62.54795837402344
19412,-34.807247161865234,-12.627772331237793,40.53864669799805,47.89128875732422
19413,-38.00112533569336,-16.99971580505371,40.42644882202149,38.75845336914063
19414,-35.39815139770508,-10.466110229492188,36.73890686035156,48.2989387512207
19415,-26.040924072265625,1.699784517288208,46.61598205566406,61.65412139892578
19416,-28.681293487548828,-1.4529510736465454,47.62949752807617,59.94124603271485
19417,-34.638954162597656,-19.800899505615234,42.11688232421875,42.82372283935547
19418,-31.85272789001465,-6.284902095794678,41.634437561035156,51.91168212890625
19419,-17.431673049926758,5.4920430183410645,48.25405883789063,68.16902923583984
19420,-19.731712341308594,-8.076313972473145,54.19676208496094,57.32705688476562
19421,-29.990257263183594,-12.739969253540039,42.969581604003906,47.79779052734375
19422,-26.41117286682129,-9.108526229858398,34.285533905029304,51.15248107910156
19423,-13.815190315246582,2.193451404571533,39.81684494018555,65.18084716796875
19424,-25.33034324645996,-6.273682117462157,47.68933486938477,60.36759567260742
19425,-37.8590087890625,-12.998022079467773,47.10591125488281,51.02532577514648
19426,-31.762969970703125,-16.93613624572754,38.750972747802734,53.56097793579102
19427,-20.389934539794922,1.0453020334243774,45.98394012451172,65.48004150390625
19428,-25.02741050720215,-14.19478988647461,50.50922012329102,56.72867202758789
19429,-26.82256317138672,-19.180076599121094,55.35612869262695,50.43442153930664
19430,-36.27703094482422,-19.015522003173828,43.859676361083984,46.18963623046875
19431,-17.588748931884766,5.237730026245117,56.63517379760742,66.58705139160156
19432,-24.81423568725586,-4.0185227394103995,55.27011108398438,56.6688346862793
19433,-35.211158752441406,-12.66517162322998,51.20109939575195,45.04896545410156
19434,-41.400691986083984,-10.241716384887695,38.133888244628906,45.88296127319336
19435,-25.779130935668945,5.503262996673584,40.531166076660156,60.56206893920898
19436,-25.244325637817386,-0.13276645541191098,48.93846130371094,63.827003479003906
19437,-30.846694946289066,-19.767240524291992,45.88296127319336,60.625648498535156
19438,-27.566802978515625,-8.730796813964844,40.31051254272461,64.33937072753906
19439,-24.97131156921387,-1.5726279020309448,42.15428161621094,68.000732421875
19440,-32.58200836181641,-6.393359184265138,40.87897491455078,57.67112731933594
19441,-39.88603210449219,-23.421123504638672,42.73396682739258,47.24802780151367
19442,-39.34748840332031,-6.344740390777588,36.05450439453125,50.45312118530274
19443,-29.930419921875,8.424124717712402,40.17587661743164,59.84774780273438
19444,-23.912919998168945,-3.607133388519287,43.59414291381836,56.14524841308594
19445,-36.202232360839844,-16.53970718383789,40.50124740600586,46.31679153442383
19446,-37.791690826416016,-12.59411334991455,33.25706100463867,49.533103942871094
19447,-21.440847396850586,3.9773836135864262,48.351295471191406,67.72397613525389
19448,-29.021623611450195,-11.027094841003418,45.72588729858398,57.40185546875
19449,-40.72003173828125,-20.71717643737793,44.61139678955078,51.63118743896485
19450,-33.311290740966804,-15.384078025817873,40.79669952392578,55.8871955871582
19451,-21.19401359558105,-12.878345489501953,42.74144744873047,62.7947883605957
19452,-25.94742584228516,-10.604486465454102,49.60042190551758,58.78561782836914
19453,-31.62833404541016,-23.08827209472656,45.36311721801758,46.975013732910156
19454,-24.365447998046875,-14.344386100769045,39.40171432495117,54.38375473022461
19455,-16.219945907592773,-2.294428586959839,44.15886688232422,59.07358932495117
19456,-16.115228652954098,-9.863986015319824,55.52816390991211,61.16419219970703
19457,-26.452312469482425,-17.037115097045902,53.44504165649414,50.00059127807617
19458,-29.10764122009277,-18.585432052612305,47.1545295715332,47.25924682617188
19459,-15.48318576812744,-1.5427087545394895,56.508018493652344,59.21196746826172
19460,-22.222484588623047,-13.016721725463867,53.56097793579102,47.9361686706543
19461,-25.25180435180664,-15.133504867553713,49.83977508544922,41.70923614501953
19462,-31.23190498352051,-18.720069885253906,37.6589241027832,36.6154899597168
19463,-21.885894775390625,-3.364039897918701,41.5558967590332,49.18155288696289
19464,-16.44059944152832,-7.481669902801514,48.80382537841797,48.56072998046875
19465,-31.40019989013672,-28.55974578857422,40.32546997070313,38.515357971191406
19466,-30.86539459228516,-15.387818336486815,39.79814529418945,44.63383483886719
19467,-24.38414764404297,-2.1710119247436523,46.67956161499024,58.1460952758789
19468,-24.8067569732666,-4.201777458190918,48.90854263305664,54.47725296020508
19469,-40.783607482910156,-17.153051376342773,43.64276123046875,50.6887321472168
19470,-39.62797927856445,-7.52280855178833,35.76653289794922,53.89008712768555
19471,-24.68708038330078,-0.23374374210834506,43.03689956665039,66.08964538574219
19472,-24.4664249420166,-0.9667641520500184,46.51874542236328,65.25938415527344
19473,-36.81183624267578,-19.879438400268555,43.668941497802734,48.55699157714844
19474,-38.7154426574707,-17.785093307495114,35.168148040771484,52.05753707885742
19475,-27.02077674865723,-1.752143144607544,41.70923614501953,60.745323181152344
19476,-29.18991851806641,1.6287264823913574,42.89104080200195,58.56122207641602
19477,-34.63147354125977,-13.626325607299805,42.03834533691406,48.3812141418457
19478,-35.31587600708008,-7.088980197906494,36.02458572387695,48.87488174438477
19479,-24.103654861450195,-2.2121508121490483,40.13473510742188,59.53359603881836
19480,-25.629533767700195,2.1971912384033203,47.90625,53.841468811035156
19481,-32.36883544921875,-9.340399742126463,48.21292114257813,45.09384536743164
19482,-36.3854866027832,-21.876544952392575,32.505340576171875,39.02024459838867
19483,-21.874675750732425,7.399392127990723,45.83808517456055,58.34804916381836
19484,-19.526018142700195,-5.29382848739624,54.96717834472656,55.37108993530274
19485,-36.56500244140625,-16.315313339233402,48.27275848388672,37.25127410888672
19486,-35.083999633789055,-9.42641830444336,44.009273529052734,50.067909240722656
19487,-27.21899223327637,1.2883955240249634,44.66749572753906,50.98418426513672
19488,-25.27050399780273,2.2271103858947754,52.124855041503906,58.58366394042969
19489,-46.01572799682617,-14.639838218688965,44.07284927368164,44.495460510253906
19490,-44.28789520263672,-5.948310852050781,38.41438293457031,51.90046310424805
