,T7,F8,Cz,P4
1600,416.6846923828125,-1241.242919921875,439.6028137207031,486.3889465332031
1601,419.4410095214844,-1235.707763671875,437.7814636230469,474.9411010742188
1602,414.1976623535156,-1240.0086669921875,439.3372802734375,489.0928955078125
1603,411.3890075683594,-1248.4908447265625,437.8712158203125,490.90673828125
1604,410.6447448730469,-1243.9056396484375,431.0496520996094,475.87982177734375
1605,416.65478515625,-1240.6893310546875,449.7379150390625,492.8739318847656
1606,412.5932312011719,-1237.5628662109375,442.28057861328125,488.73760986328125
1607,400.7489929199219,-1258.1510009765625,428.3195190429688,486.9200134277344
1608,408.9543151855469,-1238.3126220703125,437.7178955078125,479.2625732421875
1609,412.75030517578125,-1231.3115234375,443.67181396484375,485.4109802246094
1610,410.97760009765625,-1239.55810546875,428.24847412109375,482.3330383300781
1611,406.4373779296875,-1246.686279296875,426.3037109375,480.55657958984375
1612,400.9210205078125,-1238.8026123046875,433.7610778808594,480.9717102050781
1613,424.1869201660156,-1232.55322265625,442.07861328125,485.4371337890625
1614,398.32177734375,-1242.6060791015625,433.8882446289063,482.53497314453125
1615,415.9030456542969,-1252.7598876953125,427.4481201171875,479.0007629394531
1616,396.5528259277344,-1239.288818359375,438.0657043457031,478.8212585449219
1617,427.7099304199219,-1233.3311767578125,445.2687377929688,491.8809814453125
1618,416.87542724609375,-1240.87451171875,436.2144470214844,481.68975830078125
1619,408.27740478515625,-1249.1171875,429.3255615234375,473.8397216796875
1620,406.7590026855469,-1237.751708984375,439.61029052734375,483.14459228515625
1621,429.4003601074219,-1230.967529296875,449.2405090332031,482.6883239746094
1622,403.3968200683594,-1243.5447998046875,440.4966430664063,480.33966064453125
1623,410.8280029296875,-1247.0751953125,436.3603210449219,477.29913330078125
1624,414.1827087402344,-1240.231201171875,444.2066040039063,492.1764526367188
1625,422.12249755859375,-1227.59033203125,446.2261657714844,488.35052490234375
1626,409.7359619140625,-1243.0736083984375,428.6486206054688,473.3984069824219
1627,392.09112548828125,-1235.3319091796875,426.0045166015625,478.6006164550781
1628,397.4765625,-1231.3638916015625,432.8186340332031,472.6167602539063
1629,414.0555419921875,-1234.314697265625,451.33111572265625,490.2391662597656
1630,403.0228271484375,-1245.8336181640625,435.30938720703125,477.8077392578125
1631,390.04913330078125,-1241.1624755859375,428.24847412109375,483.1258850097656
1632,404.42529296875,-1240.01806640625,432.94952392578125,485.42218017578125
1633,408.93560791015625,-1234.138916015625,448.1185607910156,494.0987548828125
1634,404.683349609375,-1240.9530029296875,441.01275634765625,484.3563232421875
1635,408.6813049316406,-1241.297119140625,438.61920166015625,486.9667663574219
1636,402.7872314453125,-1242.953857421875,446.9068298339844,492.8720703125
1637,418.1058654785156,-1221.8271484375,457.3000183105469,492.5691223144531
1638,403.29583740234375,-1237.2542724609375,447.1499328613281,487.88677978515625
1639,410.55499267578125,-1244.4349365234375,432.6129150390625,475.35064697265625
1640,415.3158874511719,-1242.3966064453125,438.3760986328125,479.3785095214844
1641,421.57647705078125,-1225.8475341796875,452.3521118164063,486.0093383789063
1642,420.8995666503906,-1233.05810546875,437.4523620605469,479.0494079589844
1643,391.795654296875,-1250.8712158203125,432.3885192871094,480.0591735839844
1644,395.4196166992188,-1238.376220703125,439.0193786621094,480.8931579589844
1645,405.6669616699219,-1226.6591796875,441.139892578125,484.2553405761719
1646,401.3623352050781,-1243.0174560546875,433.4768371582031,486.839599609375
1647,388.3399963378906,-1239.9432373046875,428.8206787109375,477.27294921875
1648,392.2257385253906,-1229.254638671875,438.4845581054688,487.9615783691406
1649,412.1407165527344,-1235.2347412109375,437.5645446777344,484.6517639160156
1650,397.1586608886719,-1236.816650390625,433.4057922363281,484.128173828125
1651,385.7108459472656,-1247.3856201171875,432.3885192871094,478.2415771484375
1652,404.5861206054688,-1236.2294921875,429.4190673828125,475.9490051269531
1653,416.0751037597656,-1226.4908447265625,441.92901611328125,478.9521484375
1654,402.8059387207031,-1231.9921875,432.7288513183594,476.5399169921875
1655,400.21417236328125,-1238.45849609375,430.4250793457031,474.8681945800781
1656,425.4622497558594,-1230.877685546875,440.4255676269531,487.2659606933594
1657,414.706298828125,-1229.9166259765625,447.770751953125,485.9083862304688
1658,409.9715881347656,-1235.7769775390625,446.49542236328125,487.696044921875
1659,399.78033447265625,-1240.384521484375,438.18536376953125,486.1888732910156
1660,396.4331359863281,-1236.4351806640625,444.82745361328125,494.8018493652344
1661,415.3121643066406,-1226.146728515625,449.5546875,493.8818359375
1662,401.3398742675781,-1235.171142578125,441.4316101074219,490.1082763671875
1663,399.1146545410156,-1250.18310546875,442.0823669433594,488.9002990722656
1664,394.16302490234375,-1243.107177734375,446.1364135742188,486.9405822753906
1665,405.5472717285156,-1232.063232421875,453.533935546875,493.38818359375
1666,398.67333984375,-1230.6832275390625,441.9626770019531,487.531494140625
1667,399.9710693359375,-1231.6781005859375,436.7006530761719,480.9754333496094
1668,408.4868469238281,-1223.4989013671875,442.63958740234375,483.8514404296875
1669,419.0184020996094,-1211.5162353515625,453.8031921386719,493.78460693359375
1670,401.2950134277344,-1222.6387939453125,444.3898620605469,479.91705322265625
1671,399.91497802734375,-1230.7655029296875,431.995849609375,473.3497924804688
1672,418.0572509765625,-1219.616943359375,447.7258605957031,484.5283508300781
1673,405.0797729492188,-1211.134765625,445.8484191894531,480.5640563964844
1674,410.1884765625,-1222.5489501953125,445.3360595703125,481.2334899902344
1675,400.0197143554688,-1223.2109375,440.9828186035156,485.6203918457031
1676,395.9619140625,-1214.9345703125,449.06475830078125,489.2144470214844
1677,413.37115478515625,-1211.1048583984375,456.34259033203125,488.39166259765625
1678,385.8080749511719,-1212.754150390625,450.1530456542969,491.428466796875
1679,384.6487121582031,-1212.952392578125,453.017822265625,499.0915222167969
1680,395.2475891113281,-1214.6951904296875,446.7796630859375,497.44970703125
1681,398.3703918457031,-1211.108642578125,452.7672424316406,490.9534912109375
1682,410.7532043457031,-1218.5211181640625,446.5515441894531,495.677001953125
1683,401.1304626464844,-1221.097900390625,438.9371032714844,487.344482421875
1684,405.1919860839844,-1219.9049072265625,439.1802062988281,486.81341552734375
1685,413.5955505371094,-1207.3612060546875,444.14678955078125,487.6474304199219
1686,404.7955627441406,-1211.908935546875,436.16583251953125,477.508544921875
1687,404.7693786621094,-1223.6859130859375,433.9219055175781,476.5735778808594
1688,412.43243408203125,-1209.911865234375,440.2236328125,478.6679382324219
1689,415.33831787109375,-1208.221435546875,445.2425842285156,480.0217590332031
1690,408.6252136230469,-1217.6048583984375,434.2210693359375,468.3607482910156
1691,405.693115234375,-1216.72216796875,437.33642578125,485.1304626464844
1692,410.37921142578125,-1209.968017578125,445.1266174316406,494.4316101074219
1693,414.5791320800781,-1204.6722412109375,444.3375244140625,476.3791198730469
1694,401.6241149902344,-1211.3031005859375,438.5444030761719,483.9972839355469
1695,393.6132507324219,-1221.060546875,431.9210510253906,481.3120422363281
1696,397.0202941894531,-1208.1951904296875,448.4065246582031,496.6830139160156
1697,402.2486877441406,-1208.2176513671875,451.7873840332031,492.4718933105469
1698,394.86236572265625,-1209.350830078125,438.0245666503906,485.33990478515625
1699,403.755859375,-1222.8519287109375,438.6266784667969,492.19140625
1700,389.1066589355469,-1206.235595703125,442.5535888671875,486.9293518066406
1701,400.0271911621094,-1209.32470703125,444.4384765625,488.7581787109375
1702,398.17218017578125,-1207.671630859375,445.048095703125,480.395751953125
1703,392.3977966308594,-1221.07177734375,432.12298583984375,474.9392395019531
1704,409.9940185546875,-1206.4898681640625,438.1405029296875,481.9964294433594
1705,409.9192199707031,-1210.0128173828125,436.0237121582031,471.5995178222656
1706,407.7837219238281,-1215.25244140625,438.3536682128906,474.819580078125
1707,412.9148864746094,-1217.1148681640625,433.181396484375,468.7123107910156
1708,424.5870971679688,-1214.22021484375,444.378662109375,478.8885803222656
1709,412.5184326171875,-1207.15185546875,458.3995361328125,484.8985900878906
1710,406.8038635253906,-1224.269287109375,439.82720947265625,471.5583801269531
1711,403.2509765625,-1221.823486328125,428.1100769042969,472.2128601074219
1712,409.6312561035156,-1214.52685546875,435.06256103515625,477.5609130859375
1713,411.71435546875,-1207.529541015625,439.5541687011719,474.8607177734375
1714,400.3338623046875,-1205.37158203125,443.6007385253906,484.3563232421875
1715,394.3761901855469,-1220.6640625,431.7714538574219,476.9961853027344
1716,405.6445007324219,-1216.497802734375,439.10540771484375,484.96966552734375
1717,415.5215759277344,-1220.2265625,453.863037109375,493.8294677734375
1718,398.3965759277344,-1224.983642578125,445.1341247558594,486.1103210449219
1719,394.0620422363281,-1234.87939453125,431.05712890625,481.39056396484375
1720,400.9995422363281,-1229.37060546875,437.34014892578125,477.848876953125
1721,413.47210693359375,-1218.4986572265625,443.357666015625,486.3796081542969
1722,401.620361328125,-1227.9906005859375,436.0611267089844,476.076171875
1723,397.7009582519531,-1235.040283203125,432.44464111328125,473.73126220703125
1724,402.8657531738281,-1226.505859375,432.5867614746094,471.8987121582031
1725,417.10357666015625,-1217.9713134765625,449.5247497558594,484.5582580566406
1726,406.0521545410156,-1222.0777587890625,447.6286315917969,485.6465759277344
1727,404.6459655761719,-1228.3682861328125,435.3355712890625,471.0123596191406
1728,411.3665466308594,-1225.3314208984375,440.8182678222656,475.0888366699219
1729,422.5413818359375,-1215.510498046875,452.7635192871094,481.9627685546875
1730,411.2580871582031,-1216.83447265625,445.882080078125,485.33990478515625
1731,413.1766662597656,-1233.1815185546875,433.2001037597656,481.1624450683594
1732,403.15374755859375,-1223.6634521484375,448.1297607421875,489.057373046875
1733,410.7232971191406,-1219.714111328125,452.0043029785156,487.6324768066406
1734,406.5682678222656,-1224.0599365234375,443.5296936035156,485.665283203125
1735,404.1186218261719,-1224.7069091796875,433.8695373535156,484.3675231933594
1736,409.4666748046875,-1215.039306640625,443.9261169433594,491.3050537109375
1737,426.1354064941406,-1219.6729736328125,458.1788940429688,492.8346557617188
1738,413.6217041015625,-1221.37841796875,439.4158020019531,483.5036010742188
1739,415.0653076171875,-1226.685302734375,436.8913879394531,471.7229309082031
1740,407.9071350097656,-1217.6160888671875,438.7463684082031,475.0402221679688
1741,421.4979553222656,-1209.3359375,449.8426513671875,475.05517578125
1742,419.19415283203125,-1214.6353759765625,438.9258728027344,462.46295166015625
1743,399.4886474609375,-1228.2972412109375,440.5190734863281,469.9651794433594
1744,414.6315002441406,-1214.5306396484375,447.7071533203125,484.15435791015625
1745,411.302978515625,-1208.9544677734375,449.3041076660156,474.49420166015625
1746,407.0170593261719,-1218.0648193359375,450.5831604003906,481.2484436035156
1747,407.9146423339844,-1229.0152587890625,445.6988525390625,486.8321228027344
1748,399.6457214355469,-1218.1920166015625,449.77532958984375,479.99932861328125
1749,406.2615966796875,-1218.34912109375,457.7113952636719,497.7526245117188
1750,409.9640808105469,-1229.7744140625,441.8429870605469,479.1728210449219
1751,396.3321533203125,-1232.4298095703125,430.4101257324219,470.05120849609375
1752,406.4971923828125,-1227.5343017578125,439.4831237792969,482.5910949707031
1753,413.30755615234375,-1222.9715576171875,443.6343994140625,480.4630737304688
1754,403.9690246582031,-1232.426025390625,436.1807861328125,477.8414001464844
1755,407.65283203125,-1232.964599609375,434.4043273925781,469.57623291015625
1756,415.4205932617188,-1241.13623046875,434.1575012207031,471.5882873535156
1757,419.41107177734375,-1218.423828125,436.2368774414063,460.7687683105469
1758,408.4419555664063,-1227.1976318359375,432.6054382324219,456.1350402832031
1759,394.5108337402344,-1229.1649169921875,422.0177917480469,459.0858154296875
1760,402.8395690917969,-1217.6385498046875,425.9035339355469,460.42095947265625
1761,404.2532653808594,-1202.1927490234375,439.9992370605469,476.6446533203125
1762,422.5899963378906,-1220.768798828125,441.4278564453125,477.63946533203125
1763,381.454833984375,-1223.468994140625,431.4610290527344,471.2965698242188
1764,399.5148010253906,-1217.66845703125,449.0572814941406,477.4449768066406
1765,406.6355895996094,-1216.56884765625,457.2700805664063,490.8599853515625
1766,405.4350891113281,-1222.0552978515625,451.33111572265625,485.1903076171875
1767,403.5763549804688,-1226.1990966796875,450.3961486816406,487.43798828125
1768,412.8363342285156,-1220.2452392578125,446.2785339355469,481.4990234375
1769,407.922119140625,-1219.6318359375,459.5102844238281,482.7444152832031
1770,412.8625183105469,-1227.8782958984375,449.8388977050781,488.705810546875
1771,397.828125,-1223.139892578125,427.74359130859375,459.5158996582031
1772,413.5955505371094,-1222.2908935546875,434.2435302734375,473.787353515625
1773,411.5572814941406,-1213.6741943359375,440.4517517089844,473.0954895019531
1774,398.05999755859375,-1219.171875,428.6598510742188,461.03802490234375
1775,397.9216003417969,-1222.5601806640625,420.6003723144531,457.0550537109375
1776,402.5665588378906,-1219.2615966796875,421.5278625488281,460.3910217285156
1777,412.6343688964844,-1213.58447265625,439.12408447265625,475.9415283203125
1778,398.72943115234375,-1222.4405517578125,434.4679260253906,470.2082824707031
1779,398.9725341796875,-1233.2188720703125,429.3255615234375,467.3995971679688
1780,396.1302185058594,-1224.1571044921875,441.1735534667969,478.7090759277344
1781,402.11029052734375,-1219.6131591796875,453.33197021484375,483.8701171875
1782,393.6955261230469,-1232.77392578125,432.0369873046875,472.9907531738281
1783,389.9369201660156,-1229.3070068359375,431.76397705078125,474.8569641113281
1784,393.9535827636719,-1224.38525390625,446.0466613769531,480.4256896972656
1785,405.63330078125,-1222.305908203125,451.30120849609375,484.8985900878906
1786,403.3257751464844,-1220.955810546875,438.2414855957031,469.04888916015625
1787,400.9172668457031,-1229.232177734375,428.779541015625,462.6686401367188
1788,400.8724060058594,-1216.366943359375,437.6692810058594,470.6458435058594
1789,409.2273254394531,-1216.5838623046875,447.243408203125,477.21685791015625
1790,401.9943542480469,-1220.4210205078125,433.5740966796875,471.756591796875
1791,395.3859558105469,-1231.7080078125,429.2993774414063,468.4991455078125
1792,410.6821594238281,-1220.0694580078125,442.3890380859375,476.8428649902344
1793,407.8173828125,-1212.107177734375,451.843505859375,483.5484924316406
1794,393.2616882324219,-1215.9443359375,441.8130798339844,483.3689880371094
1795,401.92706298828125,-1226.827392578125,435.552490234375,476.5735778808594
1796,397.7047119140625,-1224.336669921875,438.9595336914063,480.33966064453125
1797,399.3278198242188,-1218.738037109375,451.24884033203125,484.5545349121094
1798,399.9486389160156,-1213.2030029296875,450.3363037109375,491.0432434082031
1799,387.898681640625,-1229.0975341796875,424.179443359375,464.9985961914063
1800,389.0468444824219,-1221.9842529296875,441.1735534667969,480.04046630859375
1801,406.4560546875,-1204.73583984375,451.0394287109375,484.4385986328125
1802,392.04248046875,-1211.426513671875,443.2978210449219,482.7145080566406
1803,392.9288635253906,-1217.705810546875,441.2521057128906,473.705078125
1804,398.1422729492188,-1216.0115966796875,438.0694274902344,480.1302185058594
1805,424.45245361328125,-1202.2152099609375,458.451904296875,486.5142211914063
1806,396.7622375488281,-1219.2802734375,443.61572265625,477.2280578613281
1807,396.3209533691406,-1217.90771484375,431.0047607421875,467.9718017578125
1808,398.0824279785156,-1212.0098876953125,446.3084411621094,478.8063049316406
1809,402.8059387207031,-1209.7659912109375,445.8727416992188,474.8494873046875
1810,414.6240234375,-1221.1839599609375,444.8293151855469,482.87530517578125
1811,397.1437072753906,-1224.949951171875,438.9838562011719,479.9918518066406
1812,393.2205505371094,-1227.2088623046875,439.197021484375,480.0142822265625
1813,411.1084899902344,-1200.9398193359375,444.2832946777344,481.0240478515625
1814,396.32843017578125,-1217.2420654296875,432.3156127929688,472.2390441894531
1815,397.6822509765625,-1221.6290283203125,436.8184509277344,477.4337463378906
1816,389.8995361328125,-1205.0013427734375,436.7847900390625,485.9570007324219
1817,403.7782897949219,-1207.892333984375,438.9053039550781,470.7879638671875
1818,392.734375,-1198.1087646484375,438.7332763671875,473.6788940429688
1819,392.57354736328125,-1218.8052978515625,426.73193359375,472.1492919921875
1820,396.4406127929688,-1208.3486328125,441.1679382324219,473.7798767089844
1821,408.86456298828125,-1210.6075439453125,437.8132629394531,468.9740905761719
1822,412.96722412109375,-1219.77392578125,442.2525329589844,475.5712890625
1823,386.9562377929688,-1217.50390625,422.565673828125,461.8458557128906
1824,404.6422119140625,-1211.5125732421875,430.9430541992188,469.3144226074219
1825,409.69482421875,-1201.564453125,444.6610107421875,482.0899353027344
1826,408.0978698730469,-1212.447509765625,430.8832092285156,471.8201599121094
1827,393.3551940917969,-1217.0513916015625,426.4963073730469,471.2890930175781
1828,399.8887939453125,-1205.9063720703125,437.4878845214844,476.15472412109375
1829,400.2291259765625,-1202.9593505859375,446.7104797363281,489.29296875
1830,404.15228271484375,-1198.9427490234375,441.1754150390625,487.8232116699219
1831,388.0108947753906,-1209.264892578125,432.7494201660156,472.9757995605469
1832,395.6178283691406,-1205.41650390625,436.7174682617188,477.3851318359375
1833,407.65283203125,-1204.0364990234375,449.362060546875,500.7931823730469
1834,391.2945251464844,-1211.074951171875,448.12042236328125,492.3222961425781
1835,396.4630432128906,-1211.931396484375,437.11016845703125,481.9478149414063
1836,407.9482727050781,-1210.887939453125,442.3086242675781,483.6681823730469
1837,413.5581359863281,-1201.1754150390625,456.2883605957031,490.5495910644531
1838,413.6142272949219,-1214.4595947265625,443.1239013671875,482.1161193847656
1839,398.01885986328125,-1221.251220703125,436.5603942871094,476.48382568359375
1840,406.1905212402344,-1219.0821533203125,444.9639587402344,481.8056945800781
1841,421.9542236328125,-1208.7225341796875,454.6614990234375,486.15521240234375
1842,410.76068115234375,-1211.7481689453125,436.0143737792969,471.53594970703125
1843,395.1241760253906,-1224.018798828125,433.3029479980469,469.3518371582031
1844,402.7685241699219,-1212.9337158203125,439.4251403808594,470.5299072265625
1845,415.2186584472656,-1210.873046875,447.682861328125,478.2341003417969
1846,414.96807861328125,-1229.4976806640625,443.3258666992188,482.9650573730469
1847,399.7541809082031,-1236.24072265625,432.2781982421875,469.34808349609375
1848,396.197509765625,-1227.0218505859375,438.0526123046875,474.0155029296875
1849,413.4048156738281,-1222.376953125,441.9682922363281,478.9858093261719
1850,405.0386352539063,-1232.4111328125,442.5255432128906,475.6909790039063
1851,407.9782104492188,-1240.9530029296875,434.8736877441406,477.5422058105469
1852,395.6103515625,-1234.55029296875,430.8570556640625,476.5511474609375
1853,416.3667907714844,-1219.714111328125,446.1681823730469,490.60943603515625
1854,408.5691223144531,-1230.1708984375,443.6998596191406,484.1767883300781
1855,386.713134765625,-1237.5347900390625,434.608154296875,479.7038879394531
1856,388.8336486816406,-1221.999267578125,432.1585388183594,469.8492431640625
1857,414.1265869140625,-1220.9034423828125,440.0459899902344,477.7591247558594
1858,414.63897705078125,-1231.8575439453125,438.0077209472656,482.2208251953125
1859,406.0932922363281,-1233.1142578125,427.25177001953125,468.5103454589844
1860,405.0386352539063,-1226.816162109375,438.2433471679688,478.50335693359375
1861,421.04541015625,-1222.9117431640625,445.9176330566406,477.26171875
1862,404.7170104980469,-1234.1912841796875,437.60009765625,475.9639892578125
1863,400.40118408203125,-1242.3255615234375,442.1029357910156,480.1414489746094
1864,403.1799011230469,-1234.06787109375,443.7896118164063,486.4880676269531
1865,414.0368347167969,-1229.407958984375,448.2513122558594,489.20697021484375
1866,409.260986328125,-1241.3232421875,445.8727416992188,486.2000732421875
1867,401.31744384765625,-1241.2708740234375,439.3915100097656,480.6874694824219
1868,407.9557800292969,-1236.5362548828125,446.8974609375,479.1802978515625
1869,413.5132446289063,-1232.4185791015625,452.73919677734375,487.696044921875
1870,406.6355895996094,-1236.3043212890625,448.00823974609375,483.9224853515625
1871,401.9756774902344,-1238.5670166015625,438.680908203125,481.0801696777344
1872,408.5840759277344,-1238.8662109375,440.0721435546875,482.6546630859375
1873,406.1980285644531,-1231.3602294921875,438.77813720703125,475.6460876464844
1874,409.0328674316406,-1235.80322265625,436.4257507324219,476.0163269042969
1875,408.56536865234375,-1234.524169921875,430.9393310546875,469.19476318359375
1876,413.0457763671875,-1229.7781982421875,432.19219970703125,473.9182434082031
1877,412.2117614746094,-1228.7423095703125,443.2996826171875,479.9245300292969
1878,415.7945861816406,-1240.945556640625,439.5036926269531,477.3627014160156
1879,397.8468322753906,-1248.0626220703125,431.5040588378906,469.75201416015625
1880,396.9529724121094,-1232.657958984375,443.0154724121094,490.396240234375
1881,401.2538757324219,-1233.8958740234375,450.3643493652344,488.0139465332031
1882,399.8289794921875,-1236.0313720703125,438.6510009765625,482.92767333984375
1883,401.5418395996094,-1236.8541259765625,431.03656005859375,487.27716064453125
1884,395.2214050292969,-1231.4200439453125,430.5653381347656,481.5401611328125
1885,408.580322265625,-1227.695068359375,446.2766418457031,495.4974670410156
1886,404.1747131347656,-1233.0169677734375,435.804931640625,487.849365234375
1887,389.4731750488281,-1238.858642578125,430.2474365234375,484.5096435546875
1888,410.5213317871094,-1239.49072265625,439.7056579589844,485.26885986328125
1889,402.6862487792969,-1232.261474609375,448.96563720703125,487.15374755859375
1890,412.97845458984375,-1232.175537109375,445.147216796875,485.336181640625
1891,411.5498046875,-1241.121337890625,431.2759094238281,476.4202575683594
1892,395.3710021972656,-1237.190673828125,438.4527893066406,477.3589477539063
1893,419.6616516113281,-1226.07568359375,454.8597106933594,492.2774353027344
1894,396.3807678222656,-1233.4171142578125,440.88372802734375,476.74560546875
1895,399.6157836914063,-1240.1376953125,437.177490234375,480.2386779785156
1896,395.8235168457031,-1241.7757568359375,442.8284606933594,487.2921447753906
1897,408.5616455078125,-1231.075927734375,452.4549560546875,488.6759033203125
1898,401.4707946777344,-1234.1539306640625,447.1330871582031,483.1857299804688
1899,402.5441284179688,-1242.19091796875,444.8629760742188,487.9466247558594
1900,409.5788879394531,-1232.59814453125,447.3948669433594,489.5323486328125
1901,405.2406005859375,-1238.1817626953125,455.4244384765625,497.6329650878906
1902,402.7648010253906,-1244.7640380859375,447.0246276855469,482.8005065917969
1903,409.4779052734375,-1254.457763671875,446.4374694824219,490.3700866699219
1904,403.4080505371094,-1246.577880859375,450.887939453125,492.0006713867188
1905,410.1323852539063,-1245.5045166015625,454.38848876953125,495.17584228515625
1906,407.9595031738281,-1249.5062255859375,446.7852783203125,494.8504638671875
1907,394.2453002929688,-1246.4356689453125,436.08917236328125,482.1423034667969
1908,415.8170471191406,-1240.900634765625,435.7563171386719,474.1501159667969
1909,433.3010559082031,-1230.982421875,450.7159118652344,480.17510986328125
1910,428.1923522949219,-1252.55419921875,447.2415466308594,482.0675048828125
1911,390.7223205566406,-1242.022705078125,423.6166076660156,459.2279357910156
1912,413.8573303222656,-1247.70361328125,440.4124755859375,469.396728515625
1913,423.1472473144531,-1242.5238037109375,452.62701416015625,483.8663940429688
1914,419.87109375,-1239.27001953125,448.7337646484375,486.5890197753906
1915,398.94635009765625,-1260.4454345703125,437.52154541015625,479.7749328613281
1916,406.6393127441406,-1234.9991455078125,442.8808288574219,474.0865478515625
1917,437.0372314453125,-1243.3951416015625,467.2574768066406,503.7701416015625
1918,401.5268859863281,-1234.7523193359375,450.5513610839844,495.2057495117188
1919,397.5663146972656,-1243.8065185546875,451.03753662109375,499.738525390625
1920,401.4745178222656,-1267.17724609375,436.1415100097656,478.14434814453125
1921,416.561279296875,-1242.7257080078125,466.6029968261719,507.4501953125
1922,411.1720886230469,-1241.33447265625,455.11029052734375,493.0104370117188
1923,384.12139892578125,-1241.7421875,443.55401611328125,490.90863037109375
1924,413.9844970703125,-1227.6651611328125,443.7821350097656,475.1785888671875
1925,410.37921142578125,-1252.5242919921875,449.7472839355469,481.85430908203125
1926,450.5831604003906,-1247.4754638671875,471.4200134277344,506.7770080566406
1927,367.2656555175781,-1259.233642578125,436.74365234375,474.8457336425781
1928,445.36224365234375,-1234.3109130859375,445.5773010253906,486.3571472167969
1929,398.8677978515625,-1249.925048828125,454.7512512207031,496.5521240234375
1930,406.0633850097656,-1229.63232421875,466.3412170410156,513.119873046875
1931,406.5158996582031,-1271.4593505859375,409.4386291503906,446.7890319824219
1932,415.7833862304688,-1228.611328125,438.17230224609375,477.63946533203125
1933,406.8562316894531,-1223.8243408203125,443.4044189453125,483.8289794921875
1934,436.55853271484375,-1267.1285400390625,460.53314208984375,507.884033203125
1935,386.9637145996094,-1279.3955078125,445.0350036621094,496.7204284667969
1936,434.5464477539063,-1245.2015380859375,466.3561706542969,502.89874267578125
1937,366.46533203125,-1246.5291748046875,423.68017578125,464.6545104980469
1938,373.473876953125,-1227.609130859375,446.5646362304688,484.26654052734375
1939,445.7212829589844,-1259.7908935546875,454.8447570800781,516.1679077148439
1940,399.7541809082031,-1224.73681640625,435.7563171386719,478.12939453125
1941,394.02838134765625,-1227.321044921875,444.38427734375,485.0033264160156
1942,381.1219787597656,-1232.108154296875,422.1169128417969,460.3050231933594
1943,391.7582702636719,-1222.272216796875,435.9507751464844,482.75189208984375
1944,415.1475830078125,-1242.086181640625,440.7191467285156,476.9176635742188
1945,433.6937561035156,-1240.0853271484375,472.4671630859375,521.3251953125
1946,414.1004333496094,-1240.496826171875,428.9422302246094,460.89593505859375
1947,377.4232177734375,-1235.40673828125,422.9247131347656,466.9171447753906
1948,389.7237548828125,-1233.196533203125,456.4940490722656,498.6203002929688
1949,432.18658447265625,-1226.5281982421875,448.5205993652344,486.7348937988281
1950,411.7106323242188,-1237.774169921875,447.0096740722656,479.045654296875
1951,412.8774719238281,-1203.3895263671875,439.29052734375,477.97979736328125
1952,392.3491516113281,-1247.4530029296875,439.8739318847656,478.6417541503906
1953,412.7241516113281,-1192.1099853515625,457.7319641113281,490.48974609375
1954,398.89398193359375,-1252.92822265625,457.24951171875,497.3150634765625
1955,396.4742736816406,-1237.4674072265625,439.2007751464844,475.9751892089844
1956,414.94189453125,-1255.0113525390625,456.8194274902344,498.03314208984375
1957,409.72100830078125,-1217.761962890625,448.2214050292969,478.8474426269531
1958,424.13458251953125,-1235.863037109375,456.0003967285156,489.9474487304688
1959,404.9152221679688,-1244.3450927734375,433.24310302734375,468.9927978515625
1960,404.3766784667969,-1254.809326171875,444.971435546875,478.64923095703125
1961,407.5743103027344,-1231.71923828125,466.0345458984375,502.72296142578125
1962,410.6971130371094,-1234.8458251953125,435.44964599609375,464.6283264160156
1963,427.16015625,-1241.1773681640625,445.7156677246094,479.550537109375
1964,403.53521728515625,-1233.787353515625,446.8787841796875,480.36956787109375
1965,418.2292785644531,-1213.348876953125,461.9617919921875,502.96978759765625
1966,407.8173828125,-1248.6385498046875,444.7245788574219,480.1227416992188
1967,391.9976196289063,-1241.3756103515625,430.4755859375,469.7407836914063
1968,401.3922424316406,-1230.4962158203125,444.6497802734375,485.0294799804688
1969,417.85528564453125,-1219.287841796875,461.1913757324219,506.7508239746094
1970,392.79046630859375,-1234.2548828125,444.6535339355469,485.6727600097656
1971,404.0999450683594,-1251.5556640625,440.98468017578125,486.5628662109375
1972,406.37005615234375,-1226.1990966796875,450.1885986328125,479.550537109375
1973,417.84033203125,-1231.954833984375,457.3804016113281,483.974853515625
1974,420.8210144042969,-1231.640625,448.9207763671875,479.5168762207031
1975,401.7849426269531,-1244.3077392578125,442.589111328125,484.9621887207031
1976,406.8076171875,-1237.6395263671875,442.3086242675781,478.8063049316406
1977,418.9884643554688,-1224.03369140625,452.6120300292969,484.2590637207031
1978,409.3357849121094,-1232.953369140625,443.0752868652344,478.4435424804688
1979,386.8814392089844,-1237.4075927734375,441.6242065429688,475.5301513671875
1980,423.2108154296875,-1234.39697265625,445.0910949707031,487.3108215332031
1981,413.5431823730469,-1218.7342529296875,442.5367431640625,483.09222412109375
1982,407.7911987304688,-1234.2847900390625,437.9591064453125,472.5531921386719
1983,409.6312561035156,-1231.722900390625,438.845458984375,474.16510009765625
1984,414.6315002441406,-1221.086669921875,439.51116943359375,478.881103515625
1985,413.7750549316406,-1213.6031494140625,445.3267211914063,479.0494079589844
1986,413.2439880371094,-1224.7255859375,446.9797668457031,487.5389709472656
1987,404.63848876953125,-1237.2281494140625,432.2632446289063,472.6728515625
1988,414.8820495605469,-1235.4329833984375,438.4415588378906,480.6089477539063
1989,414.0106506347656,-1225.2342529296875,448.29620361328125,485.2501525878906
1990,413.3599243164063,-1231.636962890625,446.6693420410156,480.4032287597656
1991,400.7564697265625,-1230.3392333984375,438.9501953125,477.8189697265625
1992,417.2232360839844,-1235.0926513671875,443.1276550292969,481.2671508789063
1993,410.27825927734375,-1214.2464599609375,450.9290771484375,482.5611572265625
1994,413.0494995117188,-1227.9456787109375,437.3757019042969,481.83935546875
1995,409.2198486328125,-1231.2105712890625,438.2246398925781,484.23663330078125
1996,406.3251647949219,-1222.5601806640625,435.72265625,474.2810363769531
1997,410.693359375,-1211.0076904296875,444.4216613769531,478.9371948242188
1998,414.2350463867188,-1219.1044921875,447.5968322753906,486.1103210449219
1999,405.7267761230469,-1228.454345703125,429.1927795410156,475.6460876464844
2000,411.7480163574219,-1228.16259765625,437.5177917480469,479.3672790527344
2001,420.7088317871094,-1223.1585693359375,447.43603515625,483.1146545410156
2002,410.5811767578125,-1230.2794189453125,432.7344665527344,476.5661010742188
2003,402.1776123046875,-1231.5135498046875,435.6104431152344,479.08306884765625
2004,402.5665588378906,-1227.0667724609375,442.00567626953125,484.92852783203125
2005,426.2401428222656,-1219.429931640625,449.7809448242188,489.2555847167969
2006,406.7290649414063,-1238.3314208984375,442.4357604980469,479.3224182128906
2007,389.9631042480469,-1236.884033203125,433.1271667480469,474.5129089355469
2008,409.7359619140625,-1218.99609375,445.6371154785156,487.6736145019531
2009,416.5425720214844,-1224.370361328125,453.81256103515625,487.366943359375
2010,411.7255859375,-1234.5035400390625,447.8941650390625,487.0565185546875
2011,404.4888916015625,-1239.956298828125,438.4845581054688,477.7479248046875
2012,404.60107421875,-1224.8359375,440.5452575683594,480.0853576660156
2013,416.8006286621094,-1221.230712890625,447.2845458984375,486.60772705078125
2014,406.1045227050781,-1223.00341796875,433.3235168457031,472.7140197753906
2015,400.2403564453125,-1230.2513427734375,432.7363586425781,476.11358642578125
2016,409.4068603515625,-1225.0416259765625,441.667236328125,479.0082702636719
2017,411.98736572265625,-1222.700439453125,445.294921875,481.0352783203125
2018,412.5296630859375,-1225.2772216796875,437.0970764160156,476.7867431640625
2019,400.19921875,-1236.6502685546875,425.9970397949219,469.35931396484375
2020,411.8302917480469,-1226.0513916015625,438.57806396484375,485.3847961425781
2021,418.767822265625,-1211.843505859375,447.55755615234375,492.1315612792969
2022,405.2779846191406,-1236.3099365234375,441.6971435546875,491.2190246582031
2023,399.952392578125,-1243.711181640625,422.9415588378906,470.4551086425781
2024,422.7919616699219,-1236.8858642578125,443.48480224609375,484.3226623535156
2025,414.33978271484375,-1219.8319091796875,456.3612976074219,489.7080993652344
2026,406.50469970703125,-1231.395751953125,440.7359924316406,478.9970397949219
2027,408.9842529296875,-1227.3603515625,436.75299072265625,477.1831970214844
2028,413.8685607910156,-1228.44873046875,441.1286926269531,479.9581909179688
2029,413.8573303222656,-1220.7294921875,448.54864501953125,478.9035339355469
2030,408.3035888671875,-1226.9901123046875,438.2340087890625,474.1800537109375
2031,401.4034729003906,-1230.4644775390625,430.60833740234375,470.7393493652344
2032,411.3815002441406,-1221.0025634765625,435.387939453125,467.43701171875
2033,421.06036376953125,-1212.1988525390625,450.4410400390625,482.3330383300781
2034,414.26123046875,-1220.493896484375,442.1534118652344,476.6221923828125
2035,403.3781433105469,-1219.60009765625,439.22882080078125,477.28790283203125
2036,399.2231140136719,-1217.782470703125,441.39794921875,485.59796142578125
2037,414.9194641113281,-1204.27392578125,445.2537841796875,476.3379821777344
2038,417.922607421875,-1209.58837890625,448.9114074707031,492.71124267578125
2039,401.3398742675781,-1221.99365234375,432.5643005371094,473.0468444824219
2040,405.4425659179688,-1217.662841796875,444.7376708984375,484.80511474609375
2041,423.9961853027344,-1213.6461181640625,457.3411560058594,491.780029296875
2042,410.8916015625,-1220.6658935546875,447.17236328125,484.76397705078125
2043,410.7158203125,-1224.7349853515625,444.62548828125,483.469970703125
2044,408.8159484863281,-1220.318115234375,451.8771667480469,492.0605163574219
2045,417.01007080078125,-1209.857666015625,457.56927490234375,493.788330078125
2046,414.1827087402344,-1228.3253173828125,439.89825439453125,472.39984130859375
2047,397.9889221191406,-1224.69384765625,433.8171691894531,467.9344177246094
2048,410.90655517578125,-1218.3284912109375,437.02227783203125,469.5687561035156
2049,411.0748291015625,-1211.854736328125,434.8980102539063,470.9300842285156
2050,411.0112609863281,-1214.6185302734375,432.0257568359375,467.4482116699219
2051,402.3346862792969,-1222.8238525390625,431.0309448242188,466.7114562988281
2052,405.8165588378906,-1219.484130859375,436.8838806152344,473.7349853515625
2053,411.1870422363281,-1210.953369140625,439.1652221679688,467.7324523925781
2054,409.6200256347656,-1218.3397216796875,436.3116760253906,468.7123107910156
2055,396.35833740234375,-1223.171630859375,426.3747863769531,473.3198547363281
2056,398.1497497558594,-1216.41748046875,429.1535339355469,471.2704162597656
2057,402.6824951171875,-1213.25341796875,442.2655944824219,480.582763671875
2058,409.87432861328125,-1221.208251953125,450.59063720703125,491.40228271484375
2059,411.4450988769531,-1238.052734375,439.273681640625,489.47998046875
2060,405.8277587890625,-1224.2337646484375,441.2670593261719,476.1622009277344
2061,411.8228149414063,-1217.629150390625,449.5322265625,490.7552795410156
2062,408.3147888183594,-1227.5548095703125,443.20806884765625,479.9619445800781
2063,401.1192321777344,-1235.1468505859375,435.1710205078125,474.4268798828125
2064,420.48443603515625,-1232.783203125,445.9568786621094,480.0180358886719
2065,413.49456787109375,-1219.2672119140625,449.4013366699219,480.2087707519531
2066,414.26123046875,-1231.3209228515625,445.1640319824219,489.0910339355469
2067,396.6724853515625,-1241.515869140625,433.192626953125,474.16510009765625
2068,405.2705078125,-1229.6866455078125,437.6468200683594,470.6346130371094
2069,416.7033996582031,-1220.056396484375,444.16546630859375,474.5278625488281
2070,394.1854553222656,-1222.405029296875,437.9422912597656,476.158447265625
2071,398.1422729492188,-1220.3480224609375,431.6854248046875,474.6549987792969
2072,397.1325073242188,-1218.8895263671875,434.3706665039063,485.3922729492188
2073,408.8832702636719,-1210.564453125,441.72705078125,479.9656677246094
2074,400.1580810546875,-1222.075927734375,439.6327209472656,474.9953308105469
2075,408.5018005371094,-1224.248779296875,436.3603210449219,485.0481872558594
2076,401.76995849609375,-1222.042236328125,422.5114440917969,468.9067993164063
2077,412.828857421875,-1213.3133544921875,443.9897155761719,479.3523254394531
2078,413.3561706542969,-1220.538818359375,440.1824951171875,479.056884765625
2079,401.22393798828125,-1227.584716796875,434.2472534179688,478.4510192871094
2080,410.5849304199219,-1220.5687255859375,444.7937927246094,485.478271484375
2081,421.6662292480469,-1213.6199951171875,453.9902038574219,482.9800415039063
2082,407.559326171875,-1229.05078125,443.7316589355469,482.3479919433594
2083,392.3304748535156,-1232.0128173828125,444.6142578125,480.1788330078125
2084,411.50494384765625,-1229.1854248046875,447.90911865234375,479.97314453125
2085,408.1539916992188,-1214.401611328125,459.4205322265625,483.8065490722656
2086,412.0995788574219,-1222.853759765625,450.9533996582031,485.8597412109375
2087,397.3194885253906,-1226.8143310546875,432.8223571777344,464.72930908203125
2088,392.0611877441406,-1224.4805908203125,435.1672668457031,469.0526428222656
2089,407.9856872558594,-1216.4285888671875,440.8294982910156,471.9398498535156
2090,394.6529541015625,-1211.877197265625,438.57806396484375,472.8935241699219
2091,400.3002014160156,-1221.2830810546875,430.5859069824219,468.82452392578125
2092,410.2745056152344,-1225.35205078125,440.3246154785156,478.80255126953125
2093,410.9028015136719,-1215.56103515625,434.51654052734375,469.0937805175781
2094,403.4790954589844,-1216.54833984375,434.7371826171875,476.31927490234375
2095,404.8778381347656,-1224.18896484375,425.82501220703125,469.4453430175781
2096,411.983642578125,-1219.53271484375,429.81549072265625,473.8771057128906
2097,407.1255187988281,-1218.7960205078125,434.90924072265625,471.9996948242188
2098,407.2077941894531,-1224.5628662109375,437.9198303222656,477.1457824707031
2099,401.291259765625,-1232.3792724609375,438.099365234375,482.3367614746094
2100,400.7564697265625,-1223.6953125,440.1525573730469,480.1825866699219
2101,420.21514892578125,-1221.5411376953125,450.9571228027344,485.1117858886719
2102,406.3924865722656,-1227.0499267578125,447.3742980957031,482.9875183105469
2103,396.0367126464844,-1232.46533203125,438.768798828125,472.6092834472656
2104,406.2803039550781,-1229.0283203125,440.27972412109375,473.5891418457031
2105,398.6097717285156,-1215.762939453125,447.265869140625,476.6932678222656
2106,403.2098388671875,-1221.0399169921875,440.2984313964844,478.4921569824219
2107,399.5709228515625,-1226.597412109375,432.4595947265625,463.24456787109375
2108,409.3993835449219,-1224.95556640625,438.1442260742188,466.7226867675781
2109,409.272216796875,-1215.87890625,444.2365417480469,473.5741882324219
2110,412.2790832519531,-1219.7197265625,446.1850280761719,472.8374328613281
2111,401.560546875,-1227.6483154296875,431.8499755859375,462.92669677734375
2112,406.2952575683594,-1229.495849609375,430.2306213378906,466.6254577636719
2113,413.0943908691406,-1224.1514892578125,437.0148010253906,467.7474060058594
2114,410.1884765625,-1229.91845703125,437.6991882324219,473.30865478515625
2115,404.1971740722656,-1235.2664794921875,431.33013916015625,477.1869201660156
2116,412.06591796875,-1234.14453125,436.2593383789063,481.4578857421875
2117,423.1210632324219,-1229.5145263671875,452.13519287109375,488.35052490234375
2118,414.0368347167969,-1235.150634765625,448.42523193359375,492.6401977539063
2119,409.9192199707031,-1245.4278564453125,439.0754699707031,472.9346618652344
2120,407.3648681640625,-1235.8760986328125,438.2227783203125,476.0275573730469
2121,425.5594787597656,-1223.3848876953125,450.1380920410156,485.1267395019531
2122,409.6910705566406,-1233.93505859375,445.2313537597656,474.7784423828125
2123,401.6914367675781,-1239.2794189453125,439.37841796875,476.27813720703125
2124,400.8088073730469,-1224.0804443359375,437.171875,469.9277648925781
2125,412.96722412109375,-1221.76171875,455.3403015136719,485.3324279785156
2126,408.8869934082031,-1221.99365234375,436.5024108886719,460.899658203125
2127,399.5372619628906,-1225.8643798828125,433.3122863769531,466.52447509765625
2128,416.3481140136719,-1220.4154052734375,440.91925048828125,469.7333068847656
2129,421.95794677734375,-1215.16455078125,447.4566040039063,475.2683410644531
2130,426.2850036621094,-1245.203369140625,445.93072509765625,481.1923522949219
2131,402.62640380859375,-1240.5809326171875,432.6428527832031,470.6495666503906
2132,410.3979187011719,-1236.8709716796875,433.14398193359375,475.5226745605469
2133,419.3662109375,-1232.6748046875,440.8668823242188,476.6708068847656
2134,421.5914306640625,-1238.707275390625,438.7875061035156,477.2093505859375
2135,402.0467224121094,-1255.66015625,424.9872741699219,467.8895263671875
2136,403.7782897949219,-1238.54638671875,434.1014099121094,474.6924133300781
2137,420.2488098144531,-1236.8709716796875,449.3190612792969,485.1529235839844
2138,415.68988037109375,-1237.77978515625,449.6556396484375,483.8775939941406
2139,402.4356689453125,-1248.6329345703125,431.5321044921875,468.517822265625
2140,407.8622741699219,-1238.9278564453125,450.3849182128906,482.4153137207031
2141,403.8867492675781,-1231.066650390625,451.1142272949219,487.7259521484375
2142,398.8902587890625,-1236.927001953125,442.0449523925781,476.0126037597656
2143,396.6014404296875,-1243.8570556640625,441.1286926269531,483.4549865722656
2144,395.7861328125,-1227.6483154296875,438.5593566894531,476.3267517089844
2145,421.4717712402344,-1222.52099609375,455.7554321289063,486.0953674316406
2146,409.5414733886719,-1228.6431884765625,444.6329650878906,482.5798645019531
2147,392.4837951660156,-1237.4581298828125,433.3010559082031,465.0173034667969
2148,409.8930358886719,-1235.3974609375,432.80364990234375,466.29632568359375
2149,423.1210632324219,-1227.9400634765625,444.02337646484375,471.5733337402344
2150,418.6144714355469,-1242.3536376953125,443.5745849609375,475.40673828125
2151,424.7329711914063,-1244.8331298828125,446.6637268066406,476.9700012207031
2152,407.89593505859375,-1245.15478515625,445.2911987304688,477.82269287109375
2153,425.0807800292969,-1238.7296142578125,453.6236877441406,486.49554443359375
2154,412.4249572753906,-1236.784912109375,446.17755126953125,476.3641357421875
2155,414.5978393554688,-1254.34375,441.7906494140625,475.05517578125
2156,415.2672729492188,-1248.2926025390625,445.63525390625,484.5919189453125
2157,420.3722229003906,-1229.4173583984375,447.41546630859375,481.8580627441406
2158,401.2538757324219,-1238.8680419921875,446.35333251953125,486.31976318359375
2159,398.0263366699219,-1242.2376708984375,435.4664611816406,485.4296569824219
2160,410.2071838378906,-1242.8135986328125,440.986572265625,488.0737609863281
2161,406.6318359375,-1236.32861328125,445.7063293457031,486.1776428222656
2162,417.31298828125,-1241.75146484375,439.1315612792969,478.0583190917969
2163,378.1412963867188,-1239.167236328125,421.1725769042969,464.05987548828125
2164,398.00762939453125,-1224.6563720703125,433.5965270996094,470.33917236328125
2165,400.3002014160156,-1219.330810546875,437.089599609375,469.5949401855469
2166,400.7340087890625,-1226.728271484375,434.66986083984375,469.209716796875
2167,397.3082580566406,-1230.236328125,427.9455261230469,463.5138549804688
2168,410.5138549804688,-1219.70849609375,440.5153503417969,478.9858093261719
2169,413.3150329589844,-1224.7462158203125,452.09033203125,474.7672119140625
2170,409.02911376953125,-1218.8857421875,442.7630310058594,474.5577697753906
2171,397.8131713867188,-1234.7391357421875,438.9632873535156,481.3307189941406
2172,407.83233642578125,-1238.8419189453125,452.8981323242188,489.715576171875
2173,439.6551513671875,-1228.8787841796875,462.93603515625,492.3484802246094
2174,404.99749755859375,-1230.1092529296875,441.38671875,487.9279174804688
2175,399.8775939941406,-1238.1201171875,436.2256774902344,478.86614990234375
2176,409.1824645996094,-1235.906005859375,440.8332214355469,484.1992492675781
2177,419.00341796875,-1224.8209228515625,449.1694641113281,489.3789978027344
2178,406.1194763183594,-1238.849365234375,435.2607727050781,476.77178955078125
2179,403.77081298828125,-1238.1761474609375,431.5433044433594,482.2769165039063
2180,405.5958862304688,-1231.0628662109375,439.1128845214844,484.94720458984375
2181,423.2968444824219,-1233.4901123046875,445.7212829589844,490.9273071289063
2182,409.3395385742188,-1229.74267578125,444.356201171875,487.9503479003906
2183,390.5876770019531,-1231.4630126953125,417.4252014160156,469.7183532714844
2184,406.7328186035156,-1217.453369140625,425.9110412597656,471.4611511230469
2185,404.67962646484375,-1214.1397705078125,432.99066162109375,472.4297790527344
2186,390.456787109375,-1208.9600830078125,425.6118469238281,478.8324890136719
2187,388.9421081542969,-1218.956787109375,419.9832763671875,471.8388671875
2188,402.3608703613281,-1212.711181640625,434.8082580566406,480.9567565917969
2189,408.3185424804688,-1218.1265869140625,447.0377197265625,491.5069885253906
2190,397.8131713867188,-1215.306640625,437.34014892578125,489.0237121582031
2191,396.35833740234375,-1226.5450439453125,438.088134765625,486.5740661621094
2192,399.23431396484375,-1223.16796875,437.6618041992188,489.37152099609375
2193,412.0360107421875,-1208.451416015625,451.1142272949219,495.73681640625
2194,424.8264465332031,-1227.03125,445.1079406738281,494.6784362792969
2195,387.5209655761719,-1240.23681640625,430.2044372558594,479.48321533203125
2196,407.87347412109375,-1228.9423828125,441.6036376953125,483.9112548828125
2197,414.1191101074219,-1223.0557861328125,448.7094421386719,492.42327880859375
2198,402.80218505859375,-1231.130126953125,432.665283203125,479.2962341308594
2199,393.0859375,-1235.38623046875,421.9317626953125,479.6103820800781
2200,402.67877197265625,-1234.458740234375,426.984375,480.6500854492188
2201,408.35968017578125,-1205.0069580078125,427.8333435058594,474.2099609375
2202,408.7037353515625,-1214.85791015625,426.97314453125,469.52386474609375
2203,403.1088562011719,-1216.7091064453125,425.2528076171875,475.9041442871094
2204,401.478271484375,-1221.3653564453125,426.7599792480469,473.353515625
2205,407.9931640625,-1209.1844482421875,431.1954956054688,471.71917724609375
2206,395.5542602539063,-1217.35986328125,430.6532287597656,473.1777648925781
2207,408.8869934082031,-1238.5015869140625,427.4668273925781,475.5226745605469
2208,387.2217712402344,-1224.3609619140625,426.0867919921875,480.5752868652344
2209,406.6767272949219,-1216.5333251953125,436.6370544433594,481.05023193359375
2210,394.3088684082031,-1221.241943359375,432.0332336425781,483.2193908691406
2211,390.4997863769531,-1228.934814453125,433.3478088378906,484.4872131347656
2212,401.8616027832031,-1217.9732666015625,439.2867736816406,490.38128662109375
2213,404.9021301269531,-1211.7686767578125,452.6456909179688,493.8481750488281
2214,401.18841552734375,-1224.6414794921875,443.3221435546875,486.66009521484375
2215,401.05377197265625,-1235.6143798828125,437.6935729980469,488.2607727050781
2216,398.174072265625,-1219.944091796875,441.0333251953125,484.1655883789063
2217,412.0229187011719,-1206.0953369140625,452.0361022949219,490.0035705566406
2218,411.7611083984375,-1210.373779296875,438.1274108886719,472.4783935546875
2219,386.4569396972656,-1218.956787109375,421.8438720703125,463.6410217285156
2220,397.7477111816406,-1218.003173828125,435.0943603515625,468.5477600097656
2221,404.4084777832031,-1203.6044921875,437.9927673339844,468.6337585449219
2222,400.863037109375,-1203.918701171875,429.6004333496094,467.5641479492188
2223,388.1810607910156,-1216.3089599609375,418.5714721679688,459.5757446289063
2224,389.0524291992188,-1205.04443359375,433.104736328125,475.9527587890625
2225,402.03363037109375,-1204.82373046875,441.0183410644531,482.6546630859375
2226,380.708740234375,-1199.9356689453125,423.9906005859375,478.1480712890625
2227,391.0757141113281,-1213.9864501953125,418.58642578125,466.5693359375
2228,381.3332824707031,-1202.84912109375,428.10821533203125,485.3286743164063
2229,389.7405700683594,-1195.290771484375,437.8955383300781,485.2501525878906
2230,392.5567321777344,-1196.689453125,439.5036926269531,488.036376953125
2231,376.1161193847656,-1208.275634765625,433.5909118652344,484.655517578125
2232,394.6361083984375,-1205.882080078125,449.8445129394531,498.1827087402344
2233,392.19769287109375,-1203.2904052734375,457.2532653808594,496.8475646972656
2234,392.5268249511719,-1206.8021240234375,440.7191467285156,482.6509094238281
2235,378.9360046386719,-1207.52392578125,426.298095703125,471.0385437011719
2236,393.2149658203125,-1196.99609375,435.1055603027344,478.705322265625
2237,395.5262145996094,-1198.989501953125,442.6302490234375,470.8029174804688
2238,396.8800659179688,-1208.3131103515625,432.1772155761719,461.8047180175781
2239,384.8749694824219,-1206.5552978515625,428.0035095214844,465.2603759765625
2240,391.49835205078125,-1203.9971923828125,426.79925537109375,460.8547668457031
2241,400.0066223144531,-1197.8076171875,439.0100402832031,478.6529541015625
2242,399.12774658203125,-1214.424072265625,425.1798706054688,462.2310791015625
2243,379.3548889160156,-1218.1041259765625,413.5338134765625,462.56390380859375
2244,388.1324157714844,-1215.53857421875,427.4313049316406,471.6369018554688
2245,397.3774719238281,-1202.45263671875,434.8325500488281,478.4884033203125
2246,392.1864929199219,-1219.0166015625,435.05322265625,482.4901123046875
2247,386.7262268066406,-1224.181396484375,431.8555908203125,475.3768005371094
2248,394.1947937011719,-1218.23876953125,435.4571228027344,487.3033447265625
2249,390.1968383789063,-1221.279296875,434.6717529296875,474.72979736328125
2250,397.96087646484375,-1226.7021484375,436.4930725097656,482.41156005859375
2251,395.1372680664063,-1230.4532470703125,434.2379150390625,482.46392822265625
2252,388.4989318847656,-1223.28759765625,434.4062194824219,482.5162963867188
2253,401.5848388671875,-1208.1971435546875,440.24420166015625,483.8663940429688
2254,392.4931640625,-1209.4910888671875,434.9410095214844,481.3643798828125
2255,376.0862121582031,-1221.8702392578125,423.8634338378906,468.7945861816406
2256,387.3358154296875,-1210.0670166015625,435.73388671875,472.35870361328125
2257,403.937255859375,-1202.9051513671875,445.8615112304688,473.6190490722656
2258,397.2540283203125,-1218.025634765625,435.7675476074219,471.7902526855469
2259,397.6504821777344,-1219.37939453125,437.31585693359375,473.798583984375
2260,407.4415283203125,-1221.4027099609375,437.45050048828125,470.7019348144531
2261,408.6308288574219,-1215.5460205078125,447.0171508789063,481.78326416015625
2262,407.6995849609375,-1216.8587646484375,440.9772033691406,483.9598693847656
2263,399.8981628417969,-1234.425048828125,436.8932495117188,484.8125915527344
2264,407.6060791015625,-1233.3255615234375,440.1843566894531,483.1109313964844
2265,410.698974609375,-1215.5010986328125,459.64306640625,497.543212890625
2266,420.5162353515625,-1240.08349609375,444.7881774902344,494.7046203613281
2267,407.83795166015625,-1241.373779296875,439.2044982910156,488.5450134277344
2268,408.3802490234375,-1232.7384033203125,445.8278503417969,489.3229064941406
2269,426.1148376464844,-1242.2900390625,454.807373046875,494.2184143066406
2270,414.0125427246094,-1244.4105224609375,442.4918823242188,474.4381103515625
2271,407.4190979003906,-1239.892822265625,431.82940673828125,473.10296630859375
2272,400.4292297363281,-1237.2935791015625,434.8849182128906,473.1216430664063
2273,406.1737060546875,-1219.68603515625,436.8072204589844,466.9283752441406
2274,401.8354187011719,-1231.317138671875,428.8599243164063,455.1963195800781
2275,399.9018859863281,-1228.2130126953125,426.2681884765625,458.8277587890625
2276,398.99310302734375,-1232.8018798828125,428.5757141113281,463.0762939453125
2277,411.1141052246094,-1228.871337890625,435.95452880859375,460.6715393066406
2278,413.2383728027344,-1227.2967529296875,432.90277099609375,454.8036193847656
2279,396.5322570800781,-1227.0350341796875,430.1988220214844,468.29345703125
2280,404.6590576171875,-1231.7996826171875,434.64556884765625,469.34808349609375
2281,411.484375,-1225.1463623046875,451.6209716796875,485.078125
2282,404.21026611328125,-1237.4581298828125,439.2007751464844,486.5366821289063
2283,409.5882263183594,-1244.118896484375,441.50079345703125,490.1793518066406
2284,405.8819885253906,-1244.5975341796875,447.5669250488281,490.5907287597656
2285,409.46856689453125,-1226.840576171875,450.6448669433594,495.2207336425781
2286,408.6495056152344,-1234.578369140625,457.9339294433594,493.4367980957031
2287,407.1947021484375,-1253.461181640625,452.45123291015625,491.2003173828125
2288,424.783447265625,-1249.6912841796875,466.19537353515625,498.78857421875
2289,413.2533264160156,-1242.30126953125,456.06396484375,487.9653015136719
2290,408.95245361328125,-1239.552490234375,451.3180236816406,483.5260620117188
2291,403.6417846679688,-1249.6651611328125,441.1529846191406,477.1869201660156
2292,405.36962890625,-1241.844970703125,437.9665832519531,472.9945068359375
2293,411.0580139160156,-1236.324951171875,439.5672607421875,471.0684509277344
2294,403.9447326660156,-1236.92333984375,439.4176635742188,471.8837585449219
2295,398.2974853515625,-1252.982421875,426.8329162597656,455.9854431152344
2296,397.84869384765625,-1237.2037353515625,432.68585205078125,465.3651123046875
2297,413.6011352539063,-1236.291259765625,444.7358093261719,474.9355163574219
2298,409.4386291503906,-1245.8055419921875,441.6952819824219,474.14263916015625
2299,400.6461181640625,-1251.96142578125,437.9479064941406,474.2997131347656
2300,400.7658081054688,-1242.0133056640625,437.671142578125,474.6849365234375
2301,414.113525390625,-1238.883056640625,459.4336242675781,488.5337829589844
2302,405.4930419921875,-1244.5003662109375,447.0395812988281,482.7818298339844
2303,390.8550720214844,-1248.3074951171875,441.6952819824219,480.4743041992188
2304,407.8977966308594,-1254.037109375,451.8715515136719,491.87725830078125
2305,410.9271240234375,-1236.9532470703125,456.59503173828125,489.0274353027344
2306,412.1612854003906,-1240.4912109375,453.2777404785156,480.0217590332031
2307,411.14404296875,-1253.6593017578125,437.5477294921875,481.1325073242188
2308,406.65240478515625,-1243.1876220703125,442.3235778808594,479.2625732421875
2309,401.719482421875,-1232.3045654296875,451.6808166503906,484.3974609375
2310,402.1869812011719,-1248.0570068359375,444.5600280761719,479.737548828125
2311,395.4065246582031,-1250.188720703125,433.8601989746094,465.3314514160156
2312,390.46612548828125,-1247.828857421875,434.8736877441406,460.1180114746094
2313,409.19927978515625,-1232.7607421875,448.6627197265625,474.57647705078125
2314,407.2171325683594,-1249.30615234375,443.5016479492188,476.3005676269531
2315,410.7027282714844,-1254.1268310546875,431.380615234375,467.3509826660156
2316,411.14404296875,-1257.03271484375,433.8901062011719,467.5529479980469
2317,408.2007446289063,-1240.977294921875,454.59417724609375,488.72076416015625
2318,413.1598510742188,-1255.293701171875,447.8062744140625,478.7539367675781
2319,401.9438781738281,-1259.7628173828125,446.1382751464844,483.5709228515625
2320,414.9437561035156,-1250.77587890625,450.0614318847656,482.6733703613281
2321,409.8126220703125,-1238.4791259765625,458.30792236328125,487.2285461425781
2322,401.4165649414063,-1259.224365234375,446.5047912597656,477.9835205078125
2323,404.89093017578125,-1257.50390625,437.4729309082031,471.6930236816406
2324,411.7872924804688,-1250.8656005859375,442.5030822753906,480.4406433105469
2325,412.19866943359375,-1248.2626953125,460.2788391113281,487.1500244140625
2326,411.8995056152344,-1254.5718994140625,444.9901123046875,468.3981628417969
2327,407.2695007324219,-1266.6741943359375,439.2306823730469,469.31817626953125
2328,414.3678283691406,-1258.2369384765625,449.702392578125,476.0200805664063
2329,416.8586120605469,-1247.8214111328125,448.939453125,470.6832275390625
2330,410.78125,-1245.8616943359375,439.8365478515625,467.42578125
2331,402.4412841796875,-1263.0390625,434.0658874511719,473.93695068359375
2332,416.7725830078125,-1251.396728515625,445.1808471679688,474.3221740722656
2333,426.660888671875,-1243.4569091796875,453.9172668457031,480.9717102050781
2334,434.0247497558594,-1248.8424072265625,460.32745361328125,490.4710388183594
2335,409.2067565917969,-1255.129150390625,439.7654724121094,468.4991455078125
2336,417.4869079589844,-1233.721923828125,444.5974426269531,474.6886596679688
2337,431.89300537109375,-1256.1090087890625,451.3292541503906,480.3022766113281
2338,419.4914855957031,-1252.99365234375,449.9567260742188,484.90606689453125
2339,400.17864990234375,-1254.6317138671875,448.66644287109375,485.42218017578125
2340,429.79864501953125,-1255.0057373046875,451.7855224609375,489.1059875488281
2341,419.78692626953125,-1250.2037353515625,454.9008483886719,495.9200744628906
2342,425.123779296875,-1257.3094482421875,449.0105285644531,493.96038818359375
2343,396.2330627441406,-1262.0704345703125,445.3080139160156,480.5341491699219
2344,414.3416442871094,-1255.4058837890625,447.6978149414063,486.28985595703125
2345,424.876953125,-1243.4306640625,455.5216979980469,488.1036987304688
2346,411.390869140625,-1253.7080078125,444.8442687988281,485.2090148925781
2347,403.4435729980469,-1260.05078125,439.46630859375,475.9976501464844
2348,417.30364990234375,-1241.5421142578125,454.9906311035156,487.4155578613281
2349,415.40753173828125,-1249.556640625,453.81256103515625,479.5393371582031
2350,417.4644775390625,-1263.394287109375,448.6851501464844,479.9095764160156
2351,406.1662292480469,-1258.9400634765625,448.5916442871094,480.7398376464844
2352,424.5964660644531,-1266.0421142578125,446.8862609863281,476.5698547363281
2353,428.9683837890625,-1258.6558837890625,455.8844604492188,481.8468322753906
2354,415.0821533203125,-1261.40087890625,448.2326049804688,480.8744812011719
2355,402.0822448730469,-1267.5194091796875,437.9628601074219,475.9490051269531
2356,416.45843505859375,-1259.60205078125,444.9265441894531,481.3382263183594
2357,423.5679931640625,-1255.1927490234375,455.1551818847656,494.5437927246094
2358,414.85400390625,-1264.778076171875,447.3986206054688,487.5614013671875
2359,415.1681518554688,-1270.6796875,448.0718078613281,492.3447265625
2360,423.3099365234375,-1270.836669921875,451.920166015625,487.4566955566406
2361,426.8179626464844,-1267.171630859375,451.9575500488281,480.2648620605469
2362,406.3644409179688,-1266.56201171875,451.4302368164063,482.4190368652344
2363,405.0255432128906,-1267.7662353515625,437.60009765625,472.8224487304688
2364,402.7180480957031,-1268.25244140625,440.0459899902344,474.99908447265625
2365,411.9181823730469,-1257.36181640625,439.9412536621094,470.0362243652344
2366,412.1238708496094,-1261.49072265625,442.7050476074219,470.7056884765625
2367,414.1060180664063,-1265.68310546875,433.2393493652344,465.3688354492188
2368,413.245849609375,-1256.845703125,433.2804870605469,467.0480651855469
2369,417.658935546875,-1245.554931640625,449.68743896484375,475.3468933105469
2370,409.8014221191406,-1266.7452392578125,446.0634765625,473.26751708984375
2371,416.2340393066406,-1264.03759765625,445.49127197265625,475.2384338378906
2372,419.031494140625,-1264.647216796875,452.2193603515625,480.26861572265625
2373,427.5958557128906,-1258.4090576171875,464.5722351074219,493.2647399902344
2374,414.1322021484375,-1269.3258056640625,448.51312255859375,478.6305236816406
2375,412.8307189941406,-1278.619384765625,437.8132629394531,476.0275573730469
2376,418.0852966308594,-1272.680419921875,444.86669921875,481.27838134765625
2377,414.52490234375,-1272.43359375,449.0591430664063,483.9224853515625
2378,397.6242980957031,-1272.8525390625,441.239013671875,470.241943359375
2379,413.5749816894531,-1277.6246337890625,427.2817077636719,466.8199157714844
2380,410.2352294921875,-1270.144775390625,434.4996948242188,471.7378845214844
2381,428.03717041015625,-1262.0628662109375,444.7545166015625,474.1575927734375
2382,403.3575744628906,-1259.4599609375,439.1484069824219,472.7364501953125
2383,409.1544189453125,-1273.4322509765625,430.3371887207031,465.66802978515625
2384,411.4132995605469,-1262.8033447265625,437.8020324707031,461.8234252929688
2385,414.9063720703125,-1251.6959228515625,443.3931884765625,466.3262634277344
2386,411.2861328125,-1259.4337158203125,441.4447021484375,467.94561767578125
2387,399.9579772949219,-1262.4256591796875,436.3696594238281,468.4879150390625
2388,413.586181640625,-1262.08154296875,451.9986877441406,482.69580078125
2389,429.5929565429688,-1248.3187255859375,454.115478515625,479.7562255859375
2390,409.32269287109375,-1261.561767578125,439.0736083984375,472.5419616699219
2391,409.7453002929688,-1267.5380859375,435.5319213867188,474.6774597167969
2392,414.8951416015625,-1270.7843017578125,444.7881774902344,480.6612854003906
2393,428.4298400878906,-1264.97998046875,452.7728576660156,486.1290283203125
2394,425.9054260253906,-1271.3228759765625,451.5274658203125,487.2472534179688
2395,421.71673583984375,-1273.5107421875,446.6431579589844,488.5337829589844
2396,418.1451110839844,-1268.4805908203125,448.7936096191406,490.5346374511719
2397,423.5081481933594,-1257.0140380859375,458.0648193359375,491.1030883789063
2398,416.1368103027344,-1262.5677490234375,450.9028930664063,485.3473815917969
2399,406.5364685058594,-1273.47705078125,438.0451354980469,473.01318359375
2400,418.3171691894531,-1263.790771484375,448.4121398925781,475.93780517578125
2401,408.8402404785156,-1257.01025390625,451.2918701171875,478.8063049316406
2402,437.330810546875,-1259.5159912109375,455.0280151367188,487.531494140625
2403,408.0810546875,-1269.0789794921875,440.1880798339844,469.32940673828125
2404,419.3418884277344,-1263.11376953125,442.7611389160156,474.0528869628906
2405,425.1312561035156,-1257.698486328125,453.2777404785156,470.9412841796875
2406,424.3384094238281,-1268.641357421875,442.4918823242188,472.1118774414063
2407,419.6036987304688,-1265.4400634765625,436.84088134765625,473.9556579589844
2408,423.257568359375,-1276.962646484375,439.5523071289063,480.395751953125
2409,416.6678771972656,-1272.867431640625,443.4978942871094,474.0079956054688
2410,423.8372497558594,-1264.8677978515625,444.86669921875,480.4855041503906
2411,416.8810424804688,-1281.4542236328125,441.34747314453125,484.9434814453125
2412,420.8397216796875,-1269.4398193359375,447.0620422363281,482.96881103515625
2413,431.7116088867188,-1264.2376708984375,456.0415344238281,490.5308837890625
2414,421.468017578125,-1260.0264892578125,450.0689086914063,492.02685546875
2415,422.14495849609375,-1283.471923828125,442.3834228515625,481.2858581542969
2416,423.9326171875,-1270.88720703125,454.21270751953125,483.9860534667969
2417,434.860595703125,-1261.9488525390625,459.0372009277344,487.1387939453125
2418,420.2338562011719,-1270.3524169921875,446.1756896972656,475.73583984375
2419,414.8633728027344,-1277.4432373046875,441.93463134765625,468.63751220703125
2420,414.3023681640625,-1267.88037109375,443.9990539550781,476.2706604003906
2421,420.4657287597656,-1254.6373291015625,449.0030517578125,475.0776062011719
2422,414.9381713867188,-1254.1585693359375,445.23321533203125,474.3071899414063
2423,404.4963684082031,-1259.83203125,430.2100524902344,466.43096923828125
2424,409.9491271972656,-1250.803955078125,447.0246276855469,479.9469604492188
2425,421.643798828125,-1244.7939453125,450.2858276367188,478.0845031738281
2426,411.2580871582031,-1267.708251953125,445.8764953613281,492.4980773925781
2427,406.65802001953125,-1267.083740234375,438.3031921386719,474.72979736328125
2428,422.2384338378906,-1258.119140625,451.2768859863281,490.8076477050781
2429,426.5318603515625,-1249.386474609375,457.2196044921875,497.531982421875
2430,419.3175964355469,-1267.3717041015625,454.0930480957031,493.93792724609375
2431,416.0937805175781,-1268.7554931640625,451.01885986328125,492.4270324707031
2432,419.5644226074219,-1259.99658203125,449.12646484375,494.4353332519531
2433,427.2611389160156,-1262.143310546875,454.04815673828125,493.3507690429688
2434,423.0574951171875,-1263.437255859375,449.5154113769531,479.3486022949219
2435,414.9830322265625,-1261.615966796875,439.3765258789063,474.8756713867188
2436,410.6559753417969,-1255.9912109375,441.7738037109375,469.04888916015625
2437,431.995849609375,-1245.11181640625,451.6134948730469,482.7593688964844
2438,423.356689453125,-1247.8531494140625,448.5205993652344,485.75128173828125
2439,404.765625,-1254.3194580078125,432.5923461914063,472.8149719238281
2440,408.68505859375,-1240.979248046875,429.9557189941406,470.2830810546875
2441,417.9637451171875,-1226.3973388671875,448.6103515625,482.1273193359375
2442,411.7629699707031,-1245.37353515625,445.1060485839844,486.11407470703125
2443,408.4643859863281,-1251.331298828125,439.89263916015625,470.406494140625
2444,405.880126953125,-1243.5185546875,444.5824890136719,481.592529296875
2445,432.6690368652344,-1237.3291015625,454.1304321289063,489.8427429199219
2446,419.24652099609375,-1256.451171875,454.5867004394531,485.818603515625
2447,400.20294189453125,-1259.080322265625,448.4046630859375,485.489501953125
2448,410.37548828125,-1255.310546875,448.2924499511719,487.45294189453125
2449,426.1429138183594,-1240.713623046875,455.6488342285156,487.6324768066406
2450,417.735595703125,-1243.2568359375,445.2257385253906,484.22540283203125
2451,415.67864990234375,-1253.5302734375,433.2505798339844,481.3756103515625
2452,413.3636474609375,-1243.787841796875,447.9222106933594,484.0758056640625
2453,414.1452941894531,-1236.3978271484375,440.887451171875,476.09112548828125
2454,414.3323059082031,-1241.6934814453125,439.3690490722656,478.0022277832031
2455,402.0242919921875,-1235.38427734375,428.3438415527344,468.62628173828125
2456,409.4517211914063,-1248.518798828125,435.1766357421875,475.5937194824219
2457,426.5804748535156,-1225.2716064453125,448.21392822265625,478.16302490234375
2458,393.4748840332031,-1231.3377685546875,437.0428466796875,475.2945251464844
2459,391.7096557617188,-1237.071044921875,431.3320007324219,473.9780883789063
2460,406.2952575683594,-1234.3072509765625,433.4824523925781,474.26605224609375
2461,416.561279296875,-1227.07421875,441.5307312011719,485.9308166503906
2462,394.7987976074219,-1236.4202880859375,430.0791320800781,477.4187927246094
2463,396.2162170410156,-1239.88720703125,425.8568115234375,476.8989562988281
2464,404.3953857421875,-1231.32275390625,429.207763671875,486.9256286621094
2465,421.8831481933594,-1227.9306640625,442.5143127441406,475.8106384277344
2466,395.7262878417969,-1237.0897216796875,435.8498229980469,479.7936401367188
2467,397.5625915527344,-1235.193603515625,434.2752990722656,475.1972961425781
2468,408.4793395996094,-1227.7923583984375,443.97662353515625,487.8680725097656
2469,429.99127197265625,-1233.372314453125,444.4740295410156,482.3629455566406
2470,421.78216552734375,-1243.7318115234375,436.5155029296875,471.5509033203125
2471,398.9687805175781,-1238.43603515625,427.3639831542969,468.375732421875
2472,404.94140625,-1230.604736328125,424.8993835449219,466.3599243164063
2473,420.6826477050781,-1222.4891357421875,439.03619384765625,475.9714660644531
2474,406.6243591308594,-1224.7518310546875,432.6559448242188,467.8932800292969
2475,409.6798706054688,-1233.880859375,426.63470458984375,474.8569641113281
2476,405.2892150878906,-1232.2764892578125,432.23333740234375,470.0698852539063
2477,401.0182495117188,-1209.3284912109375,433.2730102539063,468.0466003417969
2478,400.4722290039063,-1224.4151611328125,423.5904235839844,474.2024841308594
2479,407.6229248046875,-1227.8521728515625,434.9148254394531,482.53497314453125
2480,408.0268249511719,-1227.7586669921875,432.7718811035156,478.2191467285156
2481,406.5084228515625,-1217.1822509765625,444.8966369628906,486.34967041015625
2482,407.7687683105469,-1233.248779296875,441.38861083984375,485.84478759765625
2483,404.5487060546875,-1237.4898681640625,431.3544616699219,476.1958618164063
2484,414.508056640625,-1235.993896484375,440.4985046386719,474.9766540527344
2485,429.624755859375,-1226.6553955078125,446.17193603515625,485.8111267089844
2486,405.86517333984375,-1230.6085205078125,434.3650817871094,471.4386901855469
2487,402.0729064941406,-1240.560302734375,428.2204284667969,471.9136657714844
2488,412.6044616699219,-1242.0526123046875,435.124267578125,473.7349853515625
2489,419.4821472167969,-1231.7716064453125,445.7717590332031,479.0980224609375
2490,423.2968444824219,-1235.1749267578125,434.0509338378906,466.34869384765625
2491,401.478271484375,-1236.764404296875,422.5170593261719,461.7934875488281
2492,411.50494384765625,-1231.8575439453125,430.83087158203125,466.76007080078125
2493,416.04144287109375,-1226.004638671875,434.8624877929688,472.8000183105469
2494,412.982177734375,-1232.942138671875,435.2776184082031,482.6434326171875
2495,409.3619689941406,-1230.208251953125,427.5846252441406,477.1831970214844
2496,400.4161376953125,-1231.861328125,435.98443603515625,476.7530822753906
2497,415.47296142578125,-1223.55126953125,445.8241271972656,485.0481872558594
2498,416.66973876953125,-1234.0155029296875,440.1282653808594,476.7194519042969
2499,405.5697021484375,-1241.4578857421875,442.0094299316406,484.1917724609375
2500,416.0227355957031,-1245.2464599609375,441.8710632324219,477.7142639160156
2501,429.1310729980469,-1230.825439453125,449.1077575683594,478.88482666015625
2502,419.9197082519531,-1246.1552734375,441.3212890625,480.26861572265625
2503,410.7532043457031,-1248.466552734375,436.8894958496094,478.2191467285156
2504,419.62799072265625,-1244.19921875,437.3121032714844,476.2295227050781
2505,422.8218688964844,-1235.346923828125,447.0433349609375,480.0816040039063
2506,409.2422790527344,-1238.8736572265625,438.4677429199219,476.0425109863281
2507,413.58056640625,-1244.479736328125,434.0509338378906,470.3316955566406
2508,413.4010620117188,-1230.4813232421875,445.6221618652344,484.8237915039063
2509,417.1447143554688,-1226.943359375,440.6817626953125,479.9132995605469
2510,401.56427001953125,-1237.9461669921875,436.7660827636719,481.9852294921875
2511,395.7337646484375,-1238.5108642578125,431.238525390625,479.45703125
2512,404.4290466308594,-1235.2010498046875,441.67657470703125,488.9152526855469
2513,422.4927673339844,-1223.5438232421875,446.5534057617188,489.53607177734375
2514,404.7057800292969,-1234.759765625,437.0129089355469,483.2754821777344
2515,400.69287109375,-1242.400390625,436.5229797363281,492.3260498046875
2516,402.5927429199219,-1237.9835205078125,429.2264404296875,475.3207092285156
2517,421.8644409179688,-1223.9439697265625,452.69805908203125,491.8697814941406
2518,418.22552490234375,-1230.4364013671875,447.4883728027344,489.9923400878906
2519,413.9508361816406,-1254.0726318359375,437.5701599121094,478.3425598144531
2520,415.5365295410156,-1253.986572265625,438.0339050292969,477.3926086425781
2521,419.2427978515625,-1234.74853515625,449.3246765136719,488.3954162597656
2522,412.1818542480469,-1241.9703369140625,437.5626831054688,474.6549987792969
2523,401.4446105957031,-1245.5755615234375,434.0808410644531,478.0545959472656
2524,403.8979797363281,-1231.0423583984375,429.96319580078125,475.148681640625
2525,417.1671447753906,-1235.2646484375,438.1274108886719,481.7383728027344
2526,401.16412353515625,-1228.596435546875,434.8886413574219,471.5995178222656
2527,400.09075927734375,-1239.748779296875,426.2794189453125,471.2853698730469
2528,399.9635925292969,-1230.4588623046875,435.3449096679688,478.7950744628906
2529,417.9861755371094,-1210.1063232421875,446.3551940917969,483.6270446777344
2530,417.51495361328125,-1236.9251708984375,435.5281677246094,484.6405334472656
2531,396.4219055175781,-1238.3314208984375,436.2724304199219,484.820068359375
2532,418.5022888183594,-1239.034423828125,442.3759460449219,481.8019714355469
2533,408.4082946777344,-1231.0198974609375,446.5421752929688,494.38671875
2534,416.396728515625,-1241.5177001953125,436.8633117675781,483.76165771484375
2535,405.33782958984375,-1241.779541015625,428.3700256347656,487.2135925292969
2536,420.5218200683594,-1247.26220703125,439.79913330078125,488.0999450683594
2537,421.2623291015625,-1231.8426513671875,439.0474243164063,475.5488586425781
2538,419.6354675292969,-1246.58154296875,432.2707214355469,479.4906921386719
2539,412.92236328125,-1249.5997314453125,428.8374938964844,472.71026611328125
2540,421.6662292480469,-1233.821044921875,429.8435363769531,475.993896484375
2541,421.72607421875,-1245.665283203125,429.2451477050781,467.0555419921875
2542,419.7439270019531,-1241.5140380859375,430.16143798828125,466.9620361328125
2543,405.3976745605469,-1253.05908203125,426.6945495605469,468.82452392578125
2544,412.77276611328125,-1234.7447509765625,446.81146240234375,482.96881103515625
2545,418.94732666015625,-1225.555908203125,443.2062072753906,477.7142639160156
2546,417.1820983886719,-1240.9530029296875,446.05224609375,479.2962341308594
2547,398.8565979003906,-1241.5439453125,439.17083740234375,477.62823486328125
2548,410.6896362304688,-1238.2303466796875,442.6190185546875,480.33966064453125
2549,420.1777648925781,-1239.4346923828125,455.4543762207031,496.8587951660156
2550,401.5829772949219,-1242.2545166015625,448.83099365234375,489.99609375
2551,409.9940185546875,-1256.2940673828125,436.0255737304688,488.51507568359375
2552,418.9847412109375,-1253.3021240234375,444.3319091796875,487.3706665039063
2553,408.9617919921875,-1245.040771484375,447.2340698242188,488.0887451171875
2554,416.7744445800781,-1247.4754638671875,440.6144409179688,485.841064453125
2555,403.3519592285156,-1255.819091796875,433.3814697265625,478.1555480957031
2556,420.8771362304688,-1238.3089599609375,440.5695495605469,480.3209533691406
2557,424.15325927734375,-1235.4703369140625,444.6797180175781,483.8476867675781
2558,422.5750427246094,-1243.941162109375,445.6932373046875,486.9069213867188
2559,407.85479736328125,-1243.189453125,433.7816467285156,470.8814392089844
2560,410.973876953125,-1245.0594482421875,435.4272155761719,478.1032104492188
2561,411.38525390625,-1232.6429443359375,439.4027099609375,477.5609130859375
2562,409.3021240234375,-1234.3446044921875,429.4882507324219,473.8546752929688
2563,396.0815734863281,-1234.8233642578125,423.8335266113281,469.81182861328125
2564,403.168701171875,-1236.2108154296875,427.80902099609375,477.79278564453125
2565,414.7511596679688,-1237.1495361328125,436.56787109375,480.8221130371094
2566,415.71978759765625,-1242.2021484375,438.1124572753906,486.5329284667969
2567,407.1404724121094,-1254.899169921875,432.4090881347656,476.3566589355469
2568,408.23626708984375,-1240.6912841796875,441.25396728515625,481.40179443359375
2569,418.943603515625,-1230.3653564453125,443.939208984375,487.4417419433594
2570,406.4523315429688,-1248.82177734375,438.2321166992188,481.7944946289063
2571,403.580078125,-1256.544677734375,434.1893005371094,477.355224609375
2572,408.4681396484375,-1246.3533935546875,437.5851135253906,478.7688903808594
2573,423.68951416015625,-1239.5206298828125,453.1767578125,485.5381164550781
2574,439.3410034179688,-1256.391357421875,439.7206115722656,484.22540283203125
2575,414.2462768554688,-1260.5426025390625,435.53564453125,477.0223693847656
2576,416.2284240722656,-1251.308837890625,441.1978759765625,476.1247863769531
2577,439.801025390625,-1246.5740966796875,441.9944763183594,479.3897399902344
2578,408.2886047363281,-1253.6051025390625,437.6075744628906,474.3483276367188
2579,402.9068908691406,-1257.14306640625,433.0037536621094,472.1380615234375
2580,422.5600891113281,-1247.63623046875,449.8258056640625,497.9957275390625
2581,410.4989013671875,-1238.83251953125,444.63482666015625,477.9049987792969
2582,415.70111083984375,-1250.2579345703125,447.9708251953125,493.6312561035156
2583,402.6563415527344,-1256.664306640625,438.6285705566406,485.7138977050781
2584,414.68011474609375,-1247.565185546875,441.063232421875,480.3097534179688
2585,415.44677734375,-1242.7108154296875,449.2723083496094,486.5628662109375
2586,414.2238464355469,-1248.9190673828125,443.6849060058594,486.7648010253906
2587,411.9911193847656,-1253.9827880859375,437.87310791015625,476.9550476074219
2588,407.0955810546875,-1256.095947265625,440.7565612792969,477.9199523925781
2589,426.2738037109375,-1249.3154296875,452.4175720214844,487.5127868652344
2590,422.2234802246094,-1255.994873046875,448.5205993652344,487.5651550292969
2591,418.1021118164063,-1257.3150634765625,437.6786193847656,475.3394165039063
2592,426.150390625,-1253.05908203125,438.2994384765625,477.1308288574219
2593,423.685791015625,-1242.93896484375,450.1287536621094,485.324951171875
2594,415.8469543457031,-1253.8856201171875,445.0611877441406,484.28900146484375
2595,408.06048583984375,-1252.4793701171875,433.949951171875,478.376220703125
2596,415.7310180664063,-1248.1710205078125,430.3596496582031,472.5494384765625
2597,421.6961669921875,-1238.2266845703125,442.2973937988281,475.5151977539063
2598,413.9807434082031,-1246.9818115234375,428.9122924804688,471.7079772949219
2599,405.0872497558594,-1255.2357177734375,426.0475463867188,470.39154052734375
2600,421.3707885742188,-1248.5823974609375,434.6492919921875,476.5249633789063
2601,426.068115234375,-1241.757080078125,440.2666320800781,484.23663330078125
2602,423.6932678222656,-1249.03125,442.5143127441406,480.9342956542969
2603,405.0423889160156,-1252.763671875,437.2373046875,480.4892578125
2604,421.5241088867188,-1244.1580810546875,445.1696472167969,481.8580627441406
2605,421.7223510742188,-1227.1976318359375,449.5677490234375,486.6563415527344
2606,431.7190856933594,-1259.38330078125,446.8077087402344,486.0504760742188
2607,409.4031066894531,-1264.8697509765625,438.7482299804688,474.5839538574219
2608,412.817626953125,-1254.7681884765625,444.4627990722656,478.3238525390625
2609,425.7838745117188,-1235.346923828125,456.0265808105469,486.3683776855469
2610,422.7882080078125,-1247.037841796875,446.2729187011719,479.5954284667969
2611,409.02911376953125,-1264.76123046875,436.3733825683594,475.6872253417969
2612,412.1294860839844,-1248.290771484375,441.36614990234375,476.3267517089844
2613,418.2311401367188,-1237.16455078125,447.4734191894531,477.7666015625
2614,423.0331726074219,-1248.71337890625,446.3364868164063,480.1713562011719
2615,412.8868103027344,-1248.373046875,435.10931396484375,475.91534423828125
2616,420.4414367675781,-1247.5577392578125,442.2562561035156,486.7049560546875
2617,423.9569396972656,-1236.532470703125,449.80712890625,486.6264343261719
2618,432.33056640625,-1238.3238525390625,442.8770751953125,484.3002014160156
2619,411.4058227539063,-1255.837890625,436.0405578613281,478.8885803222656
2620,417.80853271484375,-1251.518310546875,440.8388366699219,482.6583862304688
2621,429.0394592285156,-1242.8416748046875,449.90435791015625,494.0501403808594
2622,412.5539855957031,-1252.59912109375,445.1509399414063,488.2345886230469
2623,406.24102783203125,-1262.461181640625,435.53564453125,485.9570007324219
2624,415.5084838867188,-1257.3973388671875,448.0157165527344,486.02056884765625
2625,421.69427490234375,-1253.3994140625,452.5185546875,490.3663330078125
2626,418.6275634765625,-1253.2685546875,445.8241271972656,480.6463317871094
2627,416.6192321777344,-1260.9091796875,443.1800231933594,479.3448486328125
2628,424.5889587402344,-1250.044677734375,449.63507080078125,476.6259460449219
2629,428.5083923339844,-1243.7354736328125,456.9017028808594,487.15374755859375
2630,422.9321899414063,-1252.88330078125,453.0757751464844,475.7470703125
2631,413.7956237792969,-1251.649169921875,439.4849853515625,471.4648742675781
2632,428.5794372558594,-1250.68798828125,443.6026306152344,471.2292785644531
2633,421.802734375,-1239.3935546875,447.4023742675781,478.2864685058594
2634,412.5352783203125,-1252.7823486328125,441.908447265625,481.7982177734375
2635,411.2337951660156,-1254.9290771484375,433.5572509765625,478.4397888183594
2636,414.5174255371094,-1245.9420166015625,439.3391418457031,480.6201477050781
2637,415.4037780761719,-1232.459716796875,444.2571105957031,480.219970703125
2638,430.52044677734375,-1248.1710205078125,443.105224609375,484.1767883300781
2639,397.2091674804688,-1258.6689453125,437.8843078613281,487.2135925292969
2640,414.1808166503906,-1248.376708984375,449.7622375488281,499.9816284179688
2641,438.4752197265625,-1251.230224609375,452.2904052734375,493.0964660644531
2642,415.9385986328125,-1254.3306884765625,443.3109130859375,483.1371154785156
2643,420.2880859375,-1259.86572265625,436.837158203125,479.48321533203125
2644,411.88079833984375,-1252.9730224609375,442.69757080078125,478.8773498535156
2645,425.1761474609375,-1244.139404296875,451.063720703125,484.95843505859375
2646,420.5124816894531,-1240.463134765625,449.2349243164063,486.8283996582031
2647,416.9820251464844,-1256.9747314453125,435.1766357421875,469.0863037109375
2648,416.6790771484375,-1251.308837890625,436.93438720703125,472.85986328125
2649,429.0768432617188,-1248.01025390625,449.53411865234375,479.7525024414063
2650,431.5638732910156,-1248.0438232421875,436.07421875,471.8874816894531
2651,404.5580749511719,-1252.4569091796875,429.7687377929688,474.72979736328125
2652,417.3335571289063,-1245.137939453125,441.4596557617188,484.3525695800781
2653,421.9373779296875,-1245.7999267578125,444.0514221191406,484.03466796875
2654,415.10833740234375,-1252.0455322265625,439.9300537109375,484.4311218261719
2655,411.1253356933594,-1252.6402587890625,432.4390258789063,487.1275939941406
2656,408.1334228515625,-1256.578369140625,441.3624267578125,489.3789978027344
2657,420.7817687988281,-1247.7371826171875,448.763671875,490.9983825683594
2658,422.3375549316406,-1246.58154296875,447.2901611328125,489.90631103515625
2659,413.40667724609375,-1260.583740234375,441.0033874511719,477.1009216308594
2660,416.7389221191406,-1255.6171875,441.9832458496094,482.13482666015625
2661,437.7048034667969,-1240.616455078125,451.0113525390625,483.7130432128906
2662,417.329833984375,-1256.4661865234375,446.07843017578125,481.17364501953125
2663,407.5873718261719,-1255.6695556640625,441.4334716796875,477.29913330078125
2664,418.8220520019531,-1249.689453125,441.1043701171875,476.251953125
2665,412.2286071777344,-1237.4898681640625,445.3491516113281,475.7470703125
2666,410.3960571289063,-1250.34765625,440.1768798828125,470.9674682617188
2667,402.1458435058594,-1255.5311279296875,431.732177734375,469.2845153808594
2668,409.2329406738281,-1248.49267578125,442.7312316894531,476.3791198730469
2669,428.3737487792969,-1236.56982421875,447.8062744140625,482.0113830566406
2670,413.2982177734375,-1242.91650390625,448.4270935058594,486.0018615722656
2671,401.6484375,-1243.6158447265625,437.9815673828125,486.499267578125
2672,413.2346496582031,-1247.7969970703125,443.9878234863281,485.6839904785156
2673,427.5434875488281,-1232.5869140625,455.38330078125,497.1467590332031
2674,420.3067932128906,-1237.25048828125,444.71337890625,486.2748718261719
2675,420.3890686035156,-1247.4642333984375,442.0206604003906,487.9092102050781
2676,420.80792236328125,-1234.2586669921875,450.0015869140625,489.7492370605469
2677,427.2555236816406,-1235.3880615234375,457.42529296875,494.1174621582031
2678,421.7803039550781,-1243.997314453125,448.4981384277344,489.4126586914063
2679,417.834716796875,-1246.9854736328125,445.99615478515625,484.2403869628906
2680,426.5337219238281,-1243.541015625,455.8844604492188,482.7369384765625
2681,424.26361083984375,-1229.8568115234375,456.8605651855469,486.2412109375
2682,409.8724670410156,-1233.963134765625,448.4420471191406,478.84368896484375
2683,405.8595581054688,-1227.178955078125,441.7476196289063,478.4061279296875
2684,409.02349853515625,-1222.152587890625,442.6377258300781,473.13287353515625
2685,421.8177185058594,-1218.5921630859375,450.1437072753906,480.6500854492188
2686,414.7941589355469,-1221.02685546875,446.2616882324219,487.7820739746094
2687,403.1406555175781,-1233.020751953125,437.9254455566406,486.2150573730469
2688,410.0632019042969,-1227.6202392578125,436.74737548828125,481.36065673828125
2689,410.9757385253906,-1225.7054443359375,447.2527770996094,495.0636596679688
2690,412.6661682128906,-1229.18359375,448.7674255371094,497.4197692871094
2691,404.419677734375,-1235.6236572265625,440.3750915527344,487.3744201660156
2692,407.7818603515625,-1230.9412841796875,446.0485229492188,492.1689758300781
2693,417.1727600097656,-1221.54296875,453.3749694824219,489.8315124511719
2694,424.03546142578125,-1234.7559814453125,447.1069030761719,493.728515625
2695,419.3680725097656,-1241.05029296875,447.0769958496094,490.3588562011719
2696,420.7331237792969,-1229.299560546875,447.5033264160156,487.2472534179688
2697,419.8580017089844,-1229.1611328125,458.5734558105469,488.0775146484375
2698,412.0640563964844,-1223.7794189453125,448.5617370605469,484.8686828613281
2699,407.5350341796875,-1242.0638427734375,440.20306396484375,484.2628173828125
2700,409.7079162597656,-1222.3994140625,447.3500061035156,481.7645568847656
2701,410.6017456054688,-1219.5234375,453.1393737792969,486.48431396484375
2702,409.14691162109375,-1225.323974609375,446.7403869628906,483.74298095703125
2703,400.7994689941406,-1232.6055908203125,433.246826171875,482.1609802246094
2704,405.440673828125,-1233.7574462890625,443.1314086914063,483.60833740234375
2705,419.2446594238281,-1224.4937744140625,451.8004760742188,483.9411926269531
2706,419.9440307617188,-1233.020751953125,452.5110778808594,488.1672668457031
2707,404.0008239746094,-1237.0560302734375,448.703857421875,487.4678955078125
2708,409.2329406738281,-1233.6378173828125,445.9774475097656,484.9621887207031
2709,413.7021179199219,-1222.2535400390625,455.2037963867188,489.726806640625
2710,424.7423095703125,-1230.8515625,451.4938049316406,485.63909912109375
2711,399.1352233886719,-1237.07470703125,436.3771362304688,470.922607421875
2712,415.7142028808594,-1231.14697265625,446.0933837890625,487.0452880859375
2713,412.87933349609375,-1226.2215576171875,447.8847961425781,476.4613952636719
2714,414.513671875,-1231.558349609375,438.0189514160156,480.6126708984375
2715,407.9763488769531,-1246.2000732421875,434.795166015625,467.4669189453125
2716,411.74615478515625,-1232.7813720703125,442.7312316894531,489.1059875488281
2717,398.46575927734375,-1220.2677001953125,449.0367126464844,487.4305114746094
2718,408.1296691894531,-1221.6214599609375,438.70709228515625,485.7587890625
2719,405.3097839355469,-1242.87158203125,438.95391845703125,488.4664611816406
2720,396.6706237792969,-1225.062255859375,438.63604736328125,487.49407958984375
2721,411.9518432617188,-1222.5751953125,451.37786865234375,493.63873291015625
2722,403.596923828125,-1235.6947021484375,443.3183898925781,485.9308166503906
2723,399.1501770019531,-1253.1375732421875,434.8699645996094,482.4901123046875
2724,406.43548583984375,-1248.773193359375,438.2471008300781,486.60400390625
2725,416.0058898925781,-1231.6331787109375,441.25396728515625,487.4604187011719
2726,402.6245422363281,-1239.95068359375,433.6731872558594,476.2743835449219
2727,409.4610900878906,-1253.3919677734375,429.443359375,475.91162109375
2728,412.5951232910156,-1241.671142578125,433.7405090332031,474.7223205566406
2729,428.16058349609375,-1235.051513671875,441.5868225097656,482.19464111328125
2730,407.0413513183594,-1237.014892578125,434.5109252929688,472.8299560546875
2731,405.3883361816406,-1243.425048828125,432.55120849609375,473.7349853515625
2732,407.8716125488281,-1231.449951171875,435.0606994628906,471.8912353515625
2733,412.6100769042969,-1217.27197265625,447.68658447265625,473.3609924316406
2734,403.5894470214844,-1225.1856689453125,438.0376586914063,478.5108642578125
2735,399.0454406738281,-1237.4561767578125,428.9833679199219,472.930908203125
2736,399.79718017578125,-1215.794677734375,437.835693359375,483.3315734863281
2737,406.5589294433594,-1232.2989501953125,448.2550659179688,488.5450134277344
2738,408.2904968261719,-1224.160888671875,449.1563720703125,487.7708435058594
2739,391.24029541015625,-1236.6932373046875,433.6619567871094,480.3733215332031
2740,403.88861083984375,-1225.2005615234375,440.4349365234375,488.7132873535156
2741,406.9254150390625,-1220.2340087890625,453.4011535644531,488.5562133789063
2742,410.7999572753906,-1233.963134765625,448.54302978515625,487.78955078125
2743,395.3878479003906,-1239.677734375,434.52587890625,480.4294128417969
2744,403.15185546875,-1237.0635986328125,442.5068359375,483.5260620117188
2745,410.56060791015625,-1219.725341796875,449.1601257324219,485.96820068359375
2746,393.33837890625,-1231.5322265625,444.26458740234375,479.045654296875
2747,386.9244384765625,-1233.622802734375,435.1728820800781,471.4237365722656
2748,395.6421508789063,-1225.87744140625,439.8589782714844,478.2490539550781
2749,403.8287963867188,-1222.2198486328125,440.5172119140625,476.6969909667969
2750,395.1858825683594,-1222.3133544921875,432.3529968261719,472.8673400878906
2751,389.0748901367188,-1231.0423583984375,432.5474853515625,475.6834716796875
2752,389.9088745117188,-1221.812255859375,436.29486083984375,473.9331970214844
2753,397.2428283691406,-1213.928466796875,439.6233825683594,480.1302185058594
2754,404.52813720703125,-1215.2823486328125,439.9001159667969,482.2395324707031
2755,392.0630493164063,-1229.8155517578125,437.8282165527344,482.1235961914063
2756,399.0491943359375,-1221.2698974609375,434.8101196289063,476.0200805664063
2757,395.1372680664063,-1208.606689453125,442.5666809082031,485.9719543457031
2758,397.62054443359375,-1222.728515625,440.6219177246094,489.8277893066406
2759,388.4054260253906,-1225.8812255859375,434.04718017578125,476.6932678222656
2760,387.0702819824219,-1226.5133056640625,436.6987609863281,477.0635070800781
2761,410.51947021484375,-1215.708740234375,449.2984924316406,484.3638000488281
2762,403.0845336914063,-1227.564208984375,443.6587219238281,486.7199401855469
2763,388.7270812988281,-1236.74560546875,432.9513854980469,477.6431884765625
2764,407.3442993164063,-1236.0350341796875,447.9670715332031,490.4448852539063
2765,402.5011291503906,-1215.5740966796875,446.990966796875,477.2093505859375
2766,397.7364807128906,-1221.1165771484375,440.3077697753906,478.7464599609375
2767,394.419189453125,-1232.0521240234375,431.97900390625,481.7383728027344
2768,401.0650024414063,-1220.6640625,433.0448913574219,477.9199523925781
2769,398.7948913574219,-1211.1796875,446.1831665039063,479.5093994140625
2770,404.5543212890625,-1227.7137451171875,436.4818420410156,469.198486328125
2771,406.637451171875,-1228.562744140625,428.9197692871094,470.4700622558594
2772,411.1515197753906,-1226.344970703125,444.6722412109375,483.3353271484375
2773,427.58837890625,-1217.3917236328125,451.5274658203125,498.35101318359375
2774,416.1031494140625,-1223.9102783203125,443.88311767578125,481.7645568847656
2775,398.6452941894531,-1236.7269287109375,441.4484558105469,488.2308349609375
2776,401.5212707519531,-1230.298095703125,443.9878234863281,490.6019592285156
2777,411.69378662109375,-1228.3795166015625,448.5317993164063,487.5726318359375
2778,396.2779235839844,-1227.515625,443.2211608886719,484.3899841308594
2779,397.8860778808594,-1229.3369140625,441.0968933105469,485.0407104492188
2780,387.7023315429688,-1238.1331787109375,437.46917724609375,477.860107421875
2781,401.0949096679688,-1224.7255859375,449.6388244628906,485.829833984375
2782,402.1009521484375,-1230.22705078125,433.01495361328125,470.8889465332031
2783,386.2662048339844,-1237.7479248046875,430.66632080078125,475.3955078125
2784,388.74951171875,-1229.793212890625,428.94970703125,464.8190612792969
2785,403.2864990234375,-1213.2515869140625,442.9855346679688,475.3394165039063
2786,403.21917724609375,-1217.597412109375,440.4237060546875,487.9241638183594
2787,398.5256042480469,-1223.7308349609375,430.9580078125,467.5230102539063
2788,413.3692626953125,-1214.171630859375,438.1947326660156,478.7202758789063
2789,401.6559143066406,-1209.923095703125,441.9981994628906,477.0074157714844
2790,406.1250915527344,-1213.0982666015625,429.8248291015625,474.07159423828125
2791,397.59063720703125,-1227.597900390625,430.7261352539063,475.6161804199219
2792,402.048583984375,-1228.9891357421875,429.49945068359375,474.9429931640625
2793,405.2237548828125,-1217.22705078125,431.6536560058594,469.1236877441406
2794,399.2885437011719,-1226.2066650390625,433.3179016113281,469.901611328125
2795,399.0155334472656,-1235.806884765625,428.5719604492188,473.4956359863281
2796,400.1487121582031,-1229.4864501953125,440.2254943847656,473.634033203125
2797,404.5019836425781,-1218.595947265625,445.7642822265625,477.9835205078125
2798,406.5439453125,-1229.4677734375,439.2605895996094,479.4607849121094
2799,382.3393249511719,-1228.5328369140625,432.3156127929688,472.613037109375
2800,378.7714538574219,-1226.80126953125,433.1421203613281,468.39068603515625
2801,406.648681640625,-1224.710693359375,441.743896484375,471.7640686035156
2802,400.99395751953125,-1209.679931640625,428.67669677734375,466.29632568359375
2803,393.0877990722656,-1246.357177734375,430.6775207519531,470.2942810058594
2804,418.26104736328125,-1231.2218017578125,430.3072814941406,469.9202880859375
2805,390.1482238769531,-1217.167236328125,435.816162109375,472.6392211914063
2806,405.0816650390625,-1230.6982421875,444.9190673828125,491.9595336914063
2807,395.5635986328125,-1228.83203125,431.578857421875,472.7701110839844
2808,399.1314697265625,-1226.3861083984375,439.8141174316406,479.7562255859375
2809,401.225830078125,-1221.5391845703125,442.35723876953125,479.2775268554688
2810,412.0378723144531,-1234.1427001953125,454.8485107421875,497.77880859375
2811,396.0834655761719,-1229.4940185546875,429.6677551269531,467.5604248046875
2812,397.9908142089844,-1224.38525390625,441.6204833984375,485.2538757324219
2813,396.11712646484375,-1230.1746826171875,444.1523742675781,475.9452819824219
2814,404.5543212890625,-1225.46044921875,441.6167297363281,468.3514099121094
2815,399.7635192871094,-1240.5135498046875,441.25396728515625,483.7897033691406
2816,402.905029296875,-1226.761962890625,443.1875,484.1786804199219
2817,387.1600646972656,-1231.58642578125,441.6354370117188,470.9468994140625
2818,401.7942810058594,-1224.0318603515625,438.6584777832031,474.7503662109375
2819,391.65167236328125,-1228.9049072265625,436.4668884277344,487.0397033691406
2820,398.9070739746094,-1236.4744873046875,421.3277893066406,462.0758666992188
2821,404.8011474609375,-1226.9639892578125,439.032470703125,487.1518859863281
2822,406.9740295410156,-1238.6661376953125,432.00146484375,475.3562316894531
2823,388.6036682128906,-1235.1917724609375,415.8488159179688,463.4072570800781
2824,408.4064331054688,-1226.1112060546875,437.5028381347656,484.54144287109375
2825,400.13751220703125,-1233.778076171875,435.5506286621094,469.15924072265625
2826,418.0329284667969,-1224.708740234375,444.9265441894531,479.3467102050781
2827,409.9023742675781,-1230.6663818359375,445.3454284667969,495.5255126953125
2828,405.122802734375,-1238.4715576171875,451.2806396484375,496.7858581542969
2829,420.7667846679688,-1211.218994140625,458.517333984375,492.28302001953125
2830,401.296875,-1231.25732421875,445.311767578125,477.4505920410156
2831,396.4686584472656,-1241.889892578125,444.73956298828125,503.3082580566406
2832,397.3737182617188,-1227.6334228515625,437.7571716308594,461.3877258300781
2833,410.545654296875,-1229.43603515625,457.16351318359375,493.68548583984375
2834,397.23907470703125,-1222.2142333984375,453.4572448730469,494.4783630371094
2835,393.0279541015625,-1243.3072509765625,426.1784362792969,451.9893493652344
2836,405.5341796875,-1253.636962890625,454.2613525390625,497.1598510742188
2837,410.3623962402344,-1261.00830078125,449.31719970703125,491.81927490234375
2838,400.4404296875,-1236.7138671875,426.2008666992188,458.4631042480469
2839,396.83892822265625,-1259.5047607421875,422.225341796875,464.06549072265625
2840,408.95245361328125,-1235.741455078125,449.35833740234375,494.8897399902344
2841,413.4291076660156,-1203.600830078125,438.4453125,459.2073669433594
2842,437.2148742675781,-1229.9296875,440.4985046386719,470.5392456054688
2843,391.894775390625,-1282.7296142578125,436.3808898925781,485.49884033203125
2844,412.8157653808594,-1251.23583984375,443.3707580566406,484.4516906738281
2845,418.1825256347656,-1262.7322998046875,458.3864440917969,499.28411865234375
2846,412.060302734375,-1255.424560546875,439.7430419921875,480.3602294921875
2847,393.6899108886719,-1257.148681640625,434.0546569824219,484.2684326171875
2848,428.1044921875,-1243.0716552734375,439.5411071777344,491.2358703613281
2849,424.7086486816406,-1224.353515625,455.2000427246094,489.0517578125
2850,387.4405517578125,-1229.0582275390625,441.4634094238281,473.183349609375
2851,429.9370422363281,-1225.7222900390625,450.7533264160156,488.9283447265625
2852,393.409423828125,-1296.1707763671875,462.6387023925781,503.0801086425781
2853,430.0118408203125,-1226.5225830078125,452.9785461425781,470.5729064941406
2854,399.3932800292969,-1246.18701171875,447.58935546875,480.8015441894531
2855,396.4312744140625,-1272.5533447265625,427.97357177734375,462.78643798828125
2856,420.7817687988281,-1240.3228759765625,444.5338439941406,483.7635498046875
2857,419.5475769042969,-1212.7523193359375,463.270751953125,501.0231628417969
2858,400.709716796875,-1248.1990966796875,431.0141296386719,464.21881103515625
2859,405.2013244628906,-1323.045654296875,470.2643737792969,516.3679809570311
2860,390.3352355957031,-1229.200439453125,427.1246337890625,465.9765625
2861,457.4589538574219,-1234.5858154296875,461.55413818359375,488.3673706054688
2862,380.3384704589844,-1275.7098388671875,434.71661376953125,476.4969177246094
2863,414.02374267578125,-1238.0003662109375,461.6027526855469,518.2155151367189
2864,408.1820373535156,-1256.90185546875,455.7760009765625,498.0723876953125
2865,422.0757446289063,-1285.3699951171875,461.2960815429688,503.6635437011719
2866,441.04827880859375,-1267.5904541015625,432.928955078125,449.2517395019531
2867,404.8236083984375,-1328.158203125,448.96563720703125,489.4257507324219
2868,383.7567443847656,-1249.45947265625,459.17181396484375,504.5760803222656
2869,405.605224609375,-1233.3404541015625,453.1692810058594,474.6045227050781
2870,412.224853515625,-1223.4559326171875,439.701904296875,478.75579833984375
2871,408.9486999511719,-1295.7369384765625,445.92510986328125,477.4468383789063
2872,414.4650573730469,-1257.50390625,436.16021728515625,479.9413757324219
2873,436.2799072265625,-1243.8682861328125,444.1112365722656,484.8219299316406
2874,380.2524719238281,-1248.6702880859375,428.99456787109375,455.15704345703125
2875,411.9481201171875,-1307.4278564453125,446.7179565429688,489.11907958984375
2876,402.8152770996094,-1263.3270263671875,451.9912109375,498.5772705078125
2877,445.7867126464844,-1299.072998046875,482.6696166992188,520.3023681640625
2878,415.2354736328125,-1232.581298828125,432.42779541015625,449.7790832519531
2879,368.7223510742188,-1227.5885009765625,436.60528564453125,468.4486389160156
2880,421.9673156738281,-1302.7642822265625,436.5416870117188,482.0805969238281
2881,421.8064880371094,-1240.341552734375,448.4158630371094,492.5448303222656
2882,416.93341064453125,-1275.096435546875,429.2975158691406,470.29241943359375
2883,399.5615539550781,-1274.7412109375,451.0562438964844,499.4935607910156
2884,420.6171875,-1224.1365966796875,429.3161926269531,465.9653625488281
2885,392.4295654296875,-1261.8721923828125,458.034912109375,503.7159118652344
2886,406.2110900878906,-1254.3475341796875,435.92462158203125,467.3902587890625
2887,380.4170227050781,-1249.7474365234375,413.8928527832031,451.8247985839844
2888,401.2519836425781,-1237.8843994140625,428.6392822265625,463.3137512207031
2889,431.3058471679688,-1221.384033203125,444.55255126953125,472.9552307128906
2890,407.50885009765625,-1275.8780517578125,438.8604431152344,476.3099060058594
2891,399.9318237304688,-1227.102294921875,424.89190673828125,463.77001953125
2892,415.4224853515625,-1250.517822265625,433.1308898925781,461.4512939453125
2893,436.3509521484375,-1261.0643310546875,453.9434509277344,488.3673706054688
2894,420.8004455566406,-1267.291259765625,452.01739501953125,498.0537109375
2895,390.3052978515625,-1249.6876220703125,440.2367248535156,480.96234130859375
2896,414.3902587890625,-1263.8804931640625,445.1920776367188,480.06103515625
2897,400.7545776367188,-1231.395751953125,438.9913330078125,472.65228271484375
2898,426.298095703125,-1251.4490966796875,437.9927673339844,472.79815673828125
2899,408.1259460449219,-1227.21826171875,437.0428466796875,487.86993408203125
2900,410.6653137207031,-1277.265625,445.39404296875,488.4720764160156
2901,410.2801208496094,-1243.756103515625,447.4060974121094,474.84014892578125
2902,417.27374267578125,-1245.038818359375,440.9622497558594,479.544921875
2903,396.5472106933594,-1255.4881591796875,432.7344665527344,474.8214416503906
2904,444.44036865234375,-1246.91259765625,442.5704040527344,487.2902526855469
2905,398.4134216308594,-1265.6082763671875,442.19268798828125,483.9505310058594
2906,407.5537414550781,-1245.9364013671875,419.6784973144531,454.7793273925781
2907,404.5431213378906,-1245.8765869140625,435.4122314453125,482.6528015136719
2908,410.4222412109375,-1260.0732421875,430.7523193359375,472.5288696289063
2909,393.5104064941406,-1225.8531494140625,441.18292236328125,476.5791931152344
2910,420.1721496582031,-1241.3551025390625,434.0247497558594,466.915283203125
2911,412.6474609375,-1247.3089599609375,435.37109375,483.9505310058594
2912,396.1283264160156,-1256.36328125,428.2129211425781,466.8517150878906
2913,421.885009765625,-1233.2208251953125,449.5453186035156,488.9732055664063
2914,414.865234375,-1240.4500732421875,434.14068603515625,476.5081481933594
2915,407.3742065429688,-1249.025634765625,437.7309875488281,488.9208679199219
2916,419.6410827636719,-1261.9095458984375,446.156982421875,492.4476013183594
2917,409.7789611816406,-1226.399169921875,443.8195495605469,473.9911804199219
2918,418.4854431152344,-1250.342041015625,444.6385803222656,485.3230895996094
2919,393.2934875488281,-1255.5068359375,438.4453125,487.9185791015625
2920,404.5206604003906,-1239.14111328125,437.1176452636719,475.84991455078125
2921,404.7188720703125,-1227.04248046875,442.9780578613281,468.9273681640625
2922,412.5016174316406,-1234.66064453125,438.9314880371094,478.9203796386719
2923,405.7436218261719,-1244.7359619140625,438.0899963378906,485.3230895996094
2924,400.7022399902344,-1243.4344482421875,433.6582336425781,475.0533142089844
2925,405.1676635742188,-1230.5916748046875,437.7421875,479.462646484375
2926,414.92132568359375,-1239.193359375,431.2085876464844,481.3475646972656
2927,390.7167053222656,-1239.3131103515625,428.95343017578125,476.5455322265625
2928,411.14776611328125,-1246.8863525390625,436.62396240234375,490.5552062988281
2929,410.50823974609375,-1223.5606689453125,437.1812133789063,475.4385070800781
2930,395.5561218261719,-1247.7054443359375,435.1841125488281,488.89093017578125
2931,407.0076904296875,-1245.554931640625,422.89105224609375,468.8562927246094
2932,414.6146545410156,-1252.6458740234375,437.80950927734375,482.2077331542969
2933,403.95220947265625,-1211.40966796875,443.105224609375,483.6476135253906
2934,423.6876525878906,-1230.3709716796875,435.2663879394531,474.7466430664063
2935,394.56878662109375,-1221.3465576171875,431.7733154296875,466.6871643066406
2936,408.6308288574219,-1244.9266357421875,436.6800537109375,477.0391845703125
2937,419.4802551269531,-1219.435546875,449.4144287109375,480.0198974609375
2938,427.9137573242188,-1234.555908203125,461.8346252441406,501.2999267578125
2939,397.0072021484375,-1234.61572265625,432.68212890625,467.1583862304688
2940,406.3494873046875,-1231.5115966796875,443.3707580566406,476.235107421875
2941,435.2813415527344,-1236.751220703125,444.61614990234375,472.9963684082031
2942,410.3885803222656,-1233.1385498046875,446.8937377929688,481.6617126464844
2943,395.3205261230469,-1236.83349609375,430.4568786621094,467.0274963378906
2944,405.2798767089844,-1236.3436279296875,435.40850830078125,473.5947570800781
2945,405.6837768554688,-1228.6580810546875,444.4740295410156,474.626953125
2946,414.4725341796875,-1232.8018798828125,444.1561279296875,481.9683837890625
2947,412.6923522949219,-1245.9364013671875,430.0754089355469,475.4273071289063
2948,392.33233642578125,-1236.949462890625,423.8858642578125,473.6508483886719
2949,412.1650390625,-1217.7264404296875,432.1884460449219,480.1021728515625
2950,407.998779296875,-1240.6856689453125,432.4764099121094,489.2499694824219
2951,400.85931396484375,-1235.423583984375,433.4674987792969,487.4211730957031
2952,393.1813049316406,-1239.892822265625,428.4523010253906,461.13714599609375
2953,416.3761596679688,-1221.503662109375,437.3233337402344,468.8974304199219
2954,414.1845703125,-1233.875244140625,439.6009216308594,479.9450988769531
2955,416.8436279296875,-1263.6224365234375,443.6699523925781,490.98529052734375
2956,409.9846496582031,-1226.8255615234375,429.6565246582031,462.8575134277344
2957,419.71588134765625,-1215.9425048828125,452.9635925292969,480.5547180175781
2958,415.3626403808594,-1238.366943359375,432.6110534667969,466.3580322265625
2959,407.8304748535156,-1248.3038330078125,436.3584289550781,475.94342041015625
2960,406.5364685058594,-1243.71875,437.7197570800781,479.7169799804688
2961,419.854248046875,-1221.713134765625,444.0813293457031,484.01409912109375
2962,416.0844421386719,-1245.6036376953125,434.2865295410156,469.4247741699219
2963,402.9499206542969,-1252.4027099609375,431.9490966796875,478.3818359375
2964,392.646484375,-1234.8663330078125,430.5653381347656,476.24261474609375
2965,407.4490051269531,-1223.755126953125,429.3685607910156,469.10687255859375
2966,401.51751708984375,-1235.0533447265625,433.2281494140625,477.40570068359375
2967,392.2463073730469,-1236.796142578125,426.0250854492188,465.8157653808594
2968,405.3097839355469,-1234.3128662109375,435.38232421875,475.7227478027344
2969,407.75567626953125,-1222.1431884765625,442.589111328125,477.2598571777344
2970,404.4533386230469,-1227.685791015625,434.08831787109375,472.7906799316406
2971,393.738525390625,-1231.7547607421875,427.0311279296875,464.1440124511719
2972,392.87835693359375,-1235.91357421875,438.6697082519531,464.7723388671875
2973,429.7463073730469,-1224.764892578125,450.2671203613281,479.06622314453125
2974,424.173828125,-1235.0047607421875,443.2772521972656,477.9180603027344
2975,404.9956359863281,-1239.2532958984375,443.02294921875,485.5549621582031
2976,403.2042236328125,-1241.1231689453125,443.5166015625,475.4796752929688
2977,428.6991271972656,-1230.09423828125,452.2679748535156,479.9039611816406
2978,421.13330078125,-1241.0260009765625,443.3221435546875,479.8890075683594
2979,398.1142272949219,-1260.6043701171875,446.77032470703125,495.1739807128906
2980,399.5540771484375,-1232.1773681640625,444.18603515625,475.86114501953125
2981,407.68463134765625,-1243.02685546875,451.6546325683594,484.0440368652344
2982,404.7226257324219,-1243.0491943359375,442.5816345214844,484.03656005859375
2983,389.63214111328125,-1250.3345947265625,438.35552978515625,481.3812255859375
2984,400.17864990234375,-1240.8837890625,446.145751953125,482.46954345703125
2985,418.4031677246094,-1241.7103271484375,447.7576599121094,478.8567810058594
2986,395.6795349121094,-1238.2471923828125,439.8963928222656,476.0780334472656
2987,382.1186828613281,-1231.4293212890625,431.9827575683594,462.8575134277344
2988,405.38458251953125,-1238.931640625,431.556396484375,467.947509765625
2989,410.4708557128906,-1225.9803466796875,436.6277160644531,462.6293640136719
2990,411.4132995605469,-1235.2552490234375,440.5172119140625,468.1681518554688
2991,404.6365966796875,-1246.0186767578125,440.1095581054688,465.3295593261719
2992,414.8614807128906,-1242.372314453125,445.6446228027344,473.4713439941406
2993,417.9656066894531,-1229.2528076171875,442.31982421875,468.5533752441406
2994,420.27685546875,-1240.625732421875,435.91339111328125,474.35394287109375
2995,399.4905090332031,-1246.7554931640625,429.5705261230469,469.7725830078125
2996,405.46685791015625,-1249.298583984375,430.9767150878906,476.60162353515625
2997,417.1502990722656,-1242.75,439.35784912109375,480.0423278808594
2998,413.50390625,-1241.4859619140625,442.11041259765625,489.1041259765625
2999,403.3500671386719,-1256.50537109375,435.1803588867188,480.6145324707031
3000,396.7566223144531,-1236.5679931640625,428.9459533691406,475.9359436035156
3001,401.3978576660156,-1240.6519775390625,448.7449951171875,490.8917846679688
3002,410.2614135742188,-1243.524169921875,437.7048034667969,477.3458557128906
3003,399.6288757324219,-1230.7598876953125,438.2134399414063,476.27252197265625
3004,400.6349182128906,-1258.3603515625,426.0138854980469,461.4139099121094
3005,415.7964782714844,-1235.7564697265625,451.7780456542969,482.8210754394531
3006,401.9999694824219,-1237.839599609375,438.6996154785156,461.2268981933594
3007,401.7793273925781,-1260.4398193359375,434.09954833984375,467.59222412109375
3008,390.73541259765625,-1243.172607421875,446.60577392578125,481.5607299804688
3009,422.1842041015625,-1231.822021484375,453.7826232910156,483.0754089355469
3010,404.1691284179688,-1238.254638671875,445.1771240234375,477.4730224609375
3011,400.6199645996094,-1256.408203125,434.4660339355469,467.6333618164063
3012,409.93603515625,-1243.1651611328125,451.3591613769531,489.1041259765625
3013,413.4478149414063,-1229.200439453125,449.0890502929688,481.5607299804688
3014,407.2470703125,-1248.9881591796875,449.10400390625,475.2664794921875
3015,391.5357360839844,-1248.5450439453125,448.2326049804688,483.30352783203125
3016,412.9429321289063,-1249.442626953125,453.3039245605469,491.0339050292969
3017,415.77777099609375,-1236.225830078125,457.2233276367188,489.9044494628906
3018,405.8932189941406,-1238.4697265625,453.5657043457031,488.0382385253906
3019,397.0932312011719,-1247.80078125,433.54229736328125,469.3798828125
3020,414.8166198730469,-1227.564208984375,448.0531005859375,493.50970458984375
3021,414.3715515136719,-1230.395263671875,447.5968322753906,478.4154968261719
3022,415.3514099121094,-1236.427734375,438.9576721191406,469.1929016113281
3023,401.4913635253906,-1243.350341796875,436.5791015625,471.2049560546875
3024,423.24261474609375,-1222.964111328125,447.2078857421875,482.5555419921875
3025,415.38134765625,-1232.239013671875,445.9512939453125,469.9483337402344
3026,410.9420776367188,-1238.750244140625,449.80712890625,479.0026550292969
3027,403.6978759765625,-1233.9332275390625,437.2186279296875,476.5679626464844
3028,414.6670227050781,-1236.4090576171875,447.2004089355469,486.7554626464844
3029,415.47857666015625,-1233.634033203125,451.4900817871094,481.4298400878906
3030,413.3730163574219,-1240.6912841796875,449.2274475097656,482.12921142578125
3031,393.0990295410156,-1235.0850830078125,435.9320983886719,479.462646484375
3032,404.1953125,-1240.7623291015625,445.7942199707031,486.94244384765625
3033,419.8318176269531,-1236.5137939453125,451.72943115234375,490.9703369140625
3034,410.0108337402344,-1242.3929443359375,445.7081909179688,479.122314453125
3035,399.524169921875,-1246.0692138671875,443.91302490234375,484.5190124511719
3036,402.6918640136719,-1241.3157958984375,437.8768310546875,481.0446166992188
3037,417.154052734375,-1228.5440673828125,448.9095458984375,487.58197021484375
3038,411.2711791992188,-1231.2105712890625,443.6998596191406,479.2457275390625
3039,407.1348571777344,-1229.5875244140625,428.44854736328125,462.33392333984375
3040,411.2300415039063,-1230.2344970703125,442.9556274414063,477.7198486328125
3041,420.84906005859375,-1223.8055419921875,450.4054870605469,485.1360778808594
3042,400.6611022949219,-1222.3695068359375,447.2265930175781,480.812744140625
3043,398.4844665527344,-1235.8106689453125,445.7829895019531,488.57305908203125
3044,416.1966247558594,-1238.78759765625,449.6911926269531,487.04718017578125
3045,410.5979919433594,-1221.3896484375,448.9880676269531,476.4669799804688
3046,416.0470275878906,-1216.6287841796875,444.61614990234375,489.3322448730469
3047,391.4048461914063,-1238.4510498046875,426.8777770996094,465.4903869628906
3048,401.9364013671875,-1221.064208984375,442.4918823242188,482.7911682128906
3049,411.41705322265625,-1219.4598388671875,453.4946594238281,486.9611511230469
3050,402.6394958496094,-1214.9644775390625,439.3952331542969,480.5210571289063
3051,404.8049011230469,-1231.8314208984375,435.0382385253906,479.627197265625
3052,401.7980346679688,-1224.534912109375,446.8750305175781,489.3397216796875
3053,405.0666809082031,-1221.6513671875,435.6478576660156,468.6468505859375
3054,397.6878662109375,-1223.0650634765625,434.0022888183594,472.7794494628906
3055,388.7719421386719,-1229.96142578125,435.8348388671875,485.15850830078125
3056,394.1237487792969,-1222.89306640625,433.8302612304688,473.3890686035156
3057,395.6683349609375,-1214.807373046875,443.5016479492188,478.7857360839844
3058,419.6485595703125,-1220.9146728515625,449.9828796386719,483.18011474609375
3059,392.575439453125,-1231.648193359375,440.3115234375,476.1116943359375
3060,404.06439208984375,-1211.9576416015625,446.9573059082031,485.3156127929688
3061,407.224609375,-1218.4949951171875,444.2421569824219,472.94775390625
3062,418.4517822265625,-1221.415771484375,449.5976867675781,473.31427001953125
3063,404.02325439453125,-1239.640380859375,441.3736572265625,478.8156433105469
3064,404.5730285644531,-1236.027587890625,448.8048095703125,486.269287109375
3065,411.7798156738281,-1224.6695556640625,451.6808166503906,480.1732482910156
3066,406.7122497558594,-1229.475341796875,445.2781066894531,479.0475158691406
3067,411.0318298339844,-1233.4732666015625,433.5011596679688,469.0619812011719
3068,415.792724609375,-1226.6142578125,443.4866943359375,479.8777770996094
3069,405.6388854980469,-1214.863525390625,448.2251281738281,488.5057373046875
3070,401.379150390625,-1225.9410400390625,429.2451477050781,467.1957702636719
3071,401.1061401367188,-1224.2581787109375,428.5644836425781,468.5084838867188
3072,404.2588806152344,-1215.791015625,434.8437805175781,474.9037170410156
3073,409.9771728515625,-1204.18603515625,455.8695068359375,492.1334228515625
3074,415.1531982421875,-1209.0068359375,443.2884826660156,477.4356384277344
3075,391.4908447265625,-1221.75244140625,436.4781188964844,482.4545593261719
3076,404.1578979492188,-1216.72216796875,442.0954284667969,477.91058349609375
3077,407.5425109863281,-1223.70458984375,453.53955078125,487.3538513183594
3078,399.12774658203125,-1213.7938232421875,453.5133666992188,490.97406005859375
3079,393.2785339355469,-1231.636962890625,435.5281677246094,475.41607666015625
3080,408.2007446289063,-1231.2069091796875,440.5396423339844,478.6548461914063
3081,423.3435974121094,-1218.165771484375,457.9226989746094,496.4978942871094
3082,401.3866271972656,-1225.6568603515625,443.02294921875,478.9241027832031
3083,408.6906433105469,-1229.2396240234375,440.6256713867188,470.6365051269531
3084,414.9101257324219,-1217.915283203125,456.6810607910156,489.1041259765625
3085,419.783203125,-1223.4091796875,456.0303039550781,484.3469543457031
3086,402.1009521484375,-1229.4940185546875,446.81146240234375,486.6731872558594
3087,401.3305358886719,-1243.1221923828125,439.2381591796875,483.5802917480469
3088,395.4701232910156,-1219.9197998046875,440.2928161621094,486.1832580566406
3089,419.66351318359375,-1227.1490478515625,445.6745300292969,479.0101318359375
3090,397.5569763183594,-1219.0484619140625,439.2830505371094,477.5365905761719
3091,404.5094604492188,-1229.254638671875,443.4567565917969,495.5816345214844
3092,399.0230102539063,-1223.667236328125,440.6331481933594,472.2783203125
3093,410.6354064941406,-1211.6322021484375,444.03271484375,473.0973510742188
3094,410.9906921386719,-1215.0130615234375,441.5232238769531,476.6465148925781
3095,394.594970703125,-1226.4346923828125,427.5023498535156,474.5858154296875
3096,404.93206787109375,-1220.031982421875,436.8446350097656,478.9241027832031
3097,407.79681396484375,-1217.283203125,448.2401123046875,483.7672729492188
3098,403.68292236328125,-1225.619384765625,438.9875793457031,475.68536376953125
3099,394.3182067871094,-1230.615966796875,440.4685974121094,488.3898010253906
3100,406.3532104492188,-1224.1795654296875,438.4453125,481.3812255859375
3101,422.3001403808594,-1224.2618408203125,445.6184387207031,486.0373840332031
3102,402.3477783203125,-1225.0958251953125,439.8290710449219,481.2989501953125
3103,402.9947814941406,-1231.6219482421875,434.08831787109375,475.4684448242188
3104,407.3966369628906,-1216.7783203125,443.5876770019531,478.2845764160156
3105,418.45928955078125,-1228.03173828125,455.6862487792969,499.3402099609375
3106,399.677490234375,-1224.0523681640625,436.814697265625,466.7283020019531
3107,399.7747497558594,-1229.50146484375,437.2073974609375,473.6882629394531
3108,402.1495666503906,-1225.7391357421875,437.177490234375,472.69342041015625
3109,413.0177307128906,-1219.9759521484375,449.2984924316406,481.09326171875
3110,404.0531921386719,-1219.0260009765625,444.9228210449219,483.7747497558594
3111,390.0846557617188,-1229.243408203125,434.42864990234375,474.9710388183594
3112,401.7793273925781,-1221.5054931640625,438.10870361328125,477.9292907714844
3113,422.763916015625,-1210.8355712890625,454.8185729980469,491.09375
3114,391.4160461425781,-1216.6998291015625,449.22369384765625,487.6941833496094
3115,395.2419738769531,-1235.6199951171875,445.12103271484375,487.6605224609375
3116,401.8017578125,-1223.8504638671875,447.4846496582031,488.6067199707031
3117,410.9233703613281,-1210.1661376953125,454.620361328125,486.9910583496094
3118,404.86474609375,-1230.1783447265625,450.1138000488281,479.3317565917969
3119,397.493408203125,-1232.7252197265625,432.8130187988281,479.462646484375
3120,398.65277099609375,-1231.109619140625,442.3759460449219,484.8892517089844
3121,401.3417663574219,-1223.9700927734375,439.5186462402344,473.2170104980469
3122,401.4202880859375,-1231.846435546875,438.5687255859375,474.0958862304688
3123,393.3869934082031,-1226.038330078125,421.4212646484375,463.0370178222656
3124,404.4869995117188,-1225.1220703125,435.453369140625,468.53839111328125
3125,419.7457885742188,-1213.1805419921875,443.8905944824219,474.9486083984375
3126,399.9131164550781,-1217.6534423828125,442.57415771484375,476.02569580078125
3127,400.0851440429688,-1226.9844970703125,438.2171630859375,473.4114990234375
3128,405.380859375,-1218.7454833984375,434.6530456542969,472.2371826171875
3129,406.802001953125,-1213.434814453125,444.279541015625,485.9663391113281
3130,409.5022277832031,-1224.9910888671875,441.9009704589844,483.6027221679688
3131,401.4913635253906,-1225.98974609375,439.3765258789063,483.9505310058594
3132,403.77642822265625,-1226.8572998046875,446.90869140625,486.8153076171875
3133,413.6647338867188,-1219.7291259765625,459.3139343261719,498.2107849121094
3134,412.8830871582031,-1235.040283203125,446.3402404785156,492.12969970703125
3135,391.0532836914063,-1233.03564453125,438.2209167480469,478.0377502441406
3136,395.6084899902344,-1227.508056640625,447.4098510742188,491.2994384765625
3137,415.7328796386719,-1224.8228759765625,447.5033264160156,477.3907470703125
3138,413.4590148925781,-1220.7762451171875,436.8483581542969,471.9454650878906
3139,388.151123046875,-1228.7086181640625,432.3679504394531,471.833251953125
3140,402.2991638183594,-1223.315673828125,433.082275390625,471.6051330566406
3141,412.1388549804688,-1227.1640625,443.9841003417969,487.35009765625
3142,400.4217529296875,-1227.081787109375,434.8512573242188,477.091552734375
