,T7,F8,Cz,P4
13200,428.86181640625,-1188.171875,456.1032409667969,457.0494384765625
13201,416.9352722167969,-1195.9844970703125,456.2229309082031,464.6750793457031
13202,422.5114440917969,-1204.6573486328125,442.3740539550781,452.47552490234375
13203,412.24169921875,-1188.5794677734375,449.89874267578125,455.9461669921875
13204,426.81982421875,-1185.464111328125,456.8624267578125,462.6480712890625
13205,413.5618896484375,-1189.9295654296875,450.8711242675781,456.4585266113281
13206,416.01898193359375,-1194.4024658203125,444.1318054199219,455.6133117675781
13207,416.1199645996094,-1191.4329833984375,443.1856384277344,457.5468444824219
13208,423.6259460449219,-1188.2391357421875,450.5382690429688,449.7304382324219
13209,433.79473876953125,-1188.24658203125,449.203125,453.5264587402344
13210,404.15228271484375,-1192.5474853515625,441.47650146484375,454.40533447265625
13211,416.9539794921875,-1198.50146484375,440.3732299804688,453.171142578125
13212,437.2616271972656,-1186.95263671875,451.43585205078125,458.75482177734375
13213,424.09716796875,-1192.17724609375,450.8973083496094,453.0514831542969
13214,415.0840148925781,-1198.2919921875,440.7397155761719,453.3132629394531
13215,414.0331115722656,-1192.3343505859375,448.9862060546875,462.2291870117188
13216,430.4213562011719,-1191.23486328125,445.6950988769531,452.59521484375
13217,419.0557861328125,-1188.351318359375,447.6847229003906,456.4024353027344
13218,414.45196533203125,-1196.0816650390625,437.7515563964844,456.6118774414063
13219,413.5955505371094,-1191.4405517578125,437.4822692871094,448.8553161621094
13220,423.7493591308594,-1181.1744384765625,451.6490173339844,472.3456115722656
13221,425.85491943359375,-1186.22705078125,440.15631103515625,447.1087646484375
13222,408.8907470703125,-1195.7152099609375,438.4995422363281,453.4591369628906
13223,409.612548828125,-1192.7607421875,444.531982421875,460.8753662109375
13224,417.0586853027344,-1186.09619140625,447.265869140625,448.3541564941406
13225,420.9668884277344,-1188.6318359375,451.1740417480469,458.3509216308594
13226,416.0489196777344,-1199.690673828125,443.1369934082031,454.9176940917969
13227,433.181396484375,-1199.09228515625,443.9111633300781,460.3592529296875
13228,431.4385986328125,-1195.37109375,452.93927001953125,453.9789733886719
13229,442.0187683105469,-1191.8406982421875,452.5615539550781,461.503662109375
13230,405.528564453125,-1198.0601806640625,443.93359375,455.9012756347656
13231,412.7203979492188,-1194.8961181640625,447.1536560058594,459.2260437011719
13232,426.91705322265625,-1188.3775634765625,456.4622802734375,464.555419921875
13233,429.6172790527344,-1199.1522216796875,445.6876220703125,452.31097412109375
13234,417.406494140625,-1202.0093994140625,443.2865905761719,454.0799560546875
13235,415.6674499511719,-1190.8720703125,443.78399658203125,453.6535949707031
13236,432.06689453125,-1186.507568359375,451.3423461914063,457.7974243164063
13237,422.8966674804688,-1192.106201171875,447.7857055664063,451.4021911621094
13238,417.5224304199219,-1196.332275390625,447.254638671875,456.4847106933594
13239,427.8146362304688,-1195.4010009765625,439.625244140625,447.56878662109375
13240,430.59710693359375,-1188.572021484375,450.8598937988281,455.0672912597656
13241,428.521484375,-1191.638671875,443.4810791015625,446.4617919921875
13242,412.5483703613281,-1197.409423828125,441.2259216308594,450.8337097167969
13243,416.1237182617188,-1193.86767578125,441.12493896484375,459.61126708984375
13244,435.3243408203125,-1182.0870361328125,450.5457458496094,457.90960693359375
13245,412.159423828125,-1188.08203125,445.13037109375,449.8202209472656
13246,409.3544921875,-1191.73974609375,440.6275329589844,451.162841796875
13247,423.77178955078125,-1189.69775390625,444.202880859375,455.14208984375
13248,425.47344970703125,-1190.322265625,449.6182556152344,460.0451049804688
13249,417.10357666015625,-1178.1563720703125,447.5613098144531,459.5888366699219
13250,408.2886047363281,-1200.6630859375,445.1079406738281,455.306640625
13251,419.4709167480469,-1194.7764892578125,455.6282653808594,459.9889831542969
13252,425.2528076171875,-1198.60986328125,468.43743896484375,468.1868591308594
13253,418.1470031738281,-1199.350341796875,458.7286376953125,467.420166015625
13254,418.3302612304688,-1200.5845947265625,454.3155517578125,455.9611206054688
13255,421.4343566894531,-1206.213134765625,455.99853515625,465.2472839355469
13256,427.3546142578125,-1195.049560546875,463.8261413574219,468.3102722167969
13257,433.0093688964844,-1193.7928466796875,462.81634521484375,460.1685180664063
13258,437.0148010253906,-1206.05224609375,454.35296630859375,460.5724182128906
13259,424.4300231933594,-1202.8397216796875,454.7643432617188,459.0353088378906
13260,428.0352783203125,-1201.5382080078125,459.9590759277344,461.6906433105469
13261,424.2654724121094,-1208.4608154296875,461.2381286621094,464.7984924316406
13262,420.7911071777344,-1211.71826171875,449.3527221679688,459.1998901367188
13263,406.1456604003906,-1206.5496826171875,451.4283752441406,457.2775573730469
13264,422.8442993164063,-1194.2230224609375,461.668212890625,466.5113830566406
13265,418.8949890136719,-1198.1124267578125,455.1607971191406,458.3060302734375
13266,417.2718505859375,-1203.666259765625,449.9230651855469,457.42529296875
13267,417.8926696777344,-1198.759521484375,451.85284423828125,457.6908264160156
13268,425.8474426269531,-1199.7506103515625,457.52252197265625,457.69830322265625
13269,427.6575622558594,-1197.91796875,450.15118408203125,455.2524108886719
13270,409.79205322265625,-1207.1705322265625,455.125244140625,461.2661743164063
13271,421.22119140625,-1203.7110595703125,459.0895385742188,461.4905700683594
13272,429.4714050292969,-1193.4974365234375,454.4819946289063,452.68682861328125
13273,419.9608459472656,-1203.669921875,457.1373291015625,455.0915832519531
13274,426.03070068359375,-1208.8048095703125,456.146240234375,453.88360595703125
13275,422.5675659179688,-1210.1512451171875,453.6891479492188,452.35772705078125
13276,420.78363037109375,-1204.092529296875,461.5317077636719,458.0610656738281
13277,420.3834533691406,-1206.343994140625,448.8347473144531,458.4761962890625
13278,420.046875,-1218.85400390625,440.18060302734375,452.8065185546875
13279,422.3394165039063,-1210.285888671875,446.0971374511719,459.4897155761719
13280,421.34088134765625,-1202.6153564453125,445.8615112304688,454.2987365722656
13281,410.19970703125,-1203.0303955078125,441.1903991699219,456.9952087402344
13282,408.7860107421875,-1211.35546875,436.47064208984375,450.4354248046875
13283,421.9355163574219,-1202.9781494140625,445.56231689453125,457.8067626953125
13284,426.6777038574219,-1203.2286376953125,443.89434814453125,455.2411804199219
13285,426.6777038574219,-1192.3680419921875,447.94091796875,456.755859375
13286,425.8848571777344,-1215.55908203125,448.0269165039063,454.7475280761719
13287,425.3350830078125,-1218.34912109375,448.0792846679688,456.3519287109375
13288,432.43341064453125,-1207.4322509765625,463.0426330566406,458.681884765625
13289,431.0907897949219,-1207.1331787109375,457.2457885742188,455.93682861328125
13290,407.9183654785156,-1209.2984619140625,450.16241455078125,452.9374084472656
13291,432.7999267578125,-1212.0098876953125,456.8081970214844,459.1007690429688
13292,418.2554626464844,-1205.076171875,457.1373291015625,448.95068359375
13293,420.9780883789063,-1205.7156982421875,457.8030090332031,455.0915832519531
13294,414.5641784667969,-1212.6943359375,453.2403564453125,452.5933532714844
13295,419.3325500488281,-1214.7288818359375,451.9949645996094,450.6373901367188
13296,429.1011657714844,-1206.55712890625,463.09124755859375,455.5927429199219
13297,430.1707763671875,-1203.52783203125,455.4580993652344,448.4009094238281
13298,423.94757080078125,-1211.8603515625,451.7593383789063,454.7512512207031
13299,422.2833251953125,-1213.7564697265625,447.27520751953125,450.8542785644531
13300,431.0533752441406,-1205.46142578125,457.4365234375,453.5245666503906
13301,426.5542907714844,-1210.0240478515625,452.0548095703125,455.4730529785156
13302,418.0422668457031,-1216.322021484375,447.6192626953125,456.26593017578125
13303,408.7224426269531,-1211.21337890625,444.4141845703125,456.8867492675781
13304,419.20166015625,-1202.843505859375,454.7737121582031,457.4365234375
13305,428.95904541015625,-1199.746826171875,455.3795776367188,458.1545715332031
13306,422.52642822265625,-1217.8853759765625,446.6655883789063,453.7676696777344
13307,417.2980346679688,-1209.1190185546875,451.1347961425781,455.4730529785156
13308,433.5591125488281,-1204.9752197265625,460.5892639160156,459.11572265625
13309,419.58685302734375,-1206.990966796875,456.8755187988281,455.57403564453125
13310,419.5943298339844,-1211.273193359375,453.2964477539063,459.5458068847656
13311,423.83538818359375,-1216.037841796875,460.2227478027344,469.0152587890625
13312,427.7286071777344,-1208.4345703125,460.9931640625,454.5343627929688
13313,422.148681640625,-1211.392822265625,454.3810119628906,453.9696350097656
13314,422.4778137207031,-1221.498046875,449.6238708496094,459.5757446289063
13315,418.5995178222656,-1220.4434814453125,449.3508605957031,464.4226379394531
13316,425.64923095703125,-1207.66796875,458.2106628417969,464.38525390625
13317,427.4630737304688,-1212.6082763671875,449.6388244628906,456.3968200683594
13318,416.63232421875,-1220.4583740234375,443.269775390625,464.1907653808594
13319,402.4169616699219,-1213.8873291015625,444.7320861816406,460.98193359375
13320,419.1343383789063,-1199.735595703125,451.2731628417969,462.0515441894531
13321,411.3441162109375,-1208.7413330078125,456.8979797363281,463.7232971191406
13322,414.2238464355469,-1215.20751953125,450.28955078125,465.6792602539063
13323,406.1344299316406,-1209.889404296875,447.94464111328125,465.9073791503906
13324,420.963134765625,-1205.6109619140625,458.2742614746094,471.1619567871094
13325,421.95794677734375,-1210.3382568359375,454.7737121582031,468.0840148925781
13326,405.51361083984375,-1213.21044921875,441.1305541992188,467.7698669433594
13327,417.4513854980469,-1212.3427734375,449.186279296875,466.0083618164063
13328,427.3022766113281,-1209.0255126953125,452.578369140625,467.1378173828125
13329,434.4828796386719,-1212.4326171875,452.72796630859375,461.4082946777344
13330,417.72064208984375,-1224.8939208984375,439.2643432617188,456.5015258789063
13331,427.9829406738281,-1222.1114501953125,444.8442687988281,459.2017517089844
13332,421.9617004394531,-1214.597900390625,452.5372314453125,458.6033630371094
13333,428.73089599609375,-1209.32470703125,456.8979797363281,459.5196228027344
13334,420.2525634765625,-1220.5631103515625,445.23321533203125,458.6706848144531
13335,430.45501708984375,-1210.547607421875,455.6114501953125,461.9767456054688
13336,413.3861083984375,-1205.895263671875,461.6925048828125,468.9367065429688
13337,423.0238342285156,-1211.0225830078125,460.8622741699219,468.27099609375
13338,414.5417175292969,-1221.7486572265625,450.4354248046875,467.66888427734375
13339,409.8294677734375,-1211.2095947265625,452.19317626953125,462.01788330078125
13340,417.6458435058594,-1203.864501953125,460.6266479492188,472.8224487304688
13341,423.3865966796875,-1207.6978759765625,455.828369140625,470.3092346191406
13342,415.19622802734375,-1217.6983642578125,448.0493774414063,472.08197021484375
13343,414.6539306640625,-1218.3714599609375,451.8677978515625,477.860107421875
13344,420.8023376464844,-1217.7020263671875,457.2794494628906,475.6722717285156
13345,431.468505859375,-1217.4066162109375,453.6330261230469,469.4341125488281
13346,411.396484375,-1222.1973876953125,454.9419860839844,469.1199645996094
13347,418.07220458984375,-1221.8907470703125,453.7975769042969,475.56005859375
13348,449.93988037109375,-1218.2705078125,461.90570068359375,473.72003173828125
13349,406.9945983886719,-1211.953857421875,452.3801574707031,470.85528564453125
13350,407.1517028808594,-1218.1434326171875,448.8459777832031,471.0347900390625
13351,417.5224304199219,-1215.8695068359375,449.65753173828125,472.2951354980469
13352,419.29888916015625,-1211.62841796875,453.9434509277344,469.1236877441406
13353,420.1104431152344,-1204.5526123046875,455.45062255859375,468.4542541503906
13354,414.61651611328125,-1210.5289306640625,446.2916259765625,466.1542053222656
13355,419.20166015625,-1208.890869140625,452.0323486328125,469.2732849121094
13356,417.3877868652344,-1202.338623046875,450.3905334472656,465.0135498046875
13357,421.2847595214844,-1206.7890625,452.6083068847656,464.56103515625
13358,419.2652282714844,-1207.881103515625,444.75823974609375,464.4189147949219
13359,419.1418151855469,-1208.4383544921875,437.2672424316406,460.8248596191406
13360,436.8053588867188,-1203.082763671875,456.6698303222656,470.3877868652344
13361,415.4580078125,-1212.787841796875,451.6920166015625,467.0742492675781
13362,413.3000793457031,-1221.4195556640625,446.9311218261719,464.5572814941406
13363,422.5189514160156,-1209.96044921875,449.186279296875,467.1378173828125
13364,424.1869201660156,-1218.1583251953125,457.58984375,477.2318115234375
13365,427.0479431152344,-1213.0533447265625,455.6002197265625,462.2759399414063
13366,418.3788757324219,-1232.8897705078125,445.7717590332031,463.4614868164063
13367,421.8943786621094,-1225.742919921875,448.44952392578125,457.7581481933594
13368,425.035888671875,-1219.583251953125,463.3717346191406,467.45196533203125
13369,424.5683898925781,-1220.9371337890625,458.2144165039063,463.8317565917969
13370,425.6529846191406,-1230.5150146484375,460.7425842285156,472.41107177734375
13371,423.8877258300781,-1234.722412109375,454.960693359375,469.63232421875
13372,431.5545349121094,-1233.2525634765625,461.0305480957031,471.6144714355469
13373,421.82330322265625,-1217.7918701171875,460.8472900390625,466.1130676269531
13374,413.99945068359375,-1235.5377197265625,446.8301696777344,461.849609375
13375,424.7703552246094,-1230.1484375,453.4161071777344,468.1101989746094
13376,432.4783020019531,-1216.39306640625,455.91436767578125,468.2560424804688
13377,421.150146484375,-1221.54296875,448.0157165527344,465.81390380859375
13378,410.8317565917969,-1225.204345703125,451.3816223144531,468.869384765625
13379,415.7796325683594,-1228.1588134765625,451.0562438964844,462.5788879394531
13380,424.8675842285156,-1210.5850830078125,460.0058288574219,471.5995178222656
13381,439.08294677734375,-1218.573486328125,458.4986572265625,466.3748779296875
13382,406.2391662597656,-1220.4134521484375,450.3306884765625,469.2583312988281
13383,413.70025634765625,-1223.0576171875,453.6779174804688,471.4798278808594
13384,419.9010009765625,-1210.2371826171875,460.2002868652344,476.7605895996094
13385,426.2476196289063,-1222.481689453125,461.0941467285156,468.9703674316406
13386,407.1778564453125,-1223.607421875,450.1474609375,472.7738342285156
13387,411.8228149414063,-1221.48681640625,458.64825439453125,479.374755859375
13388,424.6319885253906,-1216.80078125,456.4342346191406,469.7744445800781
13389,421.06036376953125,-1218.7529296875,457.7955322265625,469.6734619140625
13390,416.9539794921875,-1224.9200439453125,444.0140075683594,470.5224304199219
13391,424.04107666015625,-1218.78662109375,451.4377136230469,470.87396240234375
13392,416.1199645996094,-1216.531494140625,455.9742126464844,470.7056884765625
13393,426.1690673828125,-1219.560791015625,457.5412292480469,472.272705078125
13394,416.50518798828125,-1226.1617431640625,451.9687805175781,466.8685302734375
13395,417.9786987304688,-1227.093017578125,451.18341064453125,473.94818115234375
13396,424.1083984375,-1224.0037841796875,458.7828674316406,475.40673828125
13397,429.58734130859375,-1214.885986328125,462.8369140625,479.1242065429688
13398,426.87591552734375,-1233.6302490234375,456.9839782714844,475.6759948730469
13399,422.2758483886719,-1230.81787109375,461.9804992675781,487.7222290039063
13400,423.27813720703125,-1218.2855224609375,456.2883605957031,471.59576416015625
13401,423.2594299316406,-1223.0389404296875,449.7659912109375,470.0773620605469
13402,423.77178955078125,-1226.1505126953125,446.7217102050781,469.561279296875
13403,426.2775268554688,-1229.8941650390625,445.7979431152344,464.972412109375
13404,440.9005432128906,-1224.51611328125,454.4109191894531,468.4953918457031
13405,417.4962463378906,-1217.9713134765625,449.81085205078125,471.9697570800781
13406,410.40167236328125,-1217.77685546875,450.6747741699219,466.48333740234375
13407,415.0017395019531,-1215.8470458984375,450.5139465332031,471.59576416015625
13408,431.7041320800781,-1211.3853759765625,462.9229431152344,471.427490234375
13409,427.9567565917969,-1210.169921875,459.6280822753906,466.2439880371094
13410,416.5538024902344,-1223.622314453125,446.94610595703125,465.8512878417969
13411,411.9649353027344,-1218.034912109375,449.4518127441406,472.16796875
13412,426.748779296875,-1211.4227294921875,461.2698974609375,468.787109375
13413,419.1717224121094,-1215.555419921875,459.29150390625,467.78106689453125
13414,414.3023681640625,-1217.29443359375,455.2823181152344,467.9755554199219
13415,426.8983459472656,-1208.6177978515625,461.756103515625,471.7528381347656
13416,421.5540466308594,-1206.299072265625,463.8728942871094,471.7827758789063
13417,422.99017333984375,-1208.5467529296875,461.6962585449219,473.7275085449219
13418,422.7919616699219,-1215.14404296875,452.9486389160156,469.6846923828125
13419,404.2046508789063,-1213.1468505859375,458.1807556152344,470.6607971191406
13420,431.5807189941406,-1210.3270263671875,475.06640625,493.25726318359375
13421,413.4683837890625,-1208.2587890625,457.8254699707031,477.2318115234375
13422,410.3156433105469,-1220.80615234375,454.1080017089844,481.1250305175781
13423,407.7425842285156,-1223.094970703125,450.05767822265625,472.4821166992188
13424,427.5303955078125,-1213.8948974609375,458.1283874511719,480.3471374511719
13425,422.30950927734375,-1210.7532958984375,454.4894714355469,474.2548522949219
13426,412.29779052734375,-1228.0989990234375,450.6635437011719,476.3491821289063
13427,427.3359375,-1223.973876953125,454.2164611816406,469.9539489746094
13428,418.7827758789063,-1215.82470703125,460.4246826171875,471.8388671875
13429,418.9847412109375,-1215.379638671875,463.5213317871094,471.5509033203125
13430,409.5302734375,-1228.6038818359375,450.9403076171875,469.1760559082031
13431,424.1495361328125,-1216.0938720703125,464.8302917480469,472.6392211914063
13432,418.9847412109375,-1212.8065185546875,469.48272705078125,473.1814880371094
13433,430.9411926269531,-1208.703857421875,473.40216064453125,479.9806213378906
13434,425.6006164550781,-1220.450927734375,468.6001281738281,479.7936401367188
13435,419.0370788574219,-1219.123291015625,464.6694946289063,474.56524658203125
13436,424.8264465332031,-1212.271728515625,473.798583984375,478.36126708984375
13437,431.2067260742188,-1223.2259521484375,469.2919921875,476.9176635742188
13438,424.69183349609375,-1226.038330078125,461.2998352050781,472.7887878417969
13439,421.5914306640625,-1231.472412109375,453.2777404785156,469.4864807128906
13440,419.9720764160156,-1217.432861328125,460.9782104492188,471.1282958984375
13441,432.841064453125,-1224.609619140625,459.1119995117188,470.08111572265625
13442,417.2643737792969,-1228.693603515625,448.3335876464844,468.5215759277344
13443,422.8442993164063,-1231.7266845703125,447.7501831054688,461.7635803222656
13444,437.8712158203125,-1220.9744873046875,457.343017578125,463.5362854003906
13445,416.6211242675781,-1215.8433837890625,453.5582275390625,467.2649841308594
13446,415.47296142578125,-1221.0306396484375,442.2300720214844,457.96759033203125
13447,411.90509033203125,-1215.55908203125,445.9587707519531,459.4560546875
13448,433.6451416015625,-1195.90966796875,457.6534423828125,458.9474182128906
13449,426.550537109375,-1208.8310546875,463.8317565917969,464.1084899902344
13450,422.8929138183594,-1214.4146728515625,460.1404724121094,457.60107421875
13451,418.2778930664063,-1211.5537109375,461.6850280761719,462.8444213867188
13452,435.41412353515625,-1207.2415771484375,470.8478088378906,466.0382690429688
13453,435.5001220703125,-1217.081298828125,462.3918762207031,463.6335144042969
13454,410.21466064453125,-1227.235107421875,451.5050354003906,457.2121276855469
13455,416.2695617675781,-1228.0391845703125,460.31622314453125,466.6291809082031
13456,421.9766540527344,-1222.010498046875,462.8705749511719,471.4873046875
13457,428.2896118164063,-1225.76904296875,450.9627380371094,460.59674072265625
13458,418.5733337402344,-1232.16796875,454.6914367675781,469.62109375
13459,410.8990783691406,-1238.6605224609375,451.7032470703125,472.942138671875
13460,435.7319946289063,-1225.40625,463.03515625,473.1478271484375
13461,423.2332458496094,-1232.5943603515625,462.8668518066406,474.2510986328125
13462,427.7174072265625,-1237.6058349609375,461.4232482910156,473.447021484375
13463,429.0001831054688,-1238.9296875,461.4718627929688,469.6136169433594
13464,428.1624450683594,-1232.3699951171875,460.1441955566406,464.796630859375
13465,431.7565002441406,-1236.532470703125,460.4246826171875,457.77685546875
13466,425.29766845703125,-1238.9932861328125,464.5460510253906,467.6875915527344
13467,427.8632507324219,-1236.061279296875,460.7369689941406,463.1697692871094
13468,437.572021484375,-1229.359375,464.0879211425781,462.05902099609375
13469,424.5272521972656,-1229.60986328125,454.6297302246094,460.1666259765625
13470,425.67913818359375,-1231.3377685546875,453.0776672363281,454.9681701660156
13471,421.5802307128906,-1228.936767578125,451.5480346679688,453.3861999511719
13472,440.7397155761719,-1226.0794677734375,459.4691467285156,461.33721923828125
13473,425.2602844238281,-1225.9036865234375,461.48870849609375,466.7077331542969
13474,419.0595397949219,-1238.095703125,459.3158264160156,472.36993408203125
13475,418.3788757324219,-1231.8687744140625,458.287353515625,473.6452331542969
13476,431.7265625,-1224.3778076171875,471.8519592285156,474.3670349121094
13477,430.469970703125,-1227.6689453125,476.0069885253906,479.5318298339844
13478,434.1986389160156,-1236.427734375,474.6194763183594,483.4811706542969
13479,428.4653930664063,-1226.6329345703125,473.10107421875,482.0600280761719
13480,437.72161865234375,-1226.640380859375,474.9523315429688,473.2413330078125
13481,429.7705993652344,-1236.016357421875,471.2909851074219,468.9815979003906
13482,422.7508239746094,-1239.7525634765625,460.7893371582031,471.3526916503906
13483,423.7568359375,-1238.8026123046875,458.26116943359375,463.775634765625
13484,427.7884521484375,-1231.7117919921875,463.5680847167969,465.1968078613281
13485,428.3419494628906,-1223.6148681640625,464.4544372558594,466.8722839355469
13486,406.8263244628906,-1231.9136962890625,449.5883483886719,461.9543151855469
13487,418.685546875,-1227.0892333984375,450.5719299316406,462.7882995605469
13488,419.5232849121094,-1212.8177490234375,454.36419677734375,462.16748046875
13489,415.0877685546875,-1216.224853515625,452.8121337890625,460.35736083984375
13490,417.5074768066406,-1219.8114013671875,439.86083984375,461.0343017578125
13491,419.3886413574219,-1224.7779541015625,443.08837890625,462.8967590332031
13492,420.0992126464844,-1215.7274169921875,447.9128723144531,464.3328857421875
13493,420.4358215332031,-1222.679931640625,451.22265625,464.2169494628906
13494,415.74224853515625,-1233.4732666015625,445.30615234375,466.7152099609375
13495,423.2444763183594,-1233.0057373046875,451.9332580566406,468.869384765625
13496,417.417724609375,-1219.759033203125,462.3002624511719,475.6610412597656
13497,420.2974243164063,-1242.1236572265625,462.3039855957031,473.8359680175781
13498,419.7364501953125,-1236.4576416015625,457.9806823730469,482.1535034179688
13499,422.7769775390625,-1236.5810546875,460.5312805175781,483.0061950683594
13500,430.7504577636719,-1231.483642578125,454.9962158203125,472.6691284179688
13501,426.21771240234375,-1239.2962646484375,452.3857727050781,471.68927001953125
13502,410.3081665039063,-1252.8197021484375,447.2733459472656,470.406494140625
13503,419.4858703613281,-1247.1837158203125,446.9367370605469,468.0653076171875
13504,441.08380126953125,-1237.871337890625,460.3255920410156,470.571044921875
13505,414.7474365234375,-1239.640380859375,459.1662292480469,466.10186767578125
13506,422.840576171875,-1239.5655517578125,458.94183349609375,464.53857421875
13507,420.4058837890625,-1235.0028076171875,454.027587890625,466.75634765625
13508,427.2873229980469,-1222.130126953125,457.8310852050781,466.2252807617188
13509,425.9110412597656,-1225.993408203125,460.6734008789063,472.6466979980469
13510,415.2298583984375,-1224.9537353515625,450.4933776855469,475.4553527832031
13511,403.6661071777344,-1229.01904296875,448.72442626953125,475.40673828125
13512,417.9300842285156,-1216.81201171875,457.4907531738281,484.65924072265625
13513,412.58575439453125,-1216.565185546875,455.08599853515625,476.25567626953125
13514,403.9727783203125,-1231.072265625,446.48046875,476.2481994628906
13515,408.7224426269531,-1226.333740234375,449.6182556152344,481.0465087890625
13516,428.779541015625,-1223.2969970703125,457.0494384765625,481.1399841308594
13517,413.3038330078125,-1220.626708984375,462.4236755371094,483.5597229003906
13518,396.1750793457031,-1232.5345458984375,450.4784240722656,478.5183410644531
13519,401.2015075683594,-1227.08544921875,450.8150329589844,474.0229797363281
13520,412.6156921386719,-1214.8223876953125,460.8005676269531,479.80859375
13521,406.30645751953125,-1220.4471435546875,457.1578979492188,478.9970397949219
13522,404.5861206054688,-1228.9927978515625,444.6553955078125,474.6924133300781
13523,409.2796936035156,-1224.093505859375,444.3337707519531,471.04974365234375
13524,420.66021728515625,-1216.651123046875,452.8719787597656,471.592041015625
13525,414.4781494140625,-1218.85400390625,449.4275207519531,464.2955017089844
13526,414.6539306640625,-1224.9163818359375,443.11456298828125,461.4793395996094
13527,418.5396728515625,-1222.8182373046875,444.3188171386719,470.4251708984375
13528,423.3978271484375,-1219.609375,454.3753967285156,472.777587890625
13529,424.72174072265625,-1222.5826416015625,448.9637756347656,473.0281677246094
13530,409.5938415527344,-1236.9400634765625,445.9269714355469,473.8359680175781
13531,417.1484375,-1231.307861328125,448.8964538574219,477.0822143554688
13532,409.3245849609375,-1227.470703125,447.92034912109375,474.0903015136719
13533,414.2537536621094,-1230.1671142578125,439.8496398925781,470.20452880859375
13534,401.96820068359375,-1237.3851318359375,438.03204345703125,472.7887878417969
13535,407.1404724121094,-1232.669189453125,441.8130798339844,471.4761047363281
13536,409.07025146484375,-1228.84326171875,438.06195068359375,459.89361572265625
13537,407.3573913574219,-1226.1280517578125,442.09356689453125,467.2313232421875
13538,416.4490661621094,-1227.1153564453125,440.6799011230469,467.8147277832031
13539,404.7955627441406,-1228.14013671875,439.2662048339844,463.6971130371094
13540,405.1545715332031,-1217.694580078125,445.0256652832031,470.02874755859375
13541,414.3696899414063,-1218.6968994140625,446.2485961914063,467.0331115722656
13542,408.8608093261719,-1221.8646240234375,441.3306274414063,459.47100830078125
13543,408.0903930664063,-1216.06396484375,443.170654296875,468.4056396484375
13544,421.6774597167969,-1214.369873046875,452.5466003417969,463.09124755859375
13545,413.82366943359375,-1213.8050537109375,453.3282470703125,469.7183532714844
13546,413.60302734375,-1218.386474609375,446.8694152832031,463.55499267578125
13547,416.8380432128906,-1226.015869140625,446.5702209472656,471.909912109375
13548,424.7292175292969,-1214.433349609375,451.5405578613281,474.0042724609375
13549,415.4430541992188,-1215.45068359375,452.1015319824219,472.6429443359375
13550,411.8489990234375,-1226.14306640625,445.0630493164063,470.6009521484375
13551,409.7733459472656,-1225.4212646484375,443.9111633300781,477.37017822265625
13552,417.90765380859375,-1221.8758544921875,454.1622314453125,475.3843078613281
13553,434.4941101074219,-1223.59619140625,452.92431640625,474.16510009765625
13554,415.03912353515625,-1229.946533203125,451.2937316894531,472.6317138671875
13555,417.7655334472656,-1230.1558837890625,450.88232421875,479.7450256347656
13556,427.911865234375,-1217.892822265625,459.9067077636719,482.3928527832031
13557,418.6219482421875,-1218.5921630859375,454.5624084472656,476.158447265625
13558,410.8280029296875,-1223.7681884765625,444.872314453125,473.5480041503906
13559,395.5505065917969,-1220.3985595703125,444.3749084472656,471.7939758300781
13560,410.1697998046875,-1213.7078857421875,447.2508850097656,475.97894287109375
13561,404.6347351074219,-1209.406982421875,454.8017578125,478.4173583984375
13562,403.23974609375,-1220.14794921875,446.3570556640625,473.26751708984375
13563,406.9197998046875,-1214.2613525390625,449.120849609375,481.4092712402344
13564,424.1682434082031,-1208.6964111328125,454.9588317871094,473.4769592285156
13565,418.6556091308594,-1213.412353515625,455.91998291015625,478.4659729003906
13566,412.9186096191406,-1220.1292724609375,447.924072265625,474.61761474609375
13567,416.7594909667969,-1217.3018798828125,453.006591796875,477.9049987792969
13568,424.2654724121094,-1208.924560546875,457.3561096191406,482.8192138671875
13569,421.1613464355469,-1211.658447265625,453.61993408203125,486.3010559082031
13570,416.0751037597656,-1228.278564453125,445.541748046875,486.2337341308594
13571,420.43206787109375,-1223.9439697265625,446.1326599121094,486.77227783203125
13572,417.9413146972656,-1215.2598876953125,457.52813720703125,490.99462890625
13573,416.90533447265625,-1215.5179443359375,451.0169677734375,484.26654052734375
13574,405.9324951171875,-1221.4420166015625,447.3331604003906,488.5450134277344
13575,414.4295349121094,-1219.609375,452.0603942871094,490.3700866699219
13576,418.2068176269531,-1213.1431884765625,460.1759948730469,491.6154479980469
13577,425.2378540039063,-1219.287841796875,463.2314758300781,492.7598571777344
13578,409.9640808105469,-1222.2423095703125,458.6538391113281,493.4405212402344
13579,426.6328125,-1218.9923095703125,464.8134765625,492.8271789550781
13580,419.34375,-1215.2412109375,459.0689697265625,483.3128662109375
13581,415.3570251464844,-1215.6226806640625,461.2418518066406,479.35980224609375
13582,408.6252136230469,-1213.4984130859375,451.4059143066406,478.2341003417969
13583,422.7657775878906,-1210.0614013671875,449.4424743652344,470.7954406738281
13584,406.68792724609375,-1209.50048828125,456.95220947265625,474.7036437988281
13585,411.2693176269531,-1208.3187255859375,456.7689514160156,472.8822937011719
13586,419.19415283203125,-1214.8037109375,451.3947143554688,477.5571899414063
13587,401.3810119628906,-1211.32177734375,463.00335693359375,494.3829956054688
13588,416.47900390625,-1211.7630615234375,461.7953796386719,490.6505737304688
13589,413.1242980957031,-1215.1103515625,460.42657470703125,492.72247314453125
13590,405.3303527832031,-1224.796630859375,455.7741394042969,491.4321899414063
13591,400.5919189453125,-1229.3929443359375,448.54864501953125,489.6183471679688
13592,414.99798583984375,-1216.486572265625,447.6622924804688,481.4840698242188
13593,414.5118103027344,-1223.22216796875,450.8299865722656,488.4776916503906
13594,405.1658020019531,-1225.499755859375,442.66204833984375,482.03009033203125
13595,415.64874267578125,-1224.0599365234375,444.8087463378906,482.9239196777344
13596,413.9807434082031,-1209.8819580078125,444.9284057617188,475.8517761230469
13597,431.5545349121094,-1201.9346923828125,456.1556091308594,481.6261901855469
13598,389.9182434082031,-1219.8001708984375,440.9416809082031,467.2836608886719
13599,407.0058288574219,-1213.6368408203125,442.1870727539063,472.9496154785156
13600,415.386962890625,-1204.8929443359375,455.8825988769531,476.6147155761719
13601,406.385009765625,-1216.5501708984375,455.1794738769531,483.7355041503906
13602,405.2593078613281,-1216.553955078125,452.36334228515625,482.8229675292969
13603,412.5633239746094,-1217.1822509765625,458.1265258789063,491.3200073242188
13604,422.8330993652344,-1222.3956298828125,462.0272521972656,488.44775390625
13605,404.7244873046875,-1216.5987548828125,459.1961364746094,501.4364318847656
13606,405.88385009765625,-1225.226806640625,451.2825012207031,492.6364440917969
13607,412.81390380859375,-1217.7581787109375,457.5430908203125,501.5747985839844
13608,419.448486328125,-1214.4521484375,461.9449768066406,499.1737976074219
13609,409.4031066894531,-1215.22998046875,459.5963134765625,496.0734252929688
13610,404.2831726074219,-1223.973876953125,442.677001953125,495.0299987792969
13611,402.136474609375,-1219.6617431640625,442.0673828125,491.19659423828125
13612,416.8305358886719,-1222.907958984375,448.615966796875,489.7604675292969
13613,413.4683837890625,-1220.1778564453125,445.2986755371094,480.4256896972656
13614,406.7215881347656,-1220.357421875,436.9437255859375,475.8517761230469
13615,406.2877807617188,-1217.3841552734375,435.7881164550781,478.82501220703125
13616,421.9766540527344,-1206.388916015625,446.8282775878906,477.6918029785156
13617,411.9537048339844,-1210.8580322265625,443.1407470703125,474.7111206054688
13618,405.188232421875,-1214.90087890625,433.2935791015625,470.1484375
13619,410.6896362304688,-1213.1580810546875,443.68304443359375,478.8175354003906
13620,418.5733337402344,-1206.130859375,457.3224487304688,489.1695556640625
13621,411.6994018554688,-1217.365478515625,436.65948486328125,479.0905456542969
13622,394.8175048828125,-1220.2003173828125,435.6646728515625,480.911865234375
13623,406.0783386230469,-1219.934814453125,434.2135925292969,479.9095764160156
13624,413.3935852050781,-1215.959228515625,443.1744079589844,483.73175048828125
13625,419.2876586914063,-1211.482666015625,448.5823059082031,482.3031005859375
13626,399.5260314941406,-1222.376953125,443.1183166503906,484.3488464355469
13627,405.9923095703125,-1219.5009765625,447.02276611328125,489.0124816894531
13628,408.5018005371094,-1213.4871826171875,452.9131164550781,488.47021484375
13629,417.6495971679688,-1212.9112548828125,460.1722412109375,490.0185241699219
13630,412.8662414550781,-1222.8070068359375,444.6890563964844,482.9014892578125
13631,406.0372009277344,-1221.0081787109375,452.8569946289063,491.3387145996094
13632,407.2863159179688,-1225.1220703125,452.69244384765625,484.1506042480469
13633,411.7442932128906,-1220.95947265625,455.1233825683594,488.5337829589844
13634,416.725830078125,-1225.840087890625,448.3354797363281,490.0933227539063
13635,401.58673095703125,-1219.373779296875,451.94073486328125,493.6462097167969
13636,408.8234252929688,-1224.269287109375,449.4162902832031,478.4696960449219
13637,411.45257568359375,-1216.6324462890625,453.4441833496094,483.4924011230469
13638,399.80279541015625,-1226.5281982421875,436.50616455078125,478.9596252441406
13639,401.115478515625,-1225.7615966796875,438.099365234375,484.8462524414063
13640,411.94622802734375,-1211.7855224609375,446.9442138671875,486.499267578125
13641,409.2535095214844,-1208.57666015625,444.7937927246094,477.0298461914063
13642,400.775146484375,-1224.6021728515625,440.904296875,479.5131530761719
13643,413.82366943359375,-1216.310791015625,444.06451416015625,486.8695373535156
13644,411.8452758789063,-1215.136474609375,454.2893981933594,490.3663330078125
13645,410.2632751464844,-1215.5927734375,446.4056701660156,480.8370666503906
13646,397.5177001953125,-1220.8173828125,445.22760009765625,487.98028564453125
13647,411.12347412109375,-1228.353271484375,444.9957275390625,484.9808654785156
13648,403.8418884277344,-1213.3077392578125,452.8196105957031,490.20550537109375
13649,409.07025146484375,-1223.9925537109375,446.84698486328125,487.2809143066406
13650,406.7178649902344,-1229.01904296875,441.22216796875,480.066650390625
13651,412.5520935058594,-1218.7117919921875,444.8760681152344,479.1765441894531
13652,415.23736572265625,-1212.3839111328125,449.977294921875,476.7044677734375
13653,420.9780883789063,-1220.3985595703125,450.3849182128906,480.4368896484375
13654,408.3821105957031,-1227.0892333984375,447.36309814453125,481.6822814941406
13655,405.0386352539063,-1226.2177734375,445.1079406738281,481.932861328125
13656,412.148193359375,-1216.1986083984375,453.9752502441406,483.892578125
13657,425.17425537109375,-1218.670654296875,462.8612365722656,488.8890686035156
13658,406.5682678222656,-1216.0003662109375,455.1159057617188,486.6900024414063
13659,416.9614562988281,-1218.880126953125,453.698486328125,483.9935302734375
13660,420.38720703125,-1213.1917724609375,451.6901550292969,479.7712097167969
13661,404.9002685546875,-1207.31640625,450.1829833984375,484.8649291992188
13662,410.622314453125,-1219.175537109375,440.6424865722656,481.263427734375
13663,411.28802490234375,-1213.0421142578125,447.254638671875,491.7762756347656
13664,405.1919860839844,-1213.7490234375,454.0724792480469,490.2877807617188
13665,418.8201904296875,-1231.6929931640625,458.7510986328125,494.6223449707031
13666,416.1349182128906,-1238.6529541015625,448.5860290527344,488.9601440429688
13667,413.674072265625,-1241.37939453125,447.4678039550781,488.0550842285156
13668,426.5075378417969,-1238.56884765625,456.1499938964844,486.170166015625
13669,430.2960510253906,-1241.7440185546875,461.35968017578125,487.5240173339844
13670,410.2501831054688,-1244.029052734375,451.82666015625,485.4558410644531
13671,418.0179748535156,-1246.7705078125,455.7124328613281,489.01995849609375
13672,427.143310546875,-1226.4029541015625,460.2676086425781,487.0827026367188
13673,423.60162353515625,-1226.4627685546875,456.3294982910156,483.1744995117188
13674,420.9537963867188,-1226.148681640625,445.58477783203125,478.61181640625
13675,398.7425231933594,-1220.1348876953125,449.6163940429688,483.7541809082031
13676,417.67388916015625,-1211.619140625,454.1304321289063,477.0223693847656
13677,408.06982421875,-1211.4732666015625,447.53326416015625,482.93890380859375
13678,404.1429443359375,-1221.9561767578125,433.5385437011719,466.77130126953125
13679,402.9536437988281,-1213.863037109375,438.3106689453125,473.117919921875
13680,407.4864196777344,-1215.314208984375,439.9562072753906,474.4343566894531
13681,414.1097717285156,-1215.972412109375,434.89239501953125,470.70941162109375
13682,401.0986633300781,-1217.3897705078125,429.1479187011719,468.67864990234375
13683,413.1261901855469,-1223.4820556640625,436.5603942871094,474.6101379394531
13684,419.5176696777344,-1204.8873291015625,447.32757568359375,475.1412048339844
13685,418.4069213867188,-1221.0286865234375,439.6682434082031,467.3509826660156
13686,423.3361206054688,-1217.6964111328125,447.7314758300781,474.75225830078125
13687,409.700439453125,-1219.977783203125,435.4159851074219,467.33978271484375
13688,419.3381652832031,-1216.89990234375,448.9132690429688,478.7502136230469
13689,418.0516357421875,-1211.2489013671875,455.2037963867188,480.4593505859375
13690,411.6975402832031,-1227.4688720703125,448.4009094238281,477.1719665527344
13691,431.5975341796875,-1219.285888671875,457.5674133300781,489.33038330078125
13692,422.5282897949219,-1206.749755859375,454.7886657714844,481.4953002929688
13693,427.5135803222656,-1218.2947998046875,464.1496276855469,490.9796752929688
13694,406.3981018066406,-1224.9930419921875,444.021484375,471.2928466796875
13695,415.803955078125,-1223.8074951171875,450.3643493652344,478.353759765625
13696,417.98431396484375,-1215.5347900390625,453.2964477539063,478.6567077636719
13697,411.1253356933594,-1219.944091796875,448.8908386230469,468.9479370117188
13698,413.8404846191406,-1218.4818115234375,447.7351989746094,473.5928955078125
13699,418.5452880859375,-1226.1187744140625,445.6745300292969,470.7916870117188
13700,404.25140380859375,-1217.49072265625,452.5185546875,474.0155029296875
13701,417.1502990722656,-1222.1917724609375,453.7639465332031,470.2269592285156
13702,408.92626953125,-1228.8338623046875,444.59368896484375,478.5669555664063
13703,405.54541015625,-1226.07763671875,448.4046630859375,481.8692932128906
13704,420.0786437988281,-1223.650390625,450.4616088867188,476.0350341796875
13705,420.8939514160156,-1227.266845703125,456.1125793457031,484.1954956054688
13706,414.5361328125,-1237.992919921875,449.4219055175781,478.3313293457031
13707,418.4256286621094,-1223.7288818359375,454.0032958984375,479.1990051269531
13708,429.7911682128906,-1223.4559326171875,455.9443054199219,473.0057067871094
13709,410.71392822265625,-1222.2254638671875,447.48089599609375,468.0690612792969
13710,403.3239135742188,-1216.1893310546875,440.9211120605469,466.4945373535156
13711,412.2547912597656,-1211.9893798828125,451.16094970703125,479.03070068359375
13712,419.2259521484375,-1207.1761474609375,448.0531005859375,474.44183349609375
13713,416.8922729492188,-1197.3065185546875,453.5507507324219,473.3049011230469
13714,409.0010681152344,-1209.7529296875,445.2706298828125,479.1316833496094
13715,404.7637634277344,-1215.6170654296875,442.52178955078125,477.7105102539063
13716,413.9676513671875,-1208.3916015625,453.07952880859375,473.5330505371094
13717,423.0444030761719,-1205.190185546875,459.7328186035156,478.17425537109375
13718,411.4619140625,-1218.9942626953125,456.5052795410156,479.30743408203125
13719,414.3528747558594,-1218.3172607421875,459.2727966308594,484.7303161621094
13720,421.7391662597656,-1211.0767822265625,461.2362365722656,484.58819580078125
13721,422.84991455078125,-1207.8642578125,462.6686401367188,470.6047058105469
13722,403.73529052734375,-1216.7652587890625,451.239501953125,473.8771057128906
13723,415.3102722167969,-1215.7442626953125,450.828125,470.2606201171875
13724,420.9201354980469,-1204.763916015625,456.4267272949219,465.4585876464844
13725,420.7817687988281,-1205.5941162109375,450.7159118652344,463.0014953613281
13726,420.64337158203125,-1210.295166015625,446.3851013183594,460.2788391113281
13727,401.1809387207031,-1214.8916015625,438.2882385253906,459.7776794433594
13728,414.58099365234375,-1204.53955078125,446.4524230957031,468.3233642578125
13729,417.7861022949219,-1223.4896240234375,450.46533203125,472.8224487304688
13730,410.7887268066406,-1223.99072265625,448.3149108886719,472.85986328125
13731,411.6339721679688,-1214.5474853515625,447.58935546875,475.45159912109375
13732,417.22509765625,-1211.185302734375,456.39306640625,481.51025390625
13733,413.5263366699219,-1205.620361328125,454.4109191894531,473.9556579589844
13734,402.41510009765625,-1213.1151123046875,444.6385803222656,467.5753784179688
13735,403.2042236328125,-1205.1865234375,442.8546447753906,472.23529052734375
13736,416.0358276367188,-1206.136474609375,453.96588134765625,470.49249267578125
13737,408.6570129394531,-1204.236572265625,453.1543273925781,463.6671752929688
13738,414.5548095703125,-1211.8697509765625,450.9178771972656,465.1407165527344
13739,413.43658447265625,-1211.7724609375,444.27581787109375,472.9084777832031
13740,403.2378845214844,-1199.086669921875,449.7398071289063,464.9387512207031
13741,410.05572509765625,-1193.7386474609375,444.98638916015625,457.31683349609375
13742,407.9389343261719,-1210.4261474609375,441.6690979003906,456.68853759765625
13743,411.7087707519531,-1209.2218017578125,441.71771240234375,459.033447265625
13744,435.300048828125,-1205.2650146484375,452.4288024902344,460.9333190917969
13745,423.1266784667969,-1211.58544921875,448.6552429199219,457.26446533203125
13746,406.74591064453125,-1217.1953125,445.0237731933594,457.2906494140625
13747,416.31256103515625,-1221.469970703125,443.5614929199219,463.9701232910156
13748,402.0186767578125,-1212.9991455078125,444.5675048828125,462.5078125
13749,426.25323486328125,-1209.483642578125,442.1440734863281,465.8363342285156
13750,401.12109375,-1208.1971435546875,438.8641662597656,466.93585205078125
13751,411.70501708984375,-1203.907470703125,439.1371765136719,471.6705627441406
13752,397.41485595703125,-1197.0634765625,442.1403198242188,464.8489990234375
13753,416.0283508300781,-1192.7513427734375,444.9676818847656,470.73187255859375
13754,409.70416259765625,-1202.2806396484375,446.7852783203125,477.5534362792969
13755,402.5011291503906,-1201.6260986328125,447.3013916015625,472.27642822265625
13756,407.4302978515625,-1190.6270751953125,454.6390686035156,472.3362731933594
13757,413.9489440917969,-1211.196533203125,450.2671203613281,469.5538024902344
13758,404.5244140625,-1211.9482421875,447.002197265625,472.17919921875
13759,413.4440612792969,-1219.110107421875,450.6710205078125,473.622802734375
13760,417.3335571289063,-1208.0625,455.7722473144531,472.3624572753906
13761,432.5661926269531,-1222.7977294921875,453.21417236328125,466.4496765136719
13762,407.8005676269531,-1231.59765625,452.04730224609375,468.5328063964844
13763,411.0093994140625,-1223.2689208984375,445.24444580078125,463.5325622558594
13764,421.555908203125,-1211.7088623046875,451.9538269042969,464.65826416015625
13765,429.37603759765625,-1213.6087646484375,456.2995910644531,464.30670166015625
13766,416.7538757324219,-1216.15185546875,445.7156677246094,465.3800659179688
13767,415.441162109375,-1222.7266845703125,450.52142333984375,470.4700622558594
13768,416.5182800292969,-1212.767333984375,454.55303955078125,470.4476318359375
13769,421.7803039550781,-1217.7152099609375,453.3824768066406,478.4098815917969
13770,402.2467956542969,-1223.698974609375,435.8946838378906,461.146484375
13771,414.2593688964844,-1221.877685546875,444.39923095703125,467.7511596679688
13772,413.5226135253906,-1207.8568115234375,452.2829284667969,477.32904052734375
13773,412.7185363769531,-1208.8179931640625,447.5556945800781,466.9208984375
13774,411.1290588378906,-1212.5428466796875,444.7470397949219,467.99798583984375
13775,408.48870849609375,-1210.79638671875,445.8390808105469,463.8354797363281
13776,422.6180419921875,-1203.2342529296875,454.1341857910156,465.6343688964844
13777,414.92132568359375,-1204.3338623046875,451.4377136230469,468.0503540039063
13778,408.4400939941406,-1210.153076171875,446.7104797363281,464.4263916015625
13779,406.5888366699219,-1213.5078125,441.9757690429688,465.9410400390625
13780,422.247802734375,-1209.087158203125,449.33587646484375,469.5724792480469
13781,414.6370849609375,-1213.522705078125,446.1943664550781,464.27679443359375
13782,409.50970458984375,-1222.3414306640625,448.0044860839844,470.1334838867188
13783,414.7530212402344,-1221.4476318359375,442.3796691894531,464.26556396484375
13784,424.8133544921875,-1216.70166015625,453.30767822265625,472.272705078125
13785,423.0032653808594,-1216.5595703125,453.7227783203125,469.07135009765625
13786,413.92279052734375,-1225.7708740234375,450.7495727539063,467.0817260742188
13787,418.0030212402344,-1227.0013427734375,448.528076171875,471.8725280761719
13788,417.0904846191406,-1212.655029296875,457.9264526367188,481.1100769042969
13789,405.8408508300781,-1217.68896484375,454.1603698730469,475.83306884765625
13790,407.4078674316406,-1216.312744140625,454.2875061035156,482.9875183105469
13791,408.2755432128906,-1215.796630859375,448.4270935058594,469.7071228027344
13792,427.74169921875,-1212.673828125,460.394775390625,479.3261413574219
13793,403.6903991699219,-1207.3406982421875,449.2424011230469,468.0017395019531
13794,407.13861083984375,-1209.85009765625,450.9627380371094,467.8072509765625
13795,419.8430480957031,-1210.9459228515625,453.13189697265625,464.5460510253906
13796,413.40667724609375,-1210.4747314453125,451.3965759277344,469.68841552734375
13797,420.4302062988281,-1207.7259521484375,443.0752868652344,469.6136169433594
13798,417.7599182128906,-1223.1492919921875,441.8186950683594,465.136962890625
13799,413.17852783203125,-1221.1484375,441.074462890625,466.0345458984375
13800,419.12872314453125,-1221.3690185546875,445.0050964355469,472.9047546386719
13801,434.6979064941406,-1217.5767822265625,447.6492004394531,475.6161804199219
13802,424.1663513183594,-1229.05078125,438.5387878417969,470.0923461914063
13803,412.2884521484375,-1228.5833740234375,437.7347106933594,467.003173828125
13804,422.6292724609375,-1217.3411865234375,448.7075805664063,473.5629577636719
13805,409.9435119628906,-1219.648681640625,453.094482421875,472.2913818359375
13806,415.12701416015625,-1224.6639404296875,444.4104309082031,471.6518859863281
13807,411.29736328125,-1229.2939453125,453.2627868652344,486.0579528808594
13808,428.4186401367188,-1214.5587158203125,455.1065673828125,473.01318359375
13809,450.2858276367188,-1222.2928466796875,458.1358642578125,472.16796875
13810,414.53985595703125,-1221.5074462890625,450.13995361328125,466.7451171875
13811,417.647705078125,-1225.819580078125,447.27520751953125,466.2140502929688
13812,423.586669921875,-1221.6046142578125,457.3617248535156,464.9088439941406
13813,428.61309814453125,-1226.058837890625,456.84185791015625,463.5811767578125
13814,419.29327392578125,-1235.99951171875,451.18341064453125,462.2123718261719
13815,428.2652893066406,-1232.031494140625,461.6962585449219,472.35870361328125
13816,434.8736877441406,-1238.5164794921875,458.7005920410156,470.9712219238281
13817,427.1470642089844,-1237.5628662109375,456.4267272949219,476.7867431640625
13818,424.60394287109375,-1242.2340087890625,448.5056457519531,471.0983581542969
13819,421.8476257324219,-1252.5186767578125,452.6157836914063,481.57757568359375
13820,428.4186401367188,-1243.677490234375,458.1957092285156,482.24700927734375
13821,442.36846923828125,-1245.072509765625,447.8548889160156,469.5276184082031
13822,412.4380493164063,-1253.864990234375,447.2939147949219,471.9847106933594
13823,422.8050537109375,-1243.3746337890625,451.2993469238281,477.95361328125
13824,430.81964111328125,-1248.4796142578125,454.7475280761719,474.3146667480469
13825,430.7560729980469,-1243.8121337890625,455.3459167480469,472.3026123046875
13826,430.5989990234375,-1269.2435302734375,453.5806884765625,478.8773498535156
13827,428.164306640625,-1254.4110107421875,458.7641906738281,480.231201171875
13828,438.2358703613281,-1248.1990966796875,470.4438781738281,483.799072265625
13829,429.5181579589844,-1242.667724609375,463.7158203125,472.35870361328125
13830,424.8133544921875,-1245.5101318359375,461.7897644042969,481.2746276855469
13831,424.9816589355469,-1236.6016845703125,458.6594543457031,483.7803649902344
13832,428.856201171875,-1229.7763671875,463.0874938964844,481.263427734375
13833,431.24224853515625,-1236.7811279296875,465.4249267578125,484.40118408203125
13834,419.9664611816406,-1236.5306396484375,464.2506103515625,486.5142211914063
13835,412.9391784667969,-1243.943115234375,457.9787902832031,484.7789306640625
13836,415.69921875,-1242.7052001953125,458.0947265625,469.2882690429688
13837,420.2656555175781,-1240.8389892578125,457.5786437988281,473.26751708984375
13838,421.20062255859375,-1240.977294921875,452.2380676269531,481.2073059082031
13839,420.8153991699219,-1241.1568603515625,452.1595153808594,482.3891296386719
13840,425.09759521484375,-1234.013671875,452.3614807128906,477.2392883300781
13841,431.0589904785156,-1233.25439453125,451.3816223144531,484.24786376953125
13842,419.28204345703125,-1246.762939453125,445.03125,474.3333740234375
13843,420.0225524902344,-1238.052734375,444.75823974609375,473.2338562011719
13844,428.5570068359375,-1231.0367431640625,453.6479797363281,472.1156311035156
13845,421.8177185058594,-1228.6094970703125,456.5763244628906,468.962890625
13846,419.71588134765625,-1231.3433837890625,455.9891662597656,472.8897705078125
13847,424.6376037597656,-1235.457275390625,462.6349792480469,487.4566955566406
13848,425.60247802734375,-1231.8819580078125,462.9117126464844,480.6575622558594
13849,424.4842529296875,-1227.091064453125,459.5196228027344,474.8569641113281
13850,421.3464660644531,-1238.7484130859375,456.0602416992188,474.41192626953125
13851,420.39654541015625,-1233.0225830078125,457.5000915527344,478.17425537109375
13852,427.7716369628906,-1236.8896484375,458.4238586425781,476.5287170410156
13853,428.2765197753906,-1235.6068115234375,462.3021240234375,480.2760925292969
13854,423.2052001953125,-1242.5406494140625,454.4819946289063,486.6451416015625
13855,424.091552734375,-1243.8720703125,451.85284423828125,482.4788818359375
13856,433.422607421875,-1237.091552734375,460.8173828125,480.16015625
13857,431.76959228515625,-1233.3890380859375,470.8889465332031,496.58203125
13858,424.1775817871094,-1247.2342529296875,460.6640319824219,490.0147705078125
13859,424.4356384277344,-1248.453369140625,468.2074279785156,495.97991943359375
13860,428.0521240234375,-1237.05419921875,465.5820007324219,484.5433044433594
13861,441.9234008789063,-1228.8450927734375,469.2658081054688,481.7720336914063
13862,422.8274841308594,-1239.473876953125,456.7409057617188,488.23834228515625
13863,421.720458984375,-1231.986572265625,450.3531494140625,476.2145385742188
13864,430.0006103515625,-1226.7882080078125,456.3669128417969,477.0111389160156
13865,436.06671142578125,-1224.248779296875,457.1896667480469,483.21563720703125
13866,422.18048095703125,-1236.4632568359375,442.7835998535156,467.8147277832031
13867,424.09906005859375,-1228.75537109375,451.32177734375,480.8669738769531
13868,431.4255065917969,-1225.6175537109375,453.63677978515625,477.2654724121094
13869,438.3013000488281,-1212.5260009765625,460.9146118164063,478.452880859375
13870,413.2552185058594,-1227.7548828125,456.5052795410156,480.3751831054688
13871,415.7384948730469,-1227.23876953125,461.322265625,483.4942626953125
13872,438.1405029296875,-1219.1494140625,470.6383666992188,493.9772033691406
13873,423.59228515625,-1226.367431640625,473.6676940917969,507.2426452636719
13874,415.8207702636719,-1218.5772705078125,458.3939208984375,484.391845703125
13875,419.9945068359375,-1218.4537353515625,460.4658203125,489.2275390625
13876,424.7554016113281,-1223.17724609375,460.02825927734375,466.9938354492188
13877,419.4410095214844,-1213.588134765625,459.373779296875,473.5610961914063
13878,424.60205078125,-1237.16455078125,459.4523315429688,477.4393615722656
13879,419.70654296875,-1207.739013671875,472.3325500488281,496.0191955566406
13880,421.72607421875,-1217.7581787109375,466.6965026855469,478.4790649414063
13881,425.2901916503906,-1231.58837890625,476.3641357421875,478.3668518066406
13882,429.7593688964844,-1232.3587646484375,469.0376892089844,467.947509765625
13883,434.14630126953125,-1234.39697265625,476.5025329589844,490.59259033203125
13884,418.9024658203125,-1222.799560546875,474.9130554199219,485.2295837402344
13885,427.0442199707031,-1234.6138916015625,477.8825378417969,492.9188232421875
13886,432.1903076171875,-1227.6502685546875,474.468017578125,494.51202392578125
13887,422.97894287109375,-1232.3101806640625,469.32940673828125,488.5132141113281
13888,419.6466979980469,-1233.0767822265625,471.2816162109375,486.5909118652344
13889,427.1190185546875,-1222.7135009765625,465.7428283691406,484.06646728515625
13890,416.97265625,-1228.2073974609375,459.7627258300781,490.2111206054688
13891,412.84381103515625,-1242.8641357421875,438.7818908691406,461.6981201171875
13892,422.4703063964844,-1228.914306640625,455.9517822265625,478.9390563964844
13893,431.62933349609375,-1207.7464599609375,469.5911865234375,486.6021118164063
13894,412.8737487792969,-1239.05322265625,444.9190673828125,455.8863220214844
13895,419.3848876953125,-1233.271240234375,447.9670715332031,463.5643310546875
13896,446.6749572753906,-1250.7216796875,479.2887573242188,491.505126953125
13897,421.3333740234375,-1209.044189453125,480.1339721679688,492.8814086914063
13898,406.8674621582031,-1243.8177490234375,455.2112731933594,465.71478271484375
13899,413.27764892578125,-1214.710205078125,453.58441162109375,465.9578857421875
13900,427.2760925292969,-1219.654296875,464.83404541015625,481.87115478515625
13901,421.5166320800781,-1218.5548095703125,464.5348510742188,483.2436828613281
13902,413.93212890625,-1233.447021484375,450.50274658203125,463.45587158203125
13903,423.5249633789063,-1248.683349609375,457.5299987792969,473.5835266113281
13904,440.75469970703125,-1204.489013671875,471.4611511230469,484.3020935058594
13905,441.24835205078125,-1248.2607421875,468.0727844238281,486.5534973144531
13906,415.89556884765625,-1245.7774658203125,449.8931274414063,472.48773193359375
13907,410.1847534179688,-1229.8829345703125,437.31585693359375,468.5271911621094
13908,411.5535583496094,-1226.980712890625,446.2130737304688,462.0683898925781
13909,451.1142272949219,-1285.4503173828125,491.26763916015625,521.07275390625
13910,430.6307678222656,-1266.391845703125,455.2262268066406,468.9946594238281
13911,450.12689208984375,-1292.1746826171875,471.921142578125,497.60491943359375
13912,409.6424560546875,-1182.281494140625,450.9365539550781,470.40460205078125
13913,423.8765258789063,-1227.65771484375,452.95611572265625,465.89056396484375
13914,409.0926818847656,-1287.6756591796875,437.6748962402344,442.9163513183594
13915,406.01849365234375,-1229.5164794921875,462.7322082519531,481.77392578125
13916,435.3019104003906,-1243.00244140625,488.0999450683594,510.4477233886719
13917,424.50482177734375,-1275.4385986328125,468.1588134765625,485.7494201660156
13918,434.3744201660156,-1216.0079345703125,454.2725524902344,478.2546691894531
13919,395.4233703613281,-1247.5240478515625,434.6605224609375,456.7651977539063
13920,440.9304504394531,-1297.4853515625,470.03997802734375,485.9700927734375
13921,432.0407104492188,-1336.1072998046875,472.953369140625,495.69757080078125
13922,412.08087158203125,-1211.437744140625,455.1813659667969,467.091064453125
13923,430.2492980957031,-1237.4561767578125,448.0157165527344,485.9812927246094
13924,493.83135986328125,-1381.6256103515625,488.5823974609375,499.4262390136719
13925,380.5497741699219,-1274.305419921875,413.70587158203125,409.3507385253906
13926,436.42388916015625,-1344.8997802734375,485.5755310058594,521.7684326171875
13927,464.1701965332031,-1250.2840576171875,488.47021484375,498.8615112304688
13928,394.9371643066406,-1274.6944580078125,432.1585388183594,423.3865966796875
13929,405.6445007324219,-1316.1025390625,448.8983154296875,459.1250915527344
13930,481.9010620117188,-1237.6319580078125,535.73876953125,569.8447875976562
13931,441.7195739746094,-1368.6070556640625,466.3636474609375,451.4844665527344
13932,514.5877685546875,-1297.89306640625,526.29931640625,526.7910766601561
13933,383.8184509277344,-1184.6937255859375,463.56622314453125,500.6641540527344
13934,478.8081665039063,-1016.0597534179688,521.0335083007811,536.671875
13935,447.0975646972656,-780.3413696289062,460.2339477539063,490.9628601074219
13936,387.3863220214844,-819.6663818359375,449.3695373535156,479.92266845703125
13937,526.248779296875,-988.8333129882812,545.0661010742189,559.6685180664061
13938,375.3775024414063,-751.9555053710938,400.4142456054688,405.7828979492188
13939,468.0783996582031,-754.0760498046875,481.0652160644531,496.2922058105469
13940,417.3055114746094,-790.0089721679688,467.0929260253906,479.75811767578125
13941,403.8194274902344,-881.7337646484375,437.94415283203125,457.0980529785156
13942,415.74224853515625,-744.9730834960938,434.2192077636719,426.9768981933594
13943,427.04046630859375,-783.7184448242188,487.6773376464844,494.9981994628906
13944,450.8935546875,-856.2538452148438,485.9083862304688,520.10791015625
13945,432.5680541992188,-857.4692993164062,481.36065673828125,477.443115234375
13946,400.962158203125,-838.956787109375,442.4058532714844,461.9449768066406
13947,449.4798889160156,-857.6974487304688,460.8099060058594,489.1751708984375
13948,406.14190673828125,-782.2000732421875,399.6251525878906,415.5103759765625
13949,441.0987548828125,-680.5421142578125,503.0408630371094,512.3662719726561
13950,377.54290771484375,-815.3954467773438,449.6238708496094,478.1462097167969
13951,462.8948974609375,-743.9259643554688,458.4649963378906,490.0578002929688
13952,477.40570068359375,-835.5609741210938,488.9002990722656,485.7943115234375
13953,372.3519287109375,-907.0117797851562,457.09619140625,477.0728454589844
13954,430.4998779296875,-806.6141357421875,473.8247680664063,512.7664794921875
13955,428.7870178222656,-919.5778198242188,465.47357177734375,477.1775817871094
13956,409.7471923828125,-680.7964477539062,388.0090026855469,386.6682434082031
13957,397.30078125,-803.8167114257812,443.269775390625,470.4494934082031
13958,422.9565124511719,-805.1593017578125,461.5317077636719,507.6652526855469
13959,446.2411193847656,-722.5486450195312,456.7895202636719,451.9893493652344
13960,423.44268798828125,-831.6004028320312,481.57757568359375,504.82666015625
13961,468.3626403808594,-835.0673217773438,496.2192687988281,512.3251342773439
13962,401.8896484375,-703.3742065429688,434.3426208496094,460.2059020996094
13963,401.9195556640625,-823.9111938476562,445.8764953613281,466.8965759277344
13964,447.9053649902344,-806.1055297851562,463.3455505371094,479.3355102539063
13965,404.28692626953125,-781.8971557617188,457.8142395019531,500.1069030761719
13966,485.9663391113281,-811.0458984375,501.0923767089844,520.0368041992189
13967,419.6541748046875,-787.8585205078125,444.7545166015625,445.646484375
13968,395.84222412109375,-782.5852661132812,456.3519287109375,489.1116027832031
13969,466.21966552734375,-806.2139892578125,507.2482299804688,501.77862548828125
13970,454.35296630859375,-799.564453125,481.3830871582031,505.4998474121094
13971,384.1886901855469,-817.265380859375,423.03692626953125,439.4980773925781
13972,480.3228454589844,-670.8109130859375,479.4046936035156,504.0861511230469
13973,446.64501953125,-733.2784423828125,495.7218627929688,508.6675415039063
13974,398.063720703125,-856.773681640625,414.0798645019531,427.85577392578125
13975,487.2752990722656,-850.24755859375,452.5484619140625,480.319091796875
13976,386.7206115722656,-748.5933227539062,468.5776672363281,491.9165344238281
13977,487.2977294921875,-672.965087890625,462.4891052246094,456.1855163574219
13978,399.2193603515625,-823.0958862304688,464.1608581542969,505.23431396484375
13979,441.5251159667969,-831.4957275390625,426.814208984375,441.2296447753906
13980,427.8782043457031,-736.9622192382812,469.3630676269531,503.49151611328125
13981,472.2221984863281,-775.9544677734375,494.2969665527344,512.1007690429689
13982,365.9230346679688,-713.5654296875,401.5960693359375,427.3471374511719
13983,430.1632995605469,-850.5130615234375,468.1251525878906,513.3162231445311
13984,490.1737365722656,-746.6747436523438,499.70111083984375,537.8649291992189
13985,494.5344543457031,-733.8843383789062,456.2883605957031,468.6468505859375
13986,388.6915283203125,-788.7486572265625,459.3401184082031,476.6278076171875
13987,415.5701904296875,-767.3078002929688,447.0171508789063,463.5419006347656
13988,430.2717590332031,-743.4248046875,494.1099853515625,504.7144470214844
13989,498.805419921875,-783.0452880859375,475.5712890625,500.6753540039063
13990,387.9996643066406,-756.0806274414062,446.7254333496094,464.4581604003906
13991,399.2904052734375,-781.4072265625,439.5822448730469,479.9189147949219
13992,442.07861328125,-785.4051513671875,444.5114135742188,473.79296875
13993,432.3735656738281,-753.4066162109375,457.6795959472656,485.33056640625
13994,411.4151611328125,-776.5902099609375,456.3818664550781,465.894287109375
13995,461.97113037109375,-797.3018188476562,479.9955749511719,491.4004211425781
13996,439.4831237792969,-723.132080078125,497.0831909179688,522.2134399414061
13997,497.9265441894531,-806.7562866210938,476.14349365234375,494.3511962890625
13998,354.1460876464844,-749.1618041992188,431.0964050292969,452.9056396484375
13999,416.3069763183594,-757.8308715820312,465.8213806152344,483.7859802246094
14000,430.07354736328125,-779.9075317382812,464.5086669921875,506.1543273925781
14001,443.1893615722656,-726.3970336914062,439.4775085449219,458.9081726074219
14002,424.695556640625,-764.9553833007812,485.8597412109375,525.1268310546875
14003,450.6280212402344,-824.12060546875,478.45849609375,483.9430541992188
14004,399.42132568359375,-740.4179077148438,439.526123046875,472.54010009765625
14005,473.9425659179688,-695.24365234375,495.0711364746094,529.41650390625
14006,396.6500549316406,-840.3480224609375,446.45989990234375,466.10748291015625
14007,402.3384399414063,-742.0111083984375,459.8300476074219,483.195068359375
14008,450.0520935058594,-678.376708984375,475.6460876464844,529.2294921875
14009,464.0879211425781,-752.1948852539062,459.1456604003906,470.2961730957031
14010,443.4287109375,-874.0894165039062,478.211669921875,515.859375
14011,395.0792846679688,-660.7655029296875,454.1528930664063,471.0216979980469
14012,442.677001953125,-784.0288696289062,469.5911865234375,500.8025207519531
14013,391.5114135742188,-803.4501953125,430.3409423828125,447.3369140625
14014,493.3114929199219,-759.5138549804688,462.7434387207031,488.2962951660156
14015,420.98931884765625,-771.8854370117188,458.8053283691406,499.77032470703125
14016,393.4524230957031,-744.0381469726562,456.838134765625,511.0909729003906
14017,435.4664611816406,-744.939453125,444.4702758789063,485.4090881347656
14018,440.62005615234375,-704.7093505859375,408.6869201660156,426.9881286621094
14019,391.9302978515625,-802.9527587890625,432.4315490722656,478.968994140625
14020,422.9041442871094,-767.98095703125,432.8990173339844,475.0794982910156
14021,392.7381286621094,-681.4097900390625,458.6145935058594,493.2591552734375
14022,406.5981750488281,-796.4640502929688,455.50299072265625,496.6849060058594
14023,521.09521484375,-806.18408203125,460.9707336425781,481.66546630859375
14024,434.9316711425781,-798.54345703125,448.0493774414063,491.1236572265625
14025,383.837158203125,-685.6134033203125,432.1099243164063,460.647216796875
14026,436.15460205078125,-742.5272216796875,458.3714904785156,501.0643310546875
14027,419.8150024414063,-765.4864501953125,423.90081787109375,469.15924072265625
14028,408.8907470703125,-808.790771484375,447.3911437988281,465.7185363769531
14029,439.72247314453125,-712.649169921875,464.467529296875,519.5244750976561
14030,416.5837097167969,-810.3839721679688,466.0869140625,504.17218017578125
14031,462.7303466796875,-711.8712768554688,471.67803955078125,519.2327270507811
14032,462.93603515625,-823.4586791992188,430.5915222167969,455.52728271484375
14033,416.7781982421875,-740.9901123046875,446.8787841796875,487.537109375
14034,433.7049865722656,-792.7989501953125,432.34552001953125,492.455078125
14035,402.5104675292969,-820.21240234375,435.90216064453125,489.3995666503906
14036,416.0751037597656,-712.89599609375,457.5636596679688,515.6199951171875
14037,430.4400329589844,-829.8987426757812,443.37823486328125,471.30218505859375
14038,436.5323486328125,-724.8075561523438,487.2472534179688,540.6473999023439
14039,442.9986267089844,-759.6148071289062,420.3179931640625,458.57904052734375
14040,417.4925231933594,-747.6845092773438,432.0949401855469,492.4363708496094
14041,419.942138671875,-716.9313354492188,426.8777770996094,464.12158203125
14042,432.0743713378906,-776.208740234375,464.220703125,520.6987915039061
14043,397.2970581054688,-856.3136596679688,451.5461730957031,501.69635009765625
14044,445.7437133789063,-704.8364868164062,464.3141784667969,493.9360656738281
14045,441.8243103027344,-817.1307373046875,483.3278503417969,532.3822631835939
14046,407.1441955566406,-798.2778930664062,433.4039306640625,503.1997985839844
14047,451.6864318847656,-741.4052734375,439.5971984863281,489.8670654296875
14048,437.0559387207031,-805.892333984375,453.786376953125,515.0926513671875
14049,414.9830322265625,-697.0949096679688,434.1444091796875,486.4300842285156
14050,426.8011169433594,-874.063232421875,459.2727966308594,510.0438232421875
14051,428.5289611816406,-704.6607055664062,455.7012023925781,515.907958984375
14052,422.2047729492188,-660.230712890625,466.6217041015625,526.8771362304689
14053,388.919677734375,-464.5909423828125,424.45806884765625,472.4353942871094
14054,439.7972717285156,-227.5074615478516,442.31982421875,501.29620361328125
14055,401.6577758789063,-275.44924926757807,429.2563781738281,501.27001953125
14056,481.8262634277344,-325.39935302734375,495.172119140625,521.3794555664061
14057,418.7453918457031,-303.76776123046875,427.7267456054688,477.091552734375
14058,415.4916687011719,-224.5118103027344,467.6352233886719,543.1980590820311
14059,414.61651611328125,-330.5865783691406,435.3785705566406,489.4444580078125
14060,422.5114440917969,-221.8115997314453,442.0991821289063,500.51080322265625
14061,453.017822265625,-358.396484375,482.88653564453125,573.2144775390625
14062,399.7691345214844,-292.1105041503906,424.5328674316406,504.4788513183594
14063,425.1256408691406,-189.1173858642578,432.9663391113281,476.2014465332031
14064,478.3444213867188,-316.53204345703125,466.7264099121094,538.9906616210939
14065,394.60430908203125,-279.9969482421875,459.3775329589844,510.5374755859375
14066,412.9074096679688,-333.8963928222656,442.3086242675781,499.67681884765625
14067,430.3091430664063,-242.56056213378903,459.4149169921875,532.6964111328125
14068,410.9177551269531,-295.4203186035156,419.8280944824219,497.6946716308594
14069,401.1902770996094,-359.48480224609375,431.0851745605469,480.6070556640625
14070,408.9000854492188,-1176.2247314453125,442.830322265625,512.7720947265625
14071,436.8034973144531,-1298.6129150390625,464.70501708984375,533.4275512695311
14072,440.45361328125,-1243.27734375,449.5359802246094,510.90960693359375
14073,394.6548156738281,-1299.7947998046875,419.7177429199219,473.0879821777344
14074,407.6771545410156,-1222.3302001953125,423.2482299804688,497.7676086425781
14075,417.7038269042969,-1263.3905029296875,422.2272338867188,488.8442077636719
14076,405.616455078125,-1184.52734375,438.1405029296875,513.8453979492189
14077,428.3438415527344,-1233.8154296875,455.9648742675781,532.320556640625
14078,414.0125427246094,-1289.3641357421875,426.70013427734375,496.159423828125
14079,408.5260925292969,-1248.7413330078125,423.5474243164063,492.1577453613281
14080,413.5525207519531,-1208.9376220703125,434.7371826171875,502.87255859375
14081,415.8450927734375,-1228.486083984375,444.4347534179688,508.8601379394531
14082,429.4919738769531,-1215.99853515625,434.7446594238281,501.3429260253906
14083,412.752197265625,-1237.431884765625,424.9012451171875,484.4872131347656
14084,417.7000732421875,-1234.181884765625,428.3531799316406,496.4660949707031
14085,429.6976623535156,-1217.311279296875,445.5342712402344,509.8399963378906
14086,389.2618713378906,-1244.64990234375,414.81475830078125,490.4598388671875
14087,423.8933410644531,-1224.9256591796875,437.8525390625,522.4808349609375
14088,436.0555114746094,-1235.681640625,449.8912658691406,527.6306762695311
14089,426.0138854980469,-1191.0159912109375,430.469970703125,483.612060546875
14090,423.4445495605469,-1231.724853515625,430.89630126953125,503.05206298828125
14091,413.6535034179688,-1213.9752197265625,440.24981689453125,516.6914672851561
14092,433.1570739746094,-1242.6004638671875,444.3038635253906,516.0369873046875
14093,414.7754821777344,-1213.7471923828125,440.0964660644531,515.8163452148439
14094,411.59283447265625,-1244.294677734375,432.4820251464844,513.647216796875
14095,451.17218017578125,-1202.9613037109375,467.4351501464844,548.7985229492189
14096,388.24462890625,-1238.8642578125,434.3220520019531,502.0684814453125
14097,422.565673828125,-1210.8973388671875,426.54681396484375,502.7379150390625
14098,392.8746337890625,-1222.371337890625,428.3943176269531,503.5083312988281
14099,431.6798095703125,-1199.5953369140625,431.8275451660156,516.7251586914061
14100,396.5920715332031,-1219.716064453125,430.39141845703125,505.2474060058594
14101,433.4263610839844,-1187.5042724609375,440.5303039550781,516.96826171875
14102,374.94927978515625,-1234.787841796875,421.82330322265625,503.4073486328125
14103,404.92083740234375,-1207.9652099609375,437.0970764160156,516.3549194335939
14104,420.4189758300781,-1181.70361328125,433.80596923828125,504.2114562988281
14105,413.66845703125,-1197.9833984375,430.9710998535156,500.2658386230469
14106,399.7485656738281,-1200.5938720703125,442.3665771484375,517.791015625
14107,406.3644409179688,-1215.61328125,436.5248718261719,519.7095947265625
14108,409.2703552246094,-1209.7117919921875,450.25030517578125,516.874755859375
14109,419.71588134765625,-1200.526611328125,427.5079650878906,503.45599365234375
14110,421.9486083984375,-1249.3958740234375,449.95111083984375,530.8133544921875
14111,388.43536376953125,-1201.996337890625,421.292236328125,508.1719970703125
14112,408.0735778808594,-1207.1910400390625,432.2464294433594,508.31036376953125
14113,394.2845764160156,-1207.090087890625,444.5656433105469,531.5202026367189
14114,403.1929931640625,-1203.013671875,429.22833251953125,518.2772216796875
14115,385.2414855957031,-1212.31103515625,419.0071716308594,493.09271240234375
14116,414.9026184082031,-1208.94140625,433.7124633789063,508.67315673828125
14117,409.947265625,-1167.593017578125,453.21978759765625,531.4117431640625
14118,442.4769287109375,-1232.9852294921875,434.1163635253906,505.9617004394531
14119,392.48565673828125,-1218.4781494140625,427.8894348144531,505.1539001464844
14120,423.9195251464844,-1241.5682373046875,455.5983581542969,538.7830810546875
14121,392.7848510742188,-1181.22119140625,429.5611572265625,518.0677490234375
14122,395.8478393554688,-1231.4630126953125,426.6552734375,508.4898986816406
14123,413.91156005859375,-1188.7047119140625,439.9057312011719,521.7852172851561
14124,374.6463623046875,-1219.4429931640625,413.2439880371094,489.90631103515625
14125,419.2970275878906,-1213.0665283203125,432.9719543457031,517.9181518554689
14126,387.6238098144531,-1214.1585693359375,434.4043273925781,522.3387451171875
14127,380.3384704589844,-1194.400634765625,437.6243896484375,531.8343505859375
14128,393.7198486328125,-1204.8275146484375,451.5443115234375,540.5782470703125
14129,400.7508544921875,-1217.22900390625,444.2664489746094,512.9515991210939
14130,396.4537048339844,-1221.0885009765625,445.6876220703125,538.7718505859375
14131,394.34814453125,-1246.291748046875,436.83154296875,508.8489074707031
14132,439.68695068359375,-1195.013916015625,451.0992431640625,523.9506225585939
14133,381.2061462402344,-1218.968017578125,435.56744384765625,521.2579345703125
14134,384.1083068847656,-1216.2603759765625,428.252197265625,503.0820007324219
14135,439.7879333496094,-1252.428955078125,444.44970703125,529.762451171875
14136,385.0021362304688,-1188.6898193359375,445.5567321777344,523.5167846679689
14137,404.1167602539063,-1201.3419189453125,426.7749328613281,494.30072021484375
14138,404.06439208984375,-1236.104248046875,433.439453125,517.521728515625
14139,406.3719177246094,-1236.9569091796875,437.10455322265625,520.5809936523439
14140,420.7144470214844,-1240.397705078125,452.8569946289063,531.9727172851561
14141,402.7816162109375,-1210.5084228515625,449.7005310058594,520.67822265625
14142,396.4275207519531,-1247.873779296875,433.28985595703125,519.6647338867189
14143,384.8749694824219,-1222.0721435546875,418.36016845703125,498.0630493164063
14144,400.7695617675781,-1215.833984375,454.4913330078125,544.5088500976561
14145,394.1947937011719,-1166.1644287109375,438.1442260742188,518.0303955078125
14146,391.5581665039063,-1266.55078125,444.8648376464844,542.7847900390625
14147,411.81719970703125,-1259.44873046875,433.2300109863281,506.3431701660156
14148,391.9845275878906,-1222.1207275390625,429.21710205078125,519.6946411132811
14149,385.5967712402344,-1216.7652587890625,429.9201965332031,511.76605224609375
14150,395.5075073242188,-1249.048095703125,433.67132568359375,524.7996215820311
14151,372.9222412109375,-1229.7352294921875,425.5071105957031,512.9478759765625
14152,415.6917419433594,-1230.3896484375,437.5084533691406,524.9267578125
14153,395.1971130371094,-1227.865234375,428.932861328125,514.9486694335939
14154,377.9786071777344,-1230.9320068359375,421.5353393554688,510.06439208984375
14155,404.1541442871094,-1243.0006103515625,421.7859191894531,514.5298461914061
14156,439.6944274902344,-1241.3438720703125,453.10009765625,551.1509399414061
14157,385.0021362304688,-1212.9281005859375,427.8333435058594,513.1049194335939
14158,370.9101867675781,-1231.0179443359375,422.2646179199219,512.1287841796875
14159,379.841064453125,-1242.1591796875,439.1540222167969,535.6265869140625
14160,379.51568603515625,-1230.6552734375,435.8741149902344,516.0332641601561
14161,394.3032531738281,-1221.0062255859375,437.8637390136719,521.8450927734375
14162,393.39447021484375,-1241.351318359375,439.954345703125,536.9954223632811
14163,395.7954711914063,-1240.71923828125,441.3306274414063,525.080078125
14164,402.9611206054688,-1227.420166015625,441.0800476074219,511.2574157714844
14165,393.1102294921875,-1218.5379638671875,443.5558776855469,521.7628173828125
14166,373.53558349609375,-1255.2674560546875,419.6728820800781,503.8636169433594
14167,400.698486328125,-1245.4166259765625,440.41436767578125,527.7990112304689
14168,383.408935546875,-1245.2071533203125,430.06231689453125,516.160400390625
14169,377.9411926269531,-1219.3719482421875,430.3988952636719,523.0904541015625
14170,392.7960815429688,-1236.433349609375,431.068359375,517.6600952148439
14171,391.554443359375,-1253.360107421875,420.3684997558594,522.1031494140625
14172,369.19732666015625,-1225.939208984375,427.1264953613281,507.3604431152344
14173,396.0984191894531,-1253.427490234375,427.406982421875,511.44439697265625
14174,389.2020263671875,-1241.340087890625,419.6728820800781,508.1084289550781
14175,376.95013427734375,-1253.592041015625,436.1471252441406,534.9833374023439
14176,391.6778564453125,-1236.0406494140625,433.4506530761719,520.865234375
14177,379.3062744140625,-1243.625244140625,446.2485961914063,532.0213623046875
14178,407.23956298828125,-1244.859375,427.7248840332031,523.3148803710939
14179,389.7555541992188,-1256.0753173828125,441.3119201660156,537.8368530273439
14180,375.8805236816406,-1249.616455078125,433.8583068847656,522.8473510742189
14181,390.7503662109375,-1236.8148193359375,449.8837890625,550.3543090820311
14182,378.0384521484375,-1244.1787109375,428.2447204589844,524.93798828125
14183,358.49371337890625,-1234.1856689453125,424.11212158203125,507.521240234375
14184,380.4805908203125,-1236.6951904296875,435.41412353515625,521.4898071289061
14185,393.1513671875,-1237.914306640625,435.4814453125,521.299072265625
14186,365.58831787109375,-1244.3394775390625,424.01116943359375,507.2257995605469
14187,393.3757629394531,-1244.533935546875,433.4880676269531,527.978515625
14188,391.6217651367188,-1255.03564453125,424.6993103027344,513.2507934570311
14189,372.6679382324219,-1231.691162109375,428.6598510742188,515.1880493164061
14190,379.2277221679688,-1236.0032958984375,425.9446716308594,524.2236328125
14191,379.0482177734375,-1269.142578125,432.7699890136719,528.64794921875
14192,392.9419250488281,-1250.3831787109375,439.1802062988281,543.4130859375
14193,390.2267761230469,-1247.0322265625,436.5884399414063,519.1785278320311
14194,390.2940979003906,-1254.3026123046875,427.2499084472656,527.5147705078125
14195,385.3948059082031,-1261.198974609375,432.65032958984375,528.6666259765625
14196,395.5037841796875,-1243.71875,459.7159729003906,550.2271728515625
14197,373.8796691894531,-1248.3524169921875,439.3260498046875,530.091552734375
14198,369.0626831054688,-1256.8045654296875,433.8882446289063,529.3847045898439
14199,369.8667602539063,-1264.306884765625,427.3434143066406,523.5579223632811
14200,361.6838684082031,-1246.1533203125,435.8629150390625,520.6445922851561
14201,376.31060791015625,-1250.4205322265625,437.22796630859375,523.7973022460939
14202,372.8175354003906,-1246.7069091796875,426.056884765625,516.3175048828125
14203,367.9444580078125,-1258.7867431640625,427.74359130859375,522.6865234375
14204,372.798828125,-1246.9088134765625,440.5714416503906,523.9468994140625
14205,372.739013671875,-1261.9918212890625,427.3546142578125,513.9202270507811
14206,379.0631713867188,-1243.7298583984375,423.3529357910156,514.7841186523439
14207,369.1300048828125,-1269.41552734375,420.39093017578125,517.1776733398439
14208,405.7024841308594,-1257.9041748046875,433.7199401855469,531.3219604492189
14209,364.35040283203125,-1256.0303955078125,415.3682556152344,510.0494384765625
14210,368.819580078125,-1265.76171875,425.6043395996094,520.4912109375
14211,374.8931884765625,-1263.757080078125,432.324951171875,539.4749755859375
14212,413.53009033203125,-1286.7724609375,452.1127624511719,560.6166381835939
14213,360.4235229492188,-1260.331298828125,425.4061279296875,522.533203125
14214,359.1182861328125,-1259.4449462890625,429.6509399414063,513.8678588867189
14215,377.4064025878906,-1273.3125,436.8053588867188,531.3032836914061
14216,372.7838745117188,-1261.1016845703125,437.2130126953125,524.2835083007811
14217,373.913330078125,-1233.733154296875,450.6766357421875,530.7460327148439
14218,391.81622314453125,-1275.238525390625,436.3939514160156,521.4785766601561
14219,346.6980895996094,-1266.5433349609375,424.7404479980469,510.6852111816406
14220,359.5483703613281,-1249.508056640625,440.4255676269531,517.484375
14221,385.9221496582031,-1269.9952392578125,461.6158447265625,557.6807861328125
14222,361.6352233886719,-1233.6209716796875,424.5833740234375,503.9533996582031
14223,362.1625671386719,-1274.8907470703125,434.8194580078125,520.0386962890625
14224,389.29180908203125,-1269.9765625,430.7467041015625,504.0768127441406
14225,379.3960266113281,-1251.4041748046875,439.8720703125,518.7222290039061
14226,374.8333435058594,-1268.289794921875,430.55224609375,516.0145874023439
14227,379.01080322265625,-1284.3714599609375,439.4718933105469,529.9943237304689
14228,377.8028259277344,-1255.03564453125,435.67218017578125,518.8269653320311
14229,376.0899353027344,-1253.7042236328125,447.35186767578125,525.8579711914061
14230,374.22747802734375,-1276.9925537109375,428.7159423828125,515.07958984375
14231,370.0724487304688,-1264.8828125,435.283203125,533.154541015625
14232,388.6335754394531,-1277.2431640625,436.1733093261719,527.7241821289061
14233,382.0962219238281,-1253.5733642578125,452.9168395996094,542.6314086914061
14234,370.850341796875,-1269.4117431640625,426.550537109375,512.297119140625
14235,362.6562194824219,-1265.843994140625,428.35693359375,517.7124633789061
14236,382.552490234375,-1255.6190185546875,439.7037658691406,527.0734252929689
14237,381.7671203613281,-1241.328857421875,444.1804504394531,537.3170166015625
14238,395.43646240234375,-1268.0916748046875,436.8689270019531,521.2317504882811
14239,354.6640625,-1272.5196533203125,418.74163818359375,508.4375305175781
14240,363.5874633789063,-1252.79541015625,433.2861022949219,510.0868225097656
14241,386.20263671875,-1249.94189453125,440.2348327636719,522.462158203125
14242,363.0751037597656,-1259.3402099609375,427.89691162109375,515.831298828125
14243,372.8699035644531,-1261.6177978515625,432.7288513183594,521.2130126953125
14244,382.4178466796875,-1266.36376953125,446.3495788574219,527.8513793945311
14245,394.4117126464844,-1257.78076171875,433.4618835449219,510.0045471191406
14246,364.23822021484375,-1268.8134765625,432.6428527832031,513.751953125
14247,379.6316223144531,-1272.2166748046875,436.386474609375,522.110595703125
14248,381.0303649902344,-1270.904052734375,428.416748046875,508.2879333496094
14249,387.7060852050781,-1236.3173828125,439.9244384765625,516.6615600585939
14250,373.572998046875,-1272.5570068359375,433.2487182617188,516.369873046875
14251,376.1610107421875,-1268.9293212890625,424.45245361328125,511.8221435546875
14252,373.3112182617188,-1257.5712890625,437.8450622558594,509.1443786621094
14253,383.749267578125,-1257.724609375,442.9425354003906,521.8824462890625
14254,369.489013671875,-1271.6258544921875,428.8169250488281,516.511962890625
14255,385.4808349609375,-1255.458251953125,436.0050048828125,515.4760131835939
14256,372.9783630371094,-1260.65673828125,431.831298828125,511.8408508300781
14257,387.0067138671875,-1255.2786865234375,437.72161865234375,521.1270141601561
14258,379.3511352539063,-1267.5306396484375,428.098876953125,513.2470703125
14259,383.71185302734375,-1264.36669921875,433.5516357421875,518.1126708984375
14260,372.892333984375,-1246.5235595703125,433.27490234375,505.9617004394531
14261,373.0905456542969,-1255.6414794921875,435.6123352050781,504.85845947265625
14262,377.3428039550781,-1261.6177978515625,427.52667236328125,507.2183227539063
14263,378.7004089355469,-1267.6690673828125,437.6618041992188,522.7239379882811
14264,388.48773193359375,-1255.1328125,431.7565002441406,507.8092346191406
14265,382.9938049316406,-1252.3802490234375,446.7871398925781,515.3226928710939
14266,391.4385070800781,-1262.724853515625,440.54150390625,507.8279113769531
14267,371.14581298828125,-1264.2694091796875,434.00042724609375,510.56927490234375
14268,398.5517883300781,-1253.640625,451.1889953613281,523.2625122070311
14269,385.7501220703125,-1244.7845458984375,440.24981689453125,509.4660034179688
14270,359.5521240234375,-1266.5321044921875,426.3673095703125,512.5738525390625
14271,368.5951843261719,-1265.541015625,431.65924072265625,512.4074096679689
14272,378.2030029296875,-1254.0595703125,438.52569580078125,514.673828125
14273,379.2912902832031,-1238.88671875,442.6957092285156,524.6069946289061
14274,389.3030090332031,-1260.8175048828125,425.13311767578125,509.1537170410156
14275,365.67431640625,-1262.6688232421875,419.613037109375,493.9173583984375
14276,379.2726135253906,-1237.921875,440.623779296875,522.0825805664061
14277,386.8197326660156,-1249.3172607421875,433.345947265625,509.0415344238281
14278,379.41845703125,-1263.3232421875,423.8914794921875,503.5139465332031
14279,374.4892578125,-1261.8385009765625,426.5206298828125,509.9017028808594
14280,387.141357421875,-1252.2606201171875,433.8695373535156,514.5242309570311
14281,376.0899353027344,-1245.554931640625,432.4296875,498.5174560546875
14282,376.89404296875,-1255.4058837890625,423.5324401855469,493.86126708984375
14283,374.3209838867188,-1253.382568359375,418.580810546875,493.5920104980469
14284,376.4115905761719,-1244.5938720703125,425.3986511230469,500.1143798828125
14285,387.45550537109375,-1242.0731201171875,435.2458190917969,516.3493041992189
14286,368.72607421875,-1255.491943359375,425.7689208984375,505.6307373046875
14287,367.2563171386719,-1251.9427490234375,420.974365234375,502.8744201660156
14288,378.2291870117188,-1249.134033203125,428.0577392578125,497.93402099609375
14289,382.9451904296875,-1242.5518798828125,451.27130126953125,522.6771850585939
14290,369.1225280761719,-1269.7633056640625,425.798828125,510.8703308105469
14291,376.2919006347656,-1249.5267333984375,425.3575134277344,496.19122314453125
14292,389.8901672363281,-1244.6051025390625,439.0605163574219,515.4666748046875
14293,378.40869140625,-1242.1778564453125,436.1920166015625,510.1747131347656
14294,380.2337646484375,-1251.14990234375,432.8485412597656,509.157470703125
14295,377.0324096679688,-1250.409423828125,423.2033386230469,501.5130920410156
14296,378.50592041015625,-1244.3619384765625,434.3445129394531,505.57464599609375
14297,372.376220703125,-1240.5098876953125,437.96099853515625,506.270263671875
14298,378.4946899414063,-1250.5103759765625,426.9656677246094,502.64630126953125
14299,362.0391540527344,-1254.1754150390625,425.024658203125,501.6514892578125
14300,382.7918395996094,-1239.4888916015625,435.2046813964844,507.55303955078125
14301,382.3655090332031,-1232.689697265625,435.717041015625,504.49755859375
14302,380.9069519042969,-1245.6895751953125,425.8511962890625,499.9460754394531
14303,372.8624267578125,-1248.9058837890625,423.4763488769531,493.83135986328125
14304,383.2967224121094,-1237.9443359375,437.6019592285156,501.4944152832031
14305,395.615966796875,-1241.153076171875,445.9419250488281,508.7760009765625
14306,385.81744384765625,-1247.87744140625,432.9981384277344,504.3030700683594
14307,370.8204345703125,-1252.428955078125,435.7955932617188,506.2216491699219
14308,393.6188659667969,-1240.517333984375,441.1025085449219,505.4212951660156
14309,383.9474792480469,-1236.620361328125,450.12689208984375,510.4888610839844
14310,369.9004211425781,-1255.4058837890625,436.6370544433594,506.01593017578125
14311,374.7099304199219,-1246.0972900390625,436.4500732421875,501.6440124511719
14312,396.2330627441406,-1247.5445556640625,447.666015625,507.8522338867188
14313,381.36322021484375,-1236.19775390625,445.7212829589844,502.22369384765625
14314,384.770263671875,-1241.4971923828125,436.72308349609375,497.2870178222656
14315,376.3068542480469,-1246.7928466796875,436.50616455078125,498.8428039550781
14316,383.42388916015625,-1241.657958984375,442.95001220703125,498.289306640625
14317,392.38470458984375,-1235.9322509765625,444.17669677734375,498.57354736328125
14318,384.1793518066406,-1249.4219970703125,420.3348388671875,483.5578308105469
14319,366.7589111328125,-1245.2857666015625,418.5546569824219,476.69512939453125
14320,392.048095703125,-1242.0394287109375,431.6854248046875,488.94329833984375
14321,387.5228271484375,-1246.7779541015625,431.15435791015625,491.86041259765625
14322,382.53753662109375,-1250.648681640625,425.8175354003906,488.4047546386719
14323,363.3780212402344,-1250.398193359375,415.5926513671875,483.9393005371094
14324,387.2460632324219,-1243.427001953125,432.5082092285156,489.9194030761719
14325,387.3283386230469,-1231.8033447265625,433.7348937988281,494.7476196289063
14326,378.59942626953125,-1250.9927978515625,431.5321044921875,485.6334838867188
14327,372.6118469238281,-1245.775634765625,427.0442199707031,491.5200805664063
14328,384.8824462890625,-1238.04150390625,446.01300048828125,498.9325866699219
14329,395.4439392089844,-1235.18798828125,452.7298583984375,502.3807678222656
14330,388.7046203613281,-1251.1834716796875,435.4028930664063,491.7332763671875
14331,370.12481689453125,-1246.8826904296875,430.04736328125,480.4537353515625
14332,382.82550048828125,-1236.6988525390625,441.7569885253906,494.9757690429688
14333,391.3300476074219,-1233.381591796875,439.7411804199219,486.7442321777344
14334,380.2449645996094,-1238.359375,424.9349060058594,480.39013671875
14335,379.3548889160156,-1237.7161865234375,433.37213134765625,483.9804382324219
14336,389.7069396972656,-1233.3143310546875,442.688232421875,487.6829528808594
14337,386.5167846679688,-1221.5074462890625,449.9735412597656,493.3489074707031
14338,373.3598327636719,-1248.113037109375,433.005615234375,481.4447937011719
14339,375.40179443359375,-1239.23828125,436.2555847167969,482.6490478515625
14340,384.7216491699219,-1238.1163330078125,449.64068603515625,492.8963623046875
14341,400.6797790527344,-1231.2498779296875,461.3054504394531,496.87188720703125
14342,369.3880615234375,-1245.7606201171875,439.2662048339844,485.6409606933594
14343,374.3546447753906,-1239.2196044921875,435.5300598144531,484.3843688964844
14344,391.9321594238281,-1228.8001708984375,453.7433471679688,496.8345031738281
14345,384.0596618652344,-1233.12353515625,449.2367858886719,490.34576416015625
14346,369.0963439941406,-1246.059814453125,441.1324157714844,492.6682434082031
14347,381.4342651367188,-1244.2535400390625,436.9586791992188,486.9312438964844
14348,379.8747253417969,-1226.0064697265625,438.1292724609375,480.4462585449219
14349,380.8957214355469,-1210.8861083984375,439.5280151367188,481.2166748046875
14350,376.3330383300781,-1248.311279296875,429.0487976074219,475.1468200683594
14351,375.9104309082031,-1244.2459716796875,431.7602233886719,476.1341552734375
14352,387.3208618164063,-1232.2484130859375,439.7262268066406,478.7483215332031
14353,391.5955810546875,-1230.71875,445.4108581542969,476.6913757324219
14354,385.2975769042969,-1233.3966064453125,443.94482421875,495.17022705078125
14355,380.3347473144531,-1248.22900390625,437.06341552734375,474.6007690429688
14356,395.1409912109375,-1236.7587890625,461.8813781738281,493.6742858886719
14357,379.4633483886719,-1233.3255615234375,438.8211669921875,472.7420654296875
14358,385.3424682617188,-1239.4552001953125,442.97991943359375,485.2557678222656
14359,378.2516174316406,-1229.780029296875,441.6485290527344,477.9180603027344
14360,387.15631103515625,-1239.9227294921875,446.4617919921875,473.9163818359375
14361,406.4205322265625,-1238.0714111328125,466.36553955078125,505.85137939453125
14362,373.3673095703125,-1230.0306396484375,428.4691162109375,457.8871765136719
14363,378.3600769042969,-1241.5906982421875,430.365234375,477.08782958984375
14364,381.5128173828125,-1228.026123046875,436.8614501953125,477.3832702636719
14365,382.6946105957031,-1225.6474609375,442.7966613769531,477.102783203125
14366,378.5657653808594,-1235.7825927734375,430.2717590332031,467.3715515136719
14367,367.2001953125,-1229.6903076171875,433.1477355957031,467.2780456542969
14368,381.1201171875,-1227.7979736328125,438.0507507324219,470.90576171875
14369,389.8677368164063,-1224.4207763671875,452.7672424316406,482.0169982910156
14370,365.8949890136719,-1226.4478759765625,423.9101867675781,462.6181335449219
14371,365.36016845703125,-1232.1175537109375,424.4337768554688,464.54046630859375
14372,385.1592102050781,-1208.84033203125,436.4014587402344,469.5481872558594
14373,382.6198120117188,-1216.19677734375,440.10394287109375,469.21533203125
14374,372.1817626953125,-1221.7205810546875,433.3122863769531,463.3062744140625
14375,371.4225463867188,-1229.357421875,433.95928955078125,469.5369567871094
14376,384.759033203125,-1223.7252197265625,439.29986572265625,467.56976318359375
14377,394.6884765625,-1214.611083984375,456.6530151367188,481.328857421875
14378,385.4209899902344,-1237.2711181640625,453.0627136230469,472.6971740722656
14379,377.9524230957031,-1244.7696533203125,447.8754577636719,479.40655517578125
14380,394.8717346191406,-1234.15576171875,452.2286987304688,475.6105651855469
14381,386.5841064453125,-1227.618408203125,440.728515625,456.3762512207031
14382,389.1197509765625,-1232.66357421875,440.9005432128906,465.4155883789063
14383,375.3345031738281,-1237.36083984375,428.75335693359375,460.1460571289063
14384,384.41497802734375,-1216.7540283203125,433.9219055175781,461.1034851074219
14385,387.5490112304688,-1214.35302734375,440.06280517578125,456.60064697265625
14386,372.1817626953125,-1227.498779296875,430.8663940429688,450.6654357910156
14387,372.3575439453125,-1231.2125244140625,425.90728759765625,445.6838684082031
14388,392.0892333984375,-1228.2841796875,443.2230224609375,473.0524597167969
14389,382.3355712890625,-1215.598388671875,425.9970397949219,435.11865234375
14390,382.99755859375,-1219.42431640625,422.3880310058594,450.3288269042969
14391,364.78424072265625,-1227.513671875,425.9371948242188,447.6248779296875
14392,388.326904296875,-1212.50927734375,437.3962707519531,459.2746887207031
14393,393.2822570800781,-1222.9921875,442.28057861328125,454.9139404296875
14394,388.76446533203125,-1230.763671875,436.6931457519531,453.2646484375
14395,388.2745361328125,-1227.779296875,441.6111145019531,470.999267578125
14396,400.2684020996094,-1229.10693359375,443.08837890625,459.5289916992188
14397,390.4736022949219,-1218.242431640625,457.5543212890625,465.87933349609375
14398,379.2501525878906,-1229.967041015625,446.7534790039063,465.1351013183594
14399,388.1324157714844,-1229.9034423828125,441.22216796875,470.2961730957031
14400,392.3136291503906,-1214.4801025390625,448.6795349121094,457.7525329589844
14401,400.7171936035156,-1214.005126953125,450.2353210449219,458.42572021484375
14402,388.6260986328125,-1229.08447265625,445.75494384765625,461.26055908203125
14403,378.4311218261719,-1230.150390625,442.2169799804688,457.8198547363281
14404,382.8703918457031,-1219.2222900390625,446.35333251953125,449.9249267578125
14405,394.8044128417969,-1216.716552734375,452.2361755371094,458.287353515625
14406,383.408935546875,-1223.426025390625,434.5913391113281,442.7667541503906
14407,378.6966552734375,-1231.8819580078125,425.17425537109375,438.8697814941406
14408,392.9419250488281,-1213.2086181640625,433.8695373535156,440.4293212890625
14409,396.5546875,-1220.890380859375,442.688232421875,448.769287109375
14410,389.9051513671875,-1224.1478271484375,432.8634948730469,442.5685424804688
14411,388.95147705078125,-1233.5872802734375,421.3483581542969,432.5044555664063
14412,402.4861755371094,-1221.26806640625,437.5084533691406,446.3084411621094
14413,399.3147277832031,-1220.998779296875,441.0763244628906,446.925537109375
14414,378.27032470703125,-1226.900390625,430.3166198730469,443.5484008789063
14415,385.7463684082031,-1234.6868896484375,432.665283203125,467.39398193359375
14416,388.9589538574219,-1224.7723388671875,424.4075927734375,436.6482849121094
14417,400.6760559082031,-1216.574462890625,445.9718627929688,458.9792175292969
14418,390.2304992675781,-1229.2041015625,432.6166687011719,439.015625
14419,394.3818054199219,-1228.6356201171875,431.1581115722656,447.7408142089844
14420,392.6315307617188,-1220.1497802734375,453.2309875488281,458.8670349121094
14421,402.0822448730469,-1218.4556884765625,443.8176574707031,455.3963928222656
14422,387.2198791503906,-1233.8304443359375,437.934814453125,460.7781066894531
14423,380.181396484375,-1230.7786865234375,429.5237731933594,440.4741821289063
14424,388.7083740234375,-1218.990478515625,431.83502197265625,441.4017028808594
14425,386.3634643554688,-1210.295166015625,432.6428527832031,443.2716369628906
14426,385.07318115234375,-1221.3092041015625,419.1418151855469,437.3214721679688
14427,392.0406188964844,-1222.0946044921875,422.3730773925781,442.2618713378906
14428,387.6275329589844,-1219.704833984375,430.1932067871094,444.6666259765625
14429,406.6636352539063,-1214.1585693359375,442.0337219238281,452.7298583984375
14430,386.1278381347656,-1233.4788818359375,421.972900390625,444.9022521972656
14431,390.6531066894531,-1232.700927734375,422.23095703125,436.0498962402344
14432,395.1746520996094,-1220.47900390625,431.2553405761719,437.1082763671875
14433,405.9979248046875,-1215.29541015625,445.1902160644531,443.7578430175781
14434,402.99853515625,-1218.003173828125,442.501220703125,452.7223815917969
14435,388.4390869140625,-1237.349609375,445.7923278808594,452.6288757324219
14436,385.2003479003906,-1223.3062744140625,446.1064758300781,443.9186401367188
14437,398.92950439453125,-1221.44384765625,452.7522888183594,448.24945068359375
14438,393.8357849121094,-1235.7041015625,439.0605163574219,439.7561340332031
14439,386.7000427246094,-1234.46240234375,436.65948486328125,447.7931823730469
14440,384.5720520019531,-1215.235595703125,438.1592102050781,438.08441162109375
14441,401.2594909667969,-1213.6798095703125,440.2198791503906,436.9325256347656
14442,391.214111328125,-1237.3421630859375,427.4705505371094,435.9152526855469
14443,394.1312255859375,-1238.3631591796875,427.1302490234375,433.9293823242188
14444,396.5920715332031,-1210.964599609375,430.7392272949219,416.57623291015625
14445,399.3259582519531,-1216.750244140625,429.38165283203125,426.6103820800781
14446,390.5895385742188,-1224.435791015625,421.8981018066406,417.571044921875
14447,394.44537353515625,-1226.9676513671875,422.7545471191406,425.0620727539063
14448,399.9093627929688,-1217.1953125,430.1109313964844,424.6618957519531
14449,403.6754455566406,-1208.8814697265625,446.8170776367188,437.9721984863281
14450,388.31195068359375,-1226.91162109375,436.7417907714844,437.6356201171875
14451,386.9356689453125,-1220.03759765625,430.2568054199219,431.0234680175781
14452,397.3811950683594,-1214.850341796875,452.1539001464844,451.9369812011719
14453,396.2554931640625,-1215.3328857421875,451.81732177734375,438.2863464355469
14454,389.6283874511719,-1214.83544921875,441.7794189453125,441.08380126953125
14455,378.81634521484375,-1228.68798828125,433.4469299316406,433.07666015625
14456,401.18841552734375,-1210.8076171875,445.8596496582031,433.1851196289063
14457,390.5671081542969,-1219.1624755859375,445.9755859375,442.3890380859375
14458,377.634521484375,-1224.1029052734375,422.7956848144531,415.0054931640625
14459,387.3694763183594,-1217.255126953125,438.5818176269531,430.4176025390625
14460,390.2304992675781,-1217.7525634765625,434.8755798339844,420.0693054199219
14461,398.338623046875,-1215.1982421875,436.24810791015625,414.8297119140625
14462,370.5885620117188,-1225.4530029296875,430.7467041015625,420.6302795410156
14463,380.4170227050781,-1223.426025390625,429.7032775878906,424.13458251953125
14464,396.9324035644531,-1222.1881103515625,434.2360534667969,422.80316162109375
14465,398.5816955566406,-1221.26806640625,447.9465026855469,429.8566284179688
14466,387.6911315917969,-1234.787841796875,439.2624816894531,427.90814208984375
14467,383.8203125,-1223.8785400390625,432.1267395019531,420.8883361816406
14468,393.9442443847656,-1214.603515625,440.1376037597656,426.7562561035156
14469,395.91888427734375,-1222.45361328125,440.6948547363281,425.1780090332031
14470,405.451904296875,-1230.4195556640625,442.0112915039063,430.4101257324219
14471,391.554443359375,-1219.2186279296875,431.8574523925781,414.9456481933594
14472,405.1508483886719,-1217.475830078125,442.3591003417969,422.5956115722656
14473,401.8335571289063,-1222.195556640625,445.90826416015625,426.74688720703125
14474,408.3297424316406,-1236.3697509765625,439.8458862304688,428.65423583984375
14475,379.0538330078125,-1221.9898681640625,421.29974365234375,403.0995178222656
14476,392.2631530761719,-1221.548583984375,433.6788024902344,414.689453125
14477,398.8865051269531,-1212.7822265625,445.7698974609375,427.4313049316406
14478,379.3118591308594,-1220.284423828125,426.9507141113281,414.42767333984375
14479,381.09954833984375,-1223.171630859375,417.9749450683594,400.9640197753906
14480,387.65185546875,-1202.9163818359375,434.625,407.7743835449219
14481,391.2197265625,-1203.6044921875,437.38128662109375,416.51080322265625
14482,383.7399291992188,-1216.74658203125,427.3359375,417.5280456542969
14483,388.0968933105469,-1216.2080078125,425.211669921875,407.8529052734375
14484,394.98577880859375,-1199.7225341796875,427.4743041992188,403.3987121582031
14485,398.7107238769531,-1204.1468505859375,442.9201049804688,414.595947265625
14486,394.0171508789063,-1205.365966796875,438.9258728027344,425.1013488769531
14487,388.8561096191406,-1214.259521484375,424.51605224609375,422.26275634765625
14488,389.6340026855469,-1192.841064453125,433.1065979003906,401.3267822265625
14489,401.9420166015625,-1201.0277099609375,449.6294860839844,422.2964172363281
14490,386.1446838378906,-1214.52880859375,438.0507507324219,417.25128173828125
14491,383.8483581542969,-1217.498291015625,430.294189453125,417.0643005371094
14492,393.99847412109375,-1216.2528076171875,444.0046691894531,419.8168640136719
14493,398.7369079589844,-1198.978271484375,443.8550720214844,417.3784484863281
14494,398.1123352050781,-1217.0457763671875,432.7886962890625,408.76544189453125
14495,386.4737854003906,-1221.0885009765625,430.3988952636719,405.2649230957031
14496,394.02838134765625,-1213.2235107421875,434.3220520019531,413.87042236328125
14497,409.0515441894531,-1199.4681396484375,435.4627380371094,412.5128479003906
14498,388.0295715332031,-1206.82080078125,422.335693359375,401.7718505859375
14499,379.6222839355469,-1210.8411865234375,417.7991943359375,397.8299865722656
14500,394.2340698242188,-1203.3052978515625,431.74151611328125,407.8977966308594
14501,400.0271911621094,-1199.703857421875,431.17681884765625,411.3310241699219
14502,390.71856689453125,-1204.0906982421875,421.7298278808594,407.1685180664063
14503,399.8775939941406,-1219.0428466796875,423.5773315429688,412.236083984375
14504,387.0198059082031,-1203.3951416015625,419.25775146484375,396.8800659179688
14505,396.537841796875,-1199.1129150390625,431.7190856933594,412.6885986328125
14506,387.4461669921875,-1212.546630859375,422.664794921875,402.5684509277344
14507,392.2481994628906,-1214.8878173828125,422.3768310546875,401.6745910644531
14508,396.6276245117188,-1198.320068359375,429.69580078125,409.2030334472656
14509,391.8854064941406,-1193.9630126953125,435.2308654785156,407.8005676269531
14510,398.2320251464844,-1204.2403564453125,441.8841247558594,413.3767395019531
14511,377.6251831054688,-1213.6312255859375,425.0433654785156,405.71368408203125
14512,397.3307189941406,-1201.468994140625,442.2169799804688,411.9705505371094
14513,403.5239868164063,-1199.3858642578125,437.4747924804688,405.616455078125
14514,375.9422302246094,-1204.64794921875,421.7335510253906,389.183349609375
14515,399.8214721679688,-1215.2879638671875,420.0206909179688,398.4807434082031
14516,400.6255493164063,-1199.591552734375,424.2093811035156,386.04180908203125
14517,398.5873107910156,-1198.7950439453125,428.768310546875,397.5083618164063
14518,399.7055358886719,-1207.232177734375,424.4187927246094,386.0343322753906
14519,395.4121398925781,-1219.4130859375,423.7269287109375,389.501220703125
14520,397.5476379394531,-1209.9249267578125,431.3675537109375,390.96728515625
14521,390.4268493652344,-1184.729248046875,442.7069091796875,404.5244140625
14522,382.72265625,-1210.669189453125,428.8543395996094,394.9053955078125
14523,390.774658203125,-1212.8907470703125,433.9031982421875,390.5259704589844
14524,405.46124267578125,-1204.038330078125,443.193115234375,409.1357116699219
14525,408.06048583984375,-1202.7742919921875,441.8991088867188,400.3170166015625
14526,380.4824523925781,-1205.784912109375,431.8275451660156,396.8763122558594
14527,390.02294921875,-1215.5086669921875,426.3448486328125,391.6441955566406
14528,401.42962646484375,-1198.8436279296875,440.7023315429688,401.3829040527344
14529,404.107421875,-1200.010498046875,439.5055541992188,405.781005859375
14530,395.703857421875,-1208.8814697265625,430.43255615234375,396.648193359375
14531,419.3400268554688,-1211.6116943359375,431.0458984375,398.12542724609375
14532,393.1868896484375,-1200.3358154296875,422.4366455078125,384.9909057617188
14533,403.3145446777344,-1192.829833984375,430.06231689453125,391.7788391113281
14534,392.6932373046875,-1200.010498046875,423.8578186035156,391.027099609375
14535,393.6244812011719,-1199.3822021484375,423.2407531738281,389.3591003417969
14536,403.7296752929688,-1187.7960205078125,435.1635437011719,397.7065734863281
14537,407.9744567871094,-1201.6971435546875,445.0069580078125,410.5680847167969
14538,401.384765625,-1207.7034912109375,426.0269775390625,388.4839782714844
14539,402.6226806640625,-1209.307861328125,431.0907897949219,398.9183044433594
14540,402.2112731933594,-1194.037841796875,431.7976379394531,386.976806640625
14541,408.93560791015625,-1192.205322265625,439.7673645019531,402.1121826171875
14542,402.0579528808594,-1205.0780029296875,434.2921447753906,393.1251831054688
14543,393.145751953125,-1209.319091796875,425.6529846191406,389.923828125
14544,407.49951171875,-1198.2265625,440.5078430175781,396.3190612792969
14545,425.047119140625,-1194.531494140625,442.830322265625,391.89849853515625
14546,403.7334289550781,-1201.6148681640625,435.67218017578125,396.3377685546875
14547,392.147216796875,-1209.6556396484375,432.852294921875,398.40966796875
14548,407.6304016113281,-1207.1986083984375,444.2814025878906,405.3471984863281
14549,398.2731628417969,-1200.7958984375,444.01214599609375,396.9960021972656
14550,394.3612365722656,-1207.6884765625,430.45501708984375,390.3726196289063
14551,389.9070129394531,-1206.0953369140625,434.6848449707031,397.91973876953125
14552,396.9342956542969,-1197.8563232421875,442.7069091796875,402.0934753417969
14553,405.8165588378906,-1193.7386474609375,441.2146911621094,407.2545471191406
14554,394.9334411621094,-1203.84765625,427.3059997558594,386.7972717285156
14555,380.2243957519531,-1203.765380859375,427.6313781738281,388.9065856933594
14556,396.384521484375,-1187.47802734375,435.8516845703125,391.8050231933594
14557,399.0473327636719,-1188.065185546875,440.0179443359375,390.8962097167969
14558,383.14154052734375,-1199.3858642578125,433.1402587890625,393.01300048828125
14559,392.5997314453125,-1191.7564697265625,430.97857666015625,383.8764343261719
14560,398.5013122558594,-1184.6170654296875,441.8953552246094,389.9537658691406
14561,404.3804321289063,-1193.873291015625,446.3495788574219,394.8455505371094
14562,398.4938049316406,-1202.1646728515625,430.0548400878906,392.8634033203125
14563,401.7998962402344,-1195.025146484375,430.3577575683594,387.657470703125
14564,399.107177734375,-1197.770263671875,425.6828918457031,387.71728515625
14565,400.8499450683594,-1190.0399169921875,428.1998596191406,381.4267883300781
14566,404.8853149414063,-1202.426513671875,426.9656677246094,386.8758239746094
14567,388.56439208984375,-1198.4434814453125,421.890625,384.53839111328125
14568,398.4302368164063,-1196.91015625,431.1880187988281,391.1243591308594
14569,411.7218322753906,-1183.884033203125,441.11370849609375,388.5438232421875
14570,386.6046752929688,-1195.200927734375,424.014892578125,377.0137023925781
14571,396.7809448242188,-1192.7139892578125,426.4458312988281,382.3430480957031
14572,397.91412353515625,-1185.1668701171875,429.4003601074219,367.821044921875
14573,406.66925048828125,-1177.8553466796875,433.3421936035156,366.22784423828125
14574,398.426513671875,-1184.377685546875,425.7090759277344,368.2959899902344
14575,392.4239501953125,-1193.439453125,427.06292724609375,374.5752868652344
14576,412.4511413574219,-1189.9202880859375,434.6736145019531,375.78326416015625
14577,420.2749938964844,-1185.2379150390625,442.13470458984375,376.448974609375
14578,413.0420227050781,-1196.0162353515625,425.1219177246094,370.345458984375
14579,401.5455932617188,-1199.834716796875,424.2280578613281,375.0764465332031
14580,409.2385559082031,-1184.7142333984375,436.2967224121094,380.5628662109375
14581,427.3359375,-1179.15673828125,440.43304443359375,383.1583557128906
14582,407.7799987792969,-1200.2760009765625,434.2958679199219,386.3522338867188
14583,391.89288330078125,-1202.95751953125,426.8385314941406,370.861572265625
14584,400.10198974609375,-1190.7916259765625,439.8795471191406,377.9150085449219
14585,399.8551330566406,-1184.190673828125,440.8706359863281,383.9811401367188
14586,393.0073852539063,-1201.3643798828125,422.1374816894531,373.4757690429688
14587,388.67657470703125,-1191.3450927734375,426.7562561035156,379.7288818359375
14588,406.714111328125,-1189.2171630859375,436.5921936035156,376.21337890625
14589,399.8102722167969,-1195.245849609375,431.9322509765625,386.9244384765625
14590,386.548583984375,-1184.1495361328125,433.521728515625,386.471923828125
14591,390.5353088378906,-1189.669677734375,422.50396728515625,369.7096862792969
14592,407.7014465332031,-1182.3282470703125,436.2593383789063,392.3959045410156
14593,419.9309387207031,-1182.9490966796875,437.4411315917969,379.08935546875
14594,405.30792236328125,-1188.779541015625,426.4009399414063,370.4352111816406
14595,387.2741088867188,-1195.728271484375,423.0799255371094,376.39288330078125
14596,410.21466064453125,-1183.1622314453125,442.9275817871094,381.9167175292969
14597,410.3156433105469,-1181.995361328125,437.4747924804688,379.324951171875
14598,404.5262756347656,-1194.2061767578125,433.0691833496094,379.5456237792969
14599,396.7173767089844,-1191.1917724609375,432.3548889160156,379.82611083984375
14600,414.014404296875,-1185.4884033203125,439.42327880859375,385.52197265625
14601,411.1982727050781,-1177.2344970703125,440.23858642578125,374.5304260253906
14602,403.2210388183594,-1194.1575927734375,427.2573852539063,375.4354553222656
14603,405.0685729980469,-1194.7335205078125,429.5013427734375,377.27923583984375
14604,396.98663330078125,-1183.4913330078125,430.0959777832031,375.12506103515625
14605,412.9709777832031,-1183.4764404296875,436.5510559082031,382.1523132324219
14606,415.869384765625,-1189.4752197265625,425.0059814453125,372.8549499511719
14607,379.6073303222656,-1188.4766845703125,408.6401672363281,359.93731689453125
14608,405.9736328125,-1179.55322265625,430.57843017578125,381.1650085449219
14609,407.0731506347656,-1167.735107421875,428.70098876953125,362.4804382324219
14610,398.21331787109375,-1185.914794921875,420.4620056152344,362.9778747558594
14611,393.2916259765625,-1195.4254150390625,419.9720764160156,357.633544921875
14612,405.4649963378906,-1170.0762939453125,433.862060546875,367.5592346191406
14613,423.8952331542969,-1175.562744140625,431.8163146972656,362.4281005859375
14614,398.6284484863281,-1182.709716796875,422.58624267578125,368.1688537597656
14615,407.6304016113281,-1191.2890625,423.77178955078125,365.9922180175781
14616,421.41192626953125,-1180.091796875,437.3738098144531,372.33135986328125
14617,424.2205810546875,-1175.1700439453125,447.5351257324219,379.83734130859375
14618,405.8726501464844,-1191.184326171875,429.2133483886719,376.2507629394531
14619,415.4580078125,-1196.2481689453125,426.726318359375,364.3167419433594
14620,419.1530151367188,-1187.5303955078125,433.170166015625,373.4832458496094
14621,419.283935546875,-1185.211669921875,432.30999755859375,369.94903564453125
14622,410.8205261230469,-1191.479736328125,422.9452819824219,359.3538818359375
14623,399.0510559082031,-1192.8822021484375,427.9642333984375,371.1532897949219
14624,415.9703674316406,-1192.90087890625,427.0180358886719,365.943603515625
14625,416.8829040527344,-1168.8197021484375,440.1974487304688,378.831298828125
14626,400.4497985839844,-1197.1046142578125,426.99932861328125,371.1944274902344
14627,398.08990478515625,-1194.961669921875,417.55609130859375,359.52593994140625
14628,408.8009948730469,-1180.046875,430.2119140625,364.9824523925781
14629,413.5730895996094,-1173.9508056640625,439.0679931640625,378.1842956542969
14630,408.01934814453125,-1184.84521484375,423.44268798828125,367.21142578125
14631,414.9306945800781,-1191.45361328125,424.2392883300781,360.7301940917969
14632,424.8227233886719,-1174.9344482421875,434.28839111328125,371.1121520996094
14633,417.4102478027344,-1172.4473876953125,432.4109802246094,363.8230895996094
14634,412.3052673339844,-1187.661376953125,422.4964904785156,368.8532409667969
14635,403.3893432617188,-1193.5703125,421.2062377929688,364.5897521972656
14636,417.5074768066406,-1183.9849853515625,430.56719970703125,371.5870971679688
14637,428.9852294921875,-1189.1573486328125,430.4250793457031,362.85443115234375
14638,404.9077453613281,-1196.1920166015625,424.84515380859375,365.3377380371094
14639,406.31396484375,-1195.2197265625,423.7605895996094,366.6691284179688
14640,415.6337890625,-1181.146484375,429.7556457519531,372.35003662109375
14641,406.9609680175781,-1180.38720703125,435.7507019042969,368.3184509277344
14642,415.36077880859375,-1179.998291015625,427.0741271972656,371.3215637207031
14643,410.3866882324219,-1185.9222412109375,429.0039367675781,367.9818420410156
14644,404.3467712402344,-1179.8187255859375,431.1094970703125,365.3975830078125
14645,407.9370727539063,-1180.1927490234375,436.83526611328125,372.4211120605469
14646,401.8036193847656,-1184.6058349609375,426.2775268554688,357.4502868652344
14647,404.93017578125,-1188.319580078125,424.706787109375,359.2753601074219
14648,423.779296875,-1175.701171875,433.95928955078125,365.3414916992188
14649,412.2790832519531,-1173.509521484375,433.10284423828125,365.0946350097656
14650,409.0627746582031,-1186.198974609375,427.0965881347656,364.8927001953125
14651,408.7785339355469,-1190.185791015625,423.0724487304688,361.5006103515625
14652,420.3610229492188,-1180.469482421875,431.5133972167969,363.2770385742188
14653,423.4464416503906,-1173.7003173828125,445.9793395996094,380.0916442871094
14654,408.086669921875,-1188.012939453125,428.8468627929688,360.77880859375
14655,389.5367736816406,-1195.9415283203125,417.6196594238281,357.36053466796875
14656,411.75177001953125,-1192.4559326171875,432.7176513671875,365.7752990722656
14657,417.7879638671875,-1180.712646484375,440.8182678222656,372.96337890625
14658,410.10247802734375,-1192.239013671875,431.8462524414063,368.0903015136719
14659,398.4078063964844,-1193.8919677734375,426.6964111328125,368.2810363769531
14660,412.6343688964844,-1177.6719970703125,433.4469299316406,365.8912353515625
14661,411.95745849609375,-1169.7135009765625,436.1845397949219,363.2882690429688
14662,407.8659973144531,-1176.3070068359375,428.4055480957031,368.95794677734375
14663,404.4103393554688,-1183.47265625,426.7151184082031,366.2914123535156
14664,409.4068603515625,-1182.59375,436.24810791015625,367.6041259765625
14665,423.08740234375,-1170.996337890625,445.7511901855469,374.7099304199219
14666,427.8258666992188,-1186.0980224609375,434.3183288574219,373.37103271484375
14667,396.2536315917969,-1196.0386962890625,422.7395935058594,369.1300048828125
14668,417.2681274414063,-1173.8349609375,432.1940612792969,362.47296142578125
14669,425.0396423339844,-1179.755126953125,441.1174621582031,374.9978942871094
14670,415.86566162109375,-1183.6109619140625,432.1192626953125,370.5549011230469
14671,408.75238037109375,-1193.82470703125,429.4863586425781,363.3219299316406
14672,416.97265625,-1178.670654296875,436.1134643554688,368.5503234863281
14673,414.26123046875,-1169.068359375,447.5108337402344,375.66546630859375
14674,401.5567932128906,-1174.5548095703125,433.8190307617188,370.1790466308594
14675,410.1398620605469,-1182.5732421875,433.8227844238281,368.89251708984375
14676,400.4123840332031,-1177.9169921875,438.2134399414063,368.07720947265625
14677,412.59698486328125,-1170.3026123046875,450.84307861328125,377.96923828125
14678,413.849853515625,-1190.954345703125,443.5166015625,375.3438415527344
14679,399.9635925292969,-1182.3712158203125,429.9519958496094,370.5193786621094
14680,414.38092041015625,-1176.727783203125,436.24249267578125,370.1528625488281
14681,424.80401611328125,-1176.63427734375,448.9207763671875,379.4988708496094
14682,412.3576354980469,-1187.9100341796875,437.0353698730469,373.1223449707031
14683,406.9534606933594,-1193.2169189453125,440.88372802734375,375.3999328613281
14684,416.49395751953125,-1182.7601318359375,445.4538879394531,379.86163330078125
14685,410.6372680664063,-1174.9063720703125,440.5957336425781,379.928955078125
14686,401.75128173828125,-1188.5457763671875,433.9836120605469,370.6614990234375
14687,399.2866821289063,-1192.0164794921875,430.1763916015625,375.32513427734375
14688,412.9597473144531,-1177.81982421875,433.9686279296875,368.7840576171875
14689,416.4378662109375,-1177.6402587890625,437.9778137207031,373.7356872558594
14690,403.0153503417969,-1189.4359130859375,432.05755615234375,370.5081481933594
14691,412.2641296386719,-1184.53662109375,427.4200744628906,369.4011535644531
14692,414.95684814453125,-1175.6207275390625,435.9320983886719,373.7431640625
14693,414.6464538574219,-1174.1883544921875,440.4424133300781,378.2946166992188
14694,403.7034912109375,-1187.3565673828125,430.70745849609375,364.09796142578125
14695,393.9535827636719,-1187.9736328125,419.4840087890625,359.3894348144531
14696,418.5022888183594,-1170.9046630859375,441.5307312011719,374.9025268554688
14697,414.0742492675781,-1171.1141357421875,450.3045349121094,379.0762634277344
14698,409.7845764160156,-1184.45068359375,435.88720703125,371.0803527832031
14699,404.04010009765625,-1189.020751953125,427.77911376953125,364.1877136230469
14700,424.21685791015625,-1169.603271484375,446.50103759765625,377.2474365234375
14701,414.9905090332031,-1178.571533203125,443.02294921875,373.3542175292969
14702,421.45306396484375,-1186.6422119140625,427.8426818847656,362.8899841308594
14703,407.2937927246094,-1181.13330078125,427.506103515625,372.6211853027344
14704,410.9551696777344,-1170.6204833984375,431.6087646484375,367.36663818359375
14705,431.5321044921875,-1169.67431640625,434.114501953125,369.6180419921875
14706,400.9958190917969,-1176.1181640625,426.7955017089844,369.1318664550781
14707,404.94140625,-1180.284423828125,422.4871520996094,365.2872619628906
14708,411.6994018554688,-1168.33544921875,428.31390380859375,367.06744384765625
14709,418.1993408203125,-1171.2674560546875,431.04779052734375,365.421875
14710,412.59698486328125,-1179.6597900390625,426.0363159179688,361.266845703125
14711,411.6507873535156,-1176.4884033203125,419.30450439453125,358.6451721191406
14712,426.4308776855469,-1165.78857421875,435.3075256347656,364.0643005371094
14713,417.48876953125,-1167.23583984375,432.1473083496094,369.26275634765625
14714,407.7276306152344,-1172.7073974609375,423.62408447265625,358.5853576660156
14715,412.8812255859375,-1175.1383056640625,425.05645751953125,367.7032165527344
14716,413.8274230957031,-1171.929443359375,425.3594055175781,358.7798156738281
14717,421.90185546875,-1165.6090087890625,430.6139526367188,361.97369384765625
14718,418.7640686035156,-1181.294189453125,429.63409423828125,361.3566284179688
14719,404.859130859375,-1181.3839111328125,423.7213134765625,359.4455261230469
14720,416.14239501953125,-1168.2381591796875,438.011474609375,368.5334777832031
14721,427.51171875,-1168.2943115234375,441.81494140625,372.3668823242188
14722,398.5574035644531,-1183.2762451171875,428.13812255859375,366.8280944824219
14723,408.6364135742188,-1190.9393310546875,422.3637390136719,361.89141845703125
14724,411.972412109375,-1178.818359375,441.755126953125,375.66546630859375
