,T7,F8,Cz,P4
12000,400.4086608886719,-1040.877685546875,525.8561401367189,186.16099548339844
12001,398.21331787109375,-1039.2845458984377,524.5882568359375,187.14085388183597
12002,407.0432434082031,-1031.5841064453123,530.1495361328125,196.51678466796875
12003,421.1164855957031,-1024.1192626953123,538.6503295898439,210.8555603027344
12004,404.3841552734375,-1043.7200927734377,526.9818115234375,196.8496398925781
12005,396.032958984375,-1050.89697265625,525.9832763671875,189.69520568847656
12006,408.7336730957031,-1034.4749755859377,527.9093017578125,201.04954528808597
12007,419.6990661621094,-1030.7537841796877,532.5804443359375,204.45285034179688
12008,406.385009765625,-1046.652099609375,527.2249145507811,195.7239227294922
12009,397.37933349609375,-1050.5865478515623,523.2718505859375,192.68711853027344
12010,403.86431884765625,-1038.375732421875,521.342041015625,197.6948547363281
12011,414.9157104492188,-1028.3939208984377,527.8419799804689,203.92926025390625
12012,404.507568359375,-1039.737060546875,523.5261840820311,191.00042724609372
12013,392.0387573242188,-1046.6334228515623,521.9890747070311,186.92393493652344
12014,410.3605346679688,-1032.2984619140623,530.3140869140625,197.56021118164062
12015,423.2818908691406,-1025.850830078125,540.849365234375,200.0659484863281
12016,410.0202026367188,-1041.438720703125,529.0462646484375,179.30201721191406
12017,398.6022644042969,-1040.735595703125,527.9878540039061,179.8443145751953
12018,413.004638671875,-1022.1258544921876,536.2680053710939,190.7797698974609
12019,418.5284729003906,-1018.7225952148438,533.8408203125,197.21987915039062
12020,397.7645263671875,-1039.98388671875,525.9271850585939,187.70932006835938
12021,393.0709533691406,-1041.1395263671877,528.6984252929689,187.32037353515625
12022,403.2846374511719,-1031.658935546875,534.9664916992189,202.49688720703125
12023,415.31964111328125,-1021.6808471679688,536.4774169921875,206.21060180664062
12024,399.6756286621094,-1033.6522216796877,524.5321655273439,190.8059539794922
12025,395.0680847167969,-1041.0235595703123,526.529296875,184.50048828125
12026,412.6568298339844,-1027.9638671875,533.253662109375,198.63731384277344
12027,420.634033203125,-1030.076904296875,535.4938354492189,199.5086975097656
12028,402.6039733886719,-1039.8492431640623,531.76513671875,194.7365875244141
12029,398.7518615722656,-1040.455078125,526.3198852539061,186.17970275878903
12030,406.05963134765625,-1031.6888427734377,531.3463134765625,195.7762756347656
12031,413.1990966796875,-1023.3600463867188,533.1077880859375,199.0449523925781
12032,397.8617858886719,-1039.0078125,526.4544677734375,185.06521606445312
12033,391.7059020996094,-1043.8846435546877,526.7798461914061,177.76866149902344
12034,411.3179321289063,-1028.233154296875,530.62451171875,187.66818237304688
12035,429.437744140625,-1021.0675048828124,544.780029296875,189.0033264160156
12036,414.4669189453125,-1037.822265625,530.179443359375,178.75973510742188
12037,403.1200866699219,-1043.43212890625,523.417724609375,183.13168334960938
12038,415.6824035644531,-1036.980712890625,526.2188720703125,192.1298828125
12039,431.0533752441406,-1030.6116943359377,537.3675537109375,202.2163848876953
12040,413.9545593261719,-1046.027587890625,530.1420288085939,188.0945281982422
12041,405.29669189453125,-1054.281494140625,526.1216430664061,187.9037933349609
12042,411.632080078125,-1040.48876953125,522.80810546875,196.06051635742188
12043,413.6778259277344,-1032.2684326171877,529.0088500976561,199.93505859375
12044,398.5723571777344,-1049.5206298828123,518.92236328125,191.26596069335938
12045,390.5203552246094,-1054.887451171875,511.65570068359375,187.94119262695312
12046,407.0133056640625,-1040.97119140625,520.6240234375,198.4839630126953
12047,416.725830078125,-1035.510986328125,535.1572265625,209.26983642578125
12048,400.0832824707031,-1044.325927734375,531.0283813476561,192.376708984375
12049,394.76513671875,-1047.14208984375,523.8029174804689,189.2538909912109
12050,407.9482727050781,-1035.8662109375,529.9138793945311,194.37008666992188
12051,416.84552001953125,-1020.4578857421876,537.375,199.30674743652344
12052,404.2196044921875,-1038.1102294921877,533.1937866210939,182.5968780517578
12053,401.56427001953125,-1037.8970947265623,530.7179565429689,186.63597106933597
12054,413.47210693359375,-1023.6068725585938,540.6399536132811,195.89596557617188
12055,428.2896118164063,-1026.310791015625,541.7432250976561,206.6743469238281
12056,414.025634765625,-1039.7557373046877,533.5453491210939,190.6825408935547
12057,404.4739074707031,-1041.65185546875,526.7910766601561,184.16015625
12058,417.15966796875,-1029.6954345703123,530.7235717773439,194.9273223876953
12059,419.448486328125,-1026.639892578125,535.75,198.4278717041016
12060,399.6531982421875,-1044.9130859375,526.8079223632811,184.3695831298828
12061,396.9081115722656,-1045.38427734375,519.5225830078125,178.65501403808594
12062,405.8389892578125,-1035.477294921875,525.2483520507811,188.2964782714844
12063,421.25860595703125,-1026.61376953125,534.306396484375,197.01792907714844
12064,403.7072448730469,-1038.4281005859377,525.9290161132811,176.4933624267578
12065,388.9608154296875,-1044.9991455078123,524.8631591796875,177.26004028320312
12066,404.2383117675781,-1029.714111328125,524.2535400390625,185.8131866455078
12067,413.3748779296875,-1020.6149291992188,533.1844482421875,189.3810577392578
12068,397.9291076660156,-1033.44287109375,523.20263671875,176.68783569335938
12069,399.6344909667969,-1035.380126953125,524.8594360351561,173.20223999023438
12070,414.95684814453125,-1020.8206787109376,532.1784057617189,180.8466033935547
12071,428.5962829589844,-1013.9093017578124,543.5739135742189,188.44981384277344
12072,417.1521911621094,-1035.006103515625,542.0442504882811,186.5611724853516
12073,410.03515625,-1039.748291015625,544.0563354492189,183.3074493408203
12074,424.7479248046875,-1024.4932861328123,543.0802001953125,192.6459808349609
12075,432.9869079589844,-1014.3169555664062,544.1834716796875,204.22097778320312
12076,415.7310180664063,-1029.8114013671877,540.9671630859375,192.85916137695312
12077,406.8674621582031,-1034.127197265625,536.1240234375,193.03494262695312
12078,415.880615234375,-1025.731201171875,538.4876098632811,200.09213256835938
12079,425.2602844238281,-1020.2260131835938,543.1513061523439,209.6251373291016
12080,407.9931640625,-1034.3441162109377,533.3826904296875,195.12179565429688
12081,399.3165893554688,-1034.2244873046877,530.9218139648439,186.75938415527344
12082,405.0423889160156,-1021.8229370117188,526.4338989257811,194.19430541992188
12083,416.3443603515625,-1012.6901245117188,535.843505859375,198.28948974609372
12084,401.5829772949219,-1025.4693603515623,525.1324462890625,183.0120086669922
12085,389.1141357421875,-1026.2471923828123,521.441162109375,177.0767822265625
12086,406.5906982421875,-1005.6217041015624,525.4091796875,181.58709716796875
12087,422.3805541992188,-999.570556640625,537.287109375,188.11697387695312
12088,398.67333984375,-1014.4403686523438,522.5855712890625,172.6786651611328
12089,397.39056396484375,-1017.0657958984376,522.7650756835939,171.44822692871094
12090,416.65850830078125,-1005.2215576171876,537.1300659179689,175.5135040283203
12091,427.8108825683594,-998.3700561523438,542.0592041015625,191.8306884765625
12092,409.7546691894531,-1017.8436889648438,533.494873046875,178.9803924560547
12093,401.7849426269531,-1028.80908203125,529.7474975585939,176.0595245361328
12094,413.5843200683594,-1015.1210327148438,534.3363647460939,193.7754364013672
12095,419.3138427734375,-1010.7266845703124,539.5385131835939,195.7313995361328
12096,400.1206665039063,-1016.6094970703124,529.4595336914061,188.2291717529297
12097,389.23382568359375,-1020.4691162109376,528.0682373046875,184.406982421875
12098,399.0622863769531,-1009.361572265625,531.2396850585939,194.87496948242188
12099,414.1004333496094,-1008.25830078125,535.0543823242189,193.53982543945312
12100,392.0724182128906,-1022.5634155273438,525.1698608398439,184.3658447265625
12101,382.288818359375,-1023.5545043945312,521.6356201171875,179.3282012939453
12102,403.2247924804688,-1008.0750732421876,525.6821899414061,187.5372772216797
12103,410.12115478515625,-1006.0817260742188,530.4992065429689,192.16354370117188
12104,394.2976379394531,-1018.397216796875,525.2783203125,179.85926818847656
12105,392.07989501953125,-1023.1206665039062,526.347900390625,182.7240295410156
12106,407.4284362792969,-1009.6159057617188,530.3458862304689,189.14544677734372
12107,423.8279113769531,-998.7589721679688,544.703369140625,198.7682037353516
12108,411.20947265625,-1020.745849609375,547.123046875,185.27464294433597
12109,414.6240234375,-1023.5919189453124,549.7185668945311,183.70388793945312
12110,420.9780883789063,-1012.1403198242188,549.0528564453125,195.2527008056641
12111,431.3638000488281,-1011.7700805664062,553.133056640625,202.3734588623047
12112,409.025390625,-1030.8585205078123,541.0419921875,196.7785797119141
12113,403.83441162109375,-1035.54833984375,535.25634765625,184.11154174804688
12114,411.58721923828125,-1027.574951171875,533.1844482421875,197.4517517089844
12115,424.684326171875,-1019.8744506835938,539.8564453125,201.44970703125
12116,398.662109375,-1041.03857421875,523.9843139648439,187.4961395263672
12117,389.7723693847656,-1046.0089111328123,521.5421142578125,183.53933715820312
12118,404.80303955078125,-1026.123779296875,526.1908569335939,191.47540283203125
12119,414.0779724121094,-1028.7567138671877,531.2060546875,196.3634490966797
12120,396.5266418457031,-1045.9453125,517.8658447265625,179.47032165527344
12121,393.10089111328125,-1047.8077392578123,511.9792175292969,174.33169555664062
12122,404.7132873535156,-1031.20263671875,518.236083984375,183.9507141113281
12123,413.7039794921875,-1019.702392578125,523.1802368164061,191.7558898925781
12124,395.0044860839844,-1035.4361572265623,523.8533935546875,175.76034545898438
12125,393.5608825683594,-1037.5230712890623,526.3778076171875,177.2899627685547
12126,404.2383117675781,-1028.057373046875,525.39794921875,181.0111541748047
12127,423.53619384765625,-1013.5427856445312,536.4867553710939,193.26307678222656
12128,404.44775390625,-1032.6199951171877,527.5970458984375,177.99305725097656
12129,396.9118347167969,-1035.41748046875,531.4491577148439,182.27149963378903
12130,423.5137634277344,-1028.057373046875,545.24560546875,194.06341552734372
12131,432.5456237792969,-1018.879638671875,556.3194580078125,213.1144561767578
12132,420.5517578125,-1043.248779296875,549.85693359375,204.02276611328125
12133,406.9422607421875,-1050.197509765625,539.433837890625,199.07113647460938
12134,420.0132141113281,-1037.552978515625,545.7430419921875,206.60704040527344
12135,424.9610900878906,-1027.8665771484377,548.3983764648439,210.522705078125
12136,407.88470458984375,-1045.851806640625,531.3070068359375,193.1770477294922
12137,398.3180541992188,-1048.8511962890623,531.9727172851561,185.67481994628903
12138,412.5109558105469,-1038.3233642578123,529.4183959960939,191.47540283203125
12139,420.7499694824219,-1035.3837890625,534.1493530273439,196.7262115478516
12140,405.3041687011719,-1047.321533203125,520.1097412109375,179.38804626464844
12141,404.2196044921875,-1048.585693359375,522.884765625,178.6587677001953
12142,412.5334167480469,-1034.6395263671877,529.8858642578125,181.4748992919922
12143,419.5831298828125,-1027.0438232421877,537.2197875976561,193.29672241210938
12144,404.6908264160156,-1039.8155517578123,530.5552978515625,179.56381225585938
12145,406.6094055175781,-1047.718017578125,525.8392944335939,171.97555541992188
12146,417.1334838867188,-1029.6693115234377,531.090087890625,186.09368896484372
12147,425.623046875,-1020.5626220703124,543.1886596679689,196.34474182128903
12148,412.3538818359375,-1037.0330810546877,543.671142578125,184.00308227539062
12149,408.83837890625,-1042.448486328125,537.462890625,187.69061279296875
12150,419.7850646972656,-1029.628173828125,550.0775756835939,191.21734619140625
12151,436.3378601074219,-1023.7340087890624,559.5619506835939,207.06329345703125
12152,418.2704162597656,-1037.2724609375,547.5007934570311,191.50157165527344
12153,407.6603088378906,-1050.100341796875,536.9168701171875,184.0367431640625
12154,418.4050598144531,-1035.8587646484377,542.1489868164061,195.7089691162109
12155,429.6846008300781,-1034.018798828125,543.390625,194.48976135253903
12156,414.7549133300781,-1049.902099609375,533.5023193359375,181.62823486328125
12157,402.4917602539063,-1050.36962890625,525.0053100585939,182.32760620117188
12158,416.6959228515625,-1038.936767578125,528.9359130859375,188.87242126464844
12159,424.4001159667969,-1027.8741455078123,539.1570434570311,198.831787109375
12160,395.7898864746094,-1045.95654296875,528.5245361328125,181.9947509765625
12161,396.69866943359375,-1052.4752197265623,525.151123046875,180.2893524169922
12162,410.2333679199219,-1039.8455810546877,528.741455078125,185.3008270263672
12163,423.9400939941406,-1030.9482421875,545.2156982421875,199.26934814453125
12164,406.5944519042969,-1046.719482421875,536.8308715820311,189.9270782470703
12165,401.4333801269531,-1046.9476318359377,533.03857421875,184.7996826171875
12166,419.6990661621094,-1031.4232177734377,541.7188720703125,191.81573486328125
12167,429.8603515625,-1021.4451904296876,543.3494873046875,200.41375732421875
12168,405.2854919433594,-1044.6400146484377,539.833984375,187.8963165283203
12169,399.2530212402344,-1045.4703369140623,535.0431518554689,182.83248901367188
12170,417.0586853027344,-1031.097900390625,537.3656616210939,192.9376983642578
12171,420.7125549316406,-1025.1402587890623,546.8126220703125,201.2402801513672
12172,400.8088073730469,-1040.144775390625,538.7718505859375,193.1620941162109
12173,391.5675354003906,-1044.583984375,528.2627563476561,184.5304107666016
12174,405.3303527832031,-1031.636474609375,530.53662109375,194.45236206054688
12175,418.2180480957031,-1024.2763671875,532.6234741210939,202.5679473876953
12176,400.0832824707031,-1041.5546875,518.8793334960939,183.1765594482422
12177,398.063720703125,-1044.1575927734377,518.65869140625,181.92742919921875
12178,409.2684631347656,-1035.346435546875,527.6119995117189,185.8805084228516
12179,425.8175354003906,-1030.3499755859377,529.5193481445311,191.01165771484372
12180,400.0533447265625,-1043.2637939453123,525.0277099609375,181.89002990722656
12181,397.1960754394531,-1041.330322265625,526.4376831054689,177.6302947998047
12182,407.7425842285156,-1029.9759521484377,525.2932739257811,180.95132446289062
12183,417.31298828125,-1022.294189453125,535.514404296875,188.1132354736328
12184,407.6864929199219,-1036.38232421875,536.5167236328125,184.09283447265625
12185,396.7921752929688,-1044.688720703125,539.16455078125,179.51519775390625
12186,406.8674621582031,-1024.5194091796877,548.3123168945311,188.9771423339844
12187,420.6265563964844,-1016.826416015625,547.3137817382811,200.4773406982422
12188,411.0972900390625,-1031.9356689453123,546.3676147460939,188.2703094482422
12189,403.5763549804688,-1036.311279296875,539.762939453125,188.7826690673828
12190,415.4355773925781,-1032.3245849609377,539.938720703125,194.17935180664062
12191,428.6673278808594,-1028.659423828125,549.65869140625,206.53224182128903
12192,409.6200256347656,-1042.340087890625,538.81298828125,196.1540069580078
12193,397.2783508300781,-1048.5557861328123,531.9315795898439,185.5850524902344
12194,404.6646423339844,-1034.699462890625,532.3242797851561,193.59591674804688
12195,420.8846130371094,-1029.8973388671877,539.2318725585939,201.94711303710938
12196,406.4448547363281,-1040.451416015625,528.7377319335939,188.479736328125
12197,398.1759338378906,-1049.176513671875,526.95751953125,179.01031494140625
12198,407.0021057128906,-1036.3262939453123,525.3792724609375,178.43063354492188
12199,418.1731872558594,-1026.123779296875,542.3883666992189,193.902587890625
12200,404.518798828125,-1036.5731201171877,530.8731689453125,178.80087280273438
12201,395.79736328125,-1043.9183349609377,536.886962890625,172.7123260498047
12202,409.69854736328125,-1030.65283203125,540.761474609375,181.0074157714844
12203,422.6722717285156,-1023.292724609375,544.7445068359375,190.1776580810547
12204,409.3245849609375,-1039.2733154296877,540.7689819335939,176.72897338867188
12205,401.2127380371094,-1042.6728515625,534.6317749023439,171.89328002929688
12206,410.8504638671875,-1025.6937255859377,539.7180786132811,189.9345550537109
12207,428.5513916015625,-1019.4743041992188,548.4469604492189,198.38673400878903
12208,413.5282287597656,-1041.0460205078123,541.0270385742189,192.2532958984375
12209,406.1793212890625,-1042.493408203125,537.8443603515625,196.34474182128903
12210,419.8561401367188,-1027.3131103515623,543.8880615234375,202.2313537597656
12211,427.7061767578125,-1022.7391967773438,548.6376953125,212.8638916015625
12212,413.44219970703125,-1039.112548828125,537.9603271484375,205.68701171875
12213,401.0818176269531,-1043.36474609375,528.7638549804689,195.6827850341797
12214,412.3015441894531,-1038.6636962890623,530.9666748046875,203.7946319580078
12215,419.8523864746094,-1032.5115966796877,534.9235229492189,206.61077880859372
12216,399.73919677734375,-1044.456787109375,527.1295776367189,199.1234893798828
12217,389.1403198242188,-1046.0836181640623,521.6693115234375,188.0159912109375
12218,397.6448669433594,-1032.0703125,527.9597778320311,190.4057922363281
12219,411.61712646484375,-1024.3323974609377,533.823974609375,201.15426635742188
12220,402.0280151367188,-1035.0958251953123,530.7647094726561,191.3632049560547
12221,394.2826843261719,-1041.12451171875,532.122314453125,184.39202880859372
12222,408.5952758789063,-1031.9132080078123,532.57861328125,186.7967834472656
12223,423.0612182617188,-1021.9052124023438,541.8684692382811,195.67156982421875
12224,410.2445983886719,-1034.994873046875,537.2422485351561,180.4651336669922
12225,413.1392822265625,-1035.9747314453123,542.19384765625,182.3126373291016
12226,425.3014221191406,-1030.6903076171877,546.1506958007811,185.9029541015625
12227,434.5352478027344,-1022.3951416015624,557.579833984375,195.15171813964844
12228,420.9855651855469,-1035.170654296875,545.2493896484375,191.6362152099609
12229,405.4462890625,-1043.2152099609377,538.0126342773439,186.58360290527344
12230,413.7638244628906,-1029.867431640625,540.3351440429689,200.7428741455078
12231,421.9878845214844,-1023.9547119140624,540.3837280273439,204.04893493652344
12232,402.11029052734375,-1038.9927978515623,528.389892578125,193.76048278808597
12233,394.0882263183594,-1041.7005615234377,525.607421875,192.7731475830078
12234,403.7596130371094,-1029.527099609375,524.58642578125,197.42184448242188
12235,411.0000305175781,-1017.4771728515624,531.7258911132811,200.9859619140625
12236,396.8968811035156,-1033.0538330078123,521.4598388671875,185.0801696777344
12237,386.47003173828125,-1038.7908935546877,514.4288330078125,177.98184204101562
12238,400.3450622558594,-1021.36669921875,521.875,186.93516540527344
12239,413.8274230957031,-1013.71484375,524.7734375,185.91416931152344
12240,398.5461730957031,-1031.1876220703123,520.6295776367189,176.68409729003906
12241,395.3111572265625,-1032.36572265625,518.1650390625,169.4847869873047
12242,408.1876525878906,-1021.4302368164062,528.2552490234375,178.12396240234375
12243,425.1518249511719,-1011.8074951171876,536.0791015625,185.70098876953125
12244,407.9333190917969,-1027.6572265625,530.2186889648439,174.34291076660156
12245,399.6195373535156,-1029.515869140625,526.2693481445311,175.2479705810547
12246,418.86505126953125,-1020.1175537109376,530.4879760742189,189.64285278320312
12247,424.4263000488281,-1017.2640380859376,539.9798583984375,197.5153350830078
12248,410.9888305664063,-1034.807861328125,533.23681640625,190.1888732910156
12249,405.12091064453125,-1042.306396484375,522.1592407226561,189.27633666992188
12250,417.7954406738281,-1034.160888671875,530.6749877929689,195.4322052001953
12251,421.3745422363281,-1026.6474609375,533.6631469726561,201.43849182128903
12252,404.025146484375,-1036.4310302734377,527.5484008789061,195.49578857421875
12253,388.4185180664063,-1043.4171142578123,519.5001831054689,190.03927612304688
12254,390.88311767578125,-1029.62060546875,521.9909057617189,189.90838623046875
12255,400.281494140625,-1021.1048583984376,533.4050903320311,196.3971099853516
12256,390.774658203125,-1035.4847412109377,519.9826049804689,184.51544189453125
12257,383.9269104003906,-1037.825927734375,524.0889892578125,181.7554016113281
12258,400.8462219238281,-1025.58154296875,529.0331420898439,190.29733276367188
12259,416.12933349609375,-1018.5411987304688,535.7182006835939,201.09442138671875
12260,410.2763671875,-1033.743896484375,533.0292358398439,189.4857635498047
12261,406.802001953125,-1039.507080078125,537.4871826171875,187.18199157714844
12262,419.64483642578125,-1034.3609619140623,539.8807373046875,194.35137939453125
12263,438.3106689453125,-1022.0978393554688,550.4347534179689,197.88558959960938
12264,422.0907287597656,-1037.453857421875,544.8623046875,187.8776092529297
12265,410.84857177734375,-1045.84619140625,538.7288208007811,181.4337615966797
12266,427.7454528808594,-1030.9090576171877,539.0617065429689,188.1917724609375
12267,431.4815979003906,-1025.807861328125,544.252685546875,194.26910400390625
12268,416.9296569824219,-1042.2147216796877,540.2472534179689,185.6710662841797
12269,400.2609252929688,-1043.6920166015623,531.035888671875,185.95530700683597
12270,410.8111877441406,-1032.0235595703123,534.1138305664061,193.1172180175781
12271,419.5775146484375,-1023.9415893554688,539.8246459960939,203.13265991210938
12272,403.6754455566406,-1038.8450927734377,529.135986328125,188.0795745849609
12273,392.8297424316406,-1046.1827392578123,525.5457153320311,182.98208618164062
12274,403.5557861328125,-1027.501953125,533.208740234375,192.4290771484375
12275,421.2492370605469,-1022.453125,537.0982666015625,194.81138610839844
12276,402.3664855957031,-1036.6497802734377,530.2392578125,183.7786865234375
12277,398.514404296875,-1040.04931640625,524.32275390625,188.77145385742188
12278,413.070068359375,-1026.4361572265623,528.8218383789061,192.1410980224609
12279,429.01702880859375,-1016.1476440429688,537.6031494140625,200.4661102294922
12280,411.8620910644531,-1035.411865234375,534.4092407226561,187.83273315429688
12281,406.6711120605469,-1038.73291015625,532.726318359375,195.5182342529297
12282,417.1764831542969,-1033.511962890625,535.6920776367189,196.81224060058597
12283,435.3449096679688,-1027.0233154296877,549.1781005859375,206.3415069580078
12284,421.3277893066406,-1042.1099853515623,537.4647827148439,194.14195251464844
12285,407.42657470703125,-1046.6876220703123,529.6820068359375,180.88400268554688
12286,418.6275634765625,-1038.53466796875,534.86181640625,191.38563537597656
12287,426.2719421386719,-1026.9298095703123,535.7481689453125,191.33702087402344
12288,406.6449279785156,-1042.90283203125,524.7191772460939,184.9604949951172
12289,400.9453125,-1040.88330078125,525.33251953125,179.35438537597656
12290,412.2996520996094,-1037.2742919921877,533.0965576171875,189.87098693847656
12291,425.1275024414063,-1028.6912841796877,539.9181518554689,199.76675415039062
12292,408.94122314453125,-1043.9912109375,529.9475708007811,187.5896453857422
12293,404.1242370605469,-1048.5501708984377,527.02294921875,187.77664184570312
12294,409.2179870605469,-1034.705078125,529.4127807617189,191.8643493652344
12295,419.5064392089844,-1023.2572021484376,539.9181518554689,201.34124755859372
12296,408.1259460449219,-1046.5380859375,529.1659545898439,191.25848388671875
12297,399.5690307617188,-1042.24462890625,524.2329711914061,187.87013244628903
12298,407.5200805664063,-1035.7708740234377,526.8397216796875,191.8269500732422
12299,424.12896728515625,-1028.582763671875,539.1102905273439,205.84783935546875
12300,412.8681335449219,-1042.0128173828123,538.24267578125,192.11117553710938
12301,402.3814392089844,-1047.181396484375,540.2509765625,189.676513671875
12302,420.0375061035156,-1037.0386962890623,543.8225708007811,198.9402313232422
12303,428.6430358886719,-1025.5347900390623,547.0052490234375,204.9427795410156
12304,409.6705017089844,-1041.8968505859377,540.366943359375,195.79872131347656
12305,399.49798583984375,-1047.8731689453123,534.8468627929689,186.11985778808597
12306,409.8874206542969,-1036.148681640625,532.7225952148439,193.8988494873047
12307,417.4756774902344,-1028.94189453125,537.4236450195311,204.0526885986328
12308,407.5986022949219,-1044.7467041015623,526.9668579101561,188.89486694335938
12309,397.1007080078125,-1045.4049072265623,524.861328125,180.427734375
12310,408.7317810058594,-1033.3062744140623,528.8817138671875,192.52630615234372
12311,418.9305114746094,-1019.5098266601562,537.5470581054689,204.0339813232422
12312,403.3239135742188,-1034.2188720703123,528.4815063476561,190.1402587890625
12313,395.5149841308594,-1046.3472900390623,521.1962280273439,184.1451873779297
12314,412.6325073242188,-1030.306884765625,527.950439453125,198.0987548828125
12315,418.0591125488281,-1022.94677734375,528.1299438476561,199.8901672363281
12316,401.53997802734375,-1035.9691162109377,525.7102661132811,185.2895965576172
12317,401.4464721679688,-1039.824951171875,527.6400756835939,188.93600463867188
12318,410.5830383300781,-1023.238525390625,533.16015625,197.15631103515625
12319,423.9457092285156,-1020.4635009765624,540.5576782226561,206.3415069580078
12320,404.93206787109375,-1034.390869140625,530.2467651367189,192.22337341308597
12321,401.2108459472656,-1038.9947509765623,525.1380615234375,179.7470703125
12322,414.0536804199219,-1035.1837158203123,535.34423828125,193.5809631347656
12323,420.30303955078125,-1023.1599731445312,535.6434326171875,196.75987243652344
12324,406.390625,-1036.47021484375,529.0088500976561,188.1356658935547
12325,391.8872985839844,-1048.9840087890623,522.6622314453125,177.77239990234375
12326,403.1443786621094,-1038.7030029296877,519.6777954101561,189.6241455078125
12327,413.91156005859375,-1029.944091796875,531.2976684570311,203.09152221679688
12328,403.6380615234375,-1040.7823486328123,522.4864501953125,192.0850067138672
12329,390.2978210449219,-1043.426513671875,521.97412109375,188.8686828613281
12330,404.430908203125,-1036.6124267578123,520.2799072265625,193.2742919921875
12331,419.5924682617188,-1022.4456176757812,534.1474609375,206.72671508789062
12332,405.1527099609375,-1042.009033203125,528.06640625,194.3625946044922
12333,399.7336120605469,-1046.235107421875,528.23095703125,191.5688934326172
12334,408.5410461425781,-1034.177734375,526.2001953125,191.5763702392578
12335,422.0944519042969,-1023.182373046875,540.7633666992189,202.8820953369141
12336,400.9341125488281,-1041.2535400390623,533.8819580078125,191.7858123779297
12337,390.0622253417969,-1039.4771728515623,528.36181640625,186.4302673339844
12338,408.1782836914063,-1028.3995361328123,538.3473510742189,199.37033081054688
12339,421.555908203125,-1021.6640014648438,552.64501953125,199.9462738037109
12340,405.7585754394531,-1031.6719970703123,546.085205078125,189.12673950195312
12341,401.214599609375,-1033.1380615234377,537.5208740234375,180.9550628662109
12342,411.1365661621094,-1028.5791015625,538.983154296875,187.99354553222656
12343,426.1372985839844,-1023.062744140625,539.38330078125,190.5478973388672
12344,407.9389343261719,-1040.6888427734377,524.9735107421875,179.08885192871094
12345,397.0558166503906,-1045.621826171875,522.93896484375,176.94215393066406
12346,412.9952697753906,-1030.318115234375,531.2378540039061,187.65321350097656
12347,418.35455322265625,-1021.0842895507812,532.5654907226561,195.9258728027344
12348,405.8819885253906,-1036.4515380859377,526.3946533203125,188.2216796875
12349,396.2367858886719,-1039.798828125,520.3248291015625,181.3178253173828
12350,410.7850036621094,-1027.9544677734377,519.9583129882811,187.48492431640625
12351,417.1502990722656,-1021.5219116210938,523.5635375976561,195.8286437988281
12352,410.5045166015625,-1032.3638916015623,528.73583984375,188.0197296142578
12353,397.8935546875,-1046.654052734375,521.60009765625,181.70677185058597
12354,406.3831481933594,-1026.8699951171877,529.8876953125,190.7685546875
12355,413.5525207519531,-1024.7606201171877,536.974853515625,198.21844482421875
12356,401.4090576171875,-1037.2855224609377,536.1333618164061,183.63656616210938
12357,399.5578308105469,-1042.173583984375,531.4808959960939,186.1535186767578
12358,421.4549255371094,-1023.0851440429688,535.3741455078125,195.4022979736328
12359,429.1142578125,-1019.1021728515624,543.4261474609375,197.1675262451172
12360,404.771240234375,-1036.56005859375,533.2573852539061,184.16015625
12361,399.50921630859375,-1046.1790771484377,529.9550170898439,180.48757934570312
12362,409.689208984375,-1030.25830078125,532.221435546875,190.5666046142578
12363,414.453857421875,-1025.235595703125,537.2366333007811,203.54031372070312
12364,402.0111999511719,-1041.7884521484377,531.08447265625,190.59652709960938
12365,399.0791015625,-1046.4483642578123,529.076171875,187.14459228515625
12366,411.544189453125,-1039.7239990234377,529.0537109375,194.31398010253903
12367,419.3007507324219,-1024.3717041015623,540.5576782226561,200.45489501953125
12368,406.21484375,-1044.6568603515623,528.6909790039061,189.93081665039062
12369,395.8590698242188,-1048.243408203125,522.9240112304689,189.07064819335938
12370,405.3621520996094,-1038.68798828125,530.4150390625,196.72247314453125
12371,416.0283508300781,-1029.51025390625,538.8859252929689,204.8193664550781
12372,408.2530822753906,-1042.240966796875,533.7098999023439,196.2811737060547
12373,392.470703125,-1048.9091796875,530.0485229492189,189.1230010986328
12374,409.4386291503906,-1030.3966064453123,538.4371337890625,197.4330596923828
12375,418.7023620605469,-1024.1473388671877,544.2938232421875,204.74456787109372
12376,415.5945129394531,-1039.768798828125,540.4342651367189,196.01190185546875
12377,410.9046630859375,-1045.0533447265623,535.2320556640625,185.33822631835938
12378,416.5145263671875,-1037.6595458984377,533.7174072265625,191.3258056640625
12379,427.0535583496094,-1022.61767578125,542.4724731445311,204.01153564453125
12380,414.1808166503906,-1039.088134765625,528.3468627929689,186.58734130859372
12381,405.0218200683594,-1046.9083251953123,522.0189819335939,181.3178253173828
12382,411.81719970703125,-1032.195556640625,525.5457153320311,199.39649963378903
12383,420.99493408203125,-1029.7010498046877,530.4299926757811,200.7353973388672
12384,405.9044189453125,-1046.575439453125,521.8057861328125,192.5150909423828
12385,398.0917663574219,-1052.2713623046877,526.7424926757811,189.3436584472656
12386,413.410400390625,-1035.871826171875,528.4403686523439,196.21011352539062
12387,424.4244079589844,-1031.032470703125,530.9274291992189,195.15171813964844
12388,407.1984252929688,-1045.55078125,528.3693237304689,191.1799468994141
12389,403.6978759765625,-1051.77392578125,525.7177124023439,186.4863739013672
12390,414.1583862304688,-1035.632568359375,532.6814575195311,194.33642578125
12391,427.330322265625,-1031.2493896484377,537.2440795898439,208.2301483154297
12392,409.0160217285156,-1040.5692138671877,535.8154907226561,190.1851348876953
12393,401.58111572265625,-1048.1873779296877,531.095703125,182.47720336914062
12394,412.0902404785156,-1035.9429931640623,531.7464599609375,185.31951904296875
12395,424.4132080078125,-1027.853515625,537.0084838867189,191.4679107666016
12396,410.2539367675781,-1039.2939453125,526.0244140625,179.0215301513672
12397,400.3357238769531,-1038.990966796875,524.6219482421875,175.7266845703125
12398,412.19866943359375,-1028.859619140625,530.650634765625,178.41192626953125
12399,425.968994140625,-1018.5785522460938,534.4953002929689,196.7785797119141
12400,404.2439270019531,-1039.780029296875,529.5324096679689,184.64259338378903
12401,399.8607482910156,-1045.752685546875,527.02294921875,182.81753540039062
12402,406.74591064453125,-1033.500732421875,528.5264282226561,191.67735290527344
12403,418.8706665039063,-1026.596923828125,533.736083984375,198.6335601806641
12404,400.1562194824219,-1039.1966552734377,525.35498046875,188.84999084472656
12405,395.1148071289063,-1044.9373779296877,524.2329711914061,176.80377197265625
12406,409.1095275878906,-1033.171630859375,525.108154296875,186.8341827392578
12407,426.8179626464844,-1022.3222045898438,536.7242431640625,190.19261169433597
12408,414.0574035644531,-1039.155517578125,533.8707275390625,191.77833557128903
12409,398.1329345703125,-1052.4957275390623,525.1231079101561,184.1975555419922
12410,414.4239196777344,-1033.5157470703123,531.4622192382811,193.9175567626953
12411,420.47882080078125,-1024.599853515625,539.7274169921875,199.18333435058597
12412,406.3420104980469,-1033.2464599609377,528.6498413085939,185.9927062988281
12413,394.3967590332031,-1041.736083984375,526.38720703125,180.70074462890625
12414,410.5381774902344,-1028.7061767578123,528.6011962890625,190.40953063964844
12415,424.8171081542969,-1021.08056640625,530.990966796875,192.57867431640625
12416,407.5312805175781,-1035.3446044921877,528.8667602539061,182.30142211914062
12417,399.4755554199219,-1040.8272705078123,529.8016967773439,173.1648406982422
12418,414.9512634277344,-1028.9044189453123,531.1517944335939,180.53245544433597
12419,426.2046203613281,-1015.7774047851562,539.9967041015625,195.7613220214844
12420,409.677978515625,-1028.2012939453123,538.7811889648439,186.2769317626953
12421,402.94244384765625,-1039.024658203125,535.14599609375,184.44064331054688
12422,411.9743041992188,-1025.8863525390623,536.6644287109375,184.4556121826172
12423,422.7302551269531,-1014.4647216796876,539.42822265625,196.68133544921875
12424,413.9900817871094,-1038.179443359375,534.932861328125,193.1134796142578
12425,407.11614990234375,-1042.125,531.4061279296875,187.40264892578125
12426,415.60198974609375,-1032.0908203125,532.068115234375,196.21011352539062
12427,425.7072143554688,-1025.138427734375,538.3884887695311,204.6959381103516
12428,412.8569030761719,-1035.6661376953123,523.1296997070311,194.2055206298828
12429,396.0086669921875,-1042.7083740234377,524.8912353515625,193.08355712890625
12430,407.5537414550781,-1035.808349609375,526.16650390625,199.13096618652344
12431,420.5536193847656,-1025.5198974609377,531.2266235351561,206.8276824951172
12432,403.57073974609375,-1043.9462890625,527.5689697265625,197.5078582763672
12433,392.87835693359375,-1047.0654296875,525.261474609375,191.08270263671875
12434,401.8092346191406,-1032.7939453125,526.7013549804689,193.97364807128903
12435,417.3672180175781,-1028.0068359375,531.3500366210939,201.9508514404297
12436,404.56927490234375,-1042.427978515625,526.16650390625,188.37127685546875
12437,393.6712341308594,-1047.4468994140623,518.6867065429689,177.72752380371094
12438,413.586181640625,-1035.30712890625,519.816162109375,182.0545959472656
12439,425.0078430175781,-1023.3992919921876,523.9525146484375,191.41929626464844
12440,409.4087219238281,-1035.8531494140623,519.7974853515625,181.0036773681641
12441,397.3849487304688,-1036.8143310546877,513.9520263671875,174.77301025390625
12442,407.0638122558594,-1030.8978271484377,520.8408813476561,186.47140502929688
12443,420.1011047363281,-1012.9388427734376,530.156982421875,197.3395538330078
12444,407.1909484863281,-1034.7611083984377,521.9367065429689,182.39866638183597
12445,396.4761352539063,-1039.03955078125,517.6171264648439,184.0591735839844
12446,411.6115112304688,-1028.87451171875,529.3828125,193.4425811767578
12447,425.23223876953125,-1020.5794067382812,536.3203735351561,203.1700592041016
12448,403.926025390625,-1034.263671875,530.706787109375,194.31024169921875
12449,389.1235046386719,-1040.879638671875,527.1201782226561,188.34884643554688
12450,402.22064208984375,-1026.817626953125,535.0787353515625,196.01937866210938
12451,411.2449951171875,-1017.1088256835938,540.8045043945311,203.98536682128903
12452,396.8426513671875,-1033.5606689453123,534.35693359375,185.48033142089844
12453,396.0797119140625,-1040.1727294921877,527.0640869140625,182.00970458984372
12454,411.0168762207031,-1033.4559326171877,532.6814575195311,183.19900512695312
12455,428.515869140625,-1025.433837890625,543.2615966796875,193.08355712890625
12456,419.431640625,-1038.00732421875,539.4319458007811,181.1345672607422
12457,409.6705017089844,-1044.6756591796877,529.5773315429689,179.88919067382812
12458,419.63360595703125,-1036.56005859375,534.2222900390625,190.65635681152344
12459,434.6156311035156,-1022.0716552734376,545.0492553710939,198.8654327392578
12460,411.9088439941406,-1040.64404296875,536.4942626953125,186.33116149902344
12461,405.2779846191406,-1048.59130859375,527.8064575195311,179.6741485595703
12462,409.6312561035156,-1033.381103515625,526.2431640625,184.248046875
12463,418.8164367675781,-1018.9188842773438,535.9220581054689,194.17747497558597
12464,406.30645751953125,-1027.84228515625,532.9226684570311,188.7471466064453
12465,397.7720336914063,-1037.6146240234377,533.1844482421875,181.63758850097656
12466,410.9177551269531,-1024.61474609375,535.2413940429689,191.1593780517578
12467,422.2421875,-1009.273681640625,543.7010498046875,210.88360595703125
12468,400.1206665039063,-1035.6474609375,530.936767578125,190.80783081054688
12469,392.5997314453125,-1031.911376953125,531.135009765625,190.093505859375
12470,403.65863037109375,-1026.301513671875,529.3211059570311,192.77500915527344
12471,421.995361328125,-1015.4445190429688,541.3897705078125,200.9093017578125
12472,402.5328979492188,-1027.0943603515623,535.4695434570311,194.5327606201172
12473,401.8821716308594,-1037.278076171875,525.9739379882811,189.9700927734375
12474,421.3371276855469,-1023.0440063476562,534.72900390625,198.46714782714844
12475,430.6532287597656,-1017.265869140625,543.6449584960939,200.23985290527344
12476,418.603271484375,-1037.9774169921877,534.2578125,189.4315490722656
12477,408.1651916503906,-1045.6741943359377,522.0582275390625,181.6151580810547
12478,425.6080932617188,-1028.380859375,529.2276611328125,187.53167724609372
12479,433.27490234375,-1016.3832397460938,539.3477783203125,197.35264587402344
12480,413.662841796875,-1034.6302490234377,526.9649658203125,185.8487243652344
12481,405.9137878417969,-1037.498779296875,521.7291259765625,185.010986328125
12482,416.5687561035156,-1031.5560302734377,532.2307739257811,196.7056427001953
12483,425.0022277832031,-1024.697021484375,538.65966796875,209.13706970214844
12484,409.9940185546875,-1042.8018798828123,536.13525390625,199.26373291015625
12485,401.4259033203125,-1035.70361328125,523.3821411132811,191.64930725097656
12486,407.0058288574219,-1017.6622924804688,525.5213623046875,195.44155883789062
12487,421.1725769042969,-1009.5280151367188,538.3006591796875,207.3867950439453
12488,396.8258361816406,-1027.8721923828123,528.5394897460939,190.1795196533203
12489,391.6610107421875,-1028.0966796875,517.5404663085939,181.31222534179688
12490,406.2316589355469,-1019.0086669921876,521.5570678710939,191.34637451171875
12491,416.396728515625,-1014.44970703125,527.6942749023439,195.70709228515625
12492,405.1770324707031,-1025.27294921875,529.9644165039061,192.75631713867188
12493,403.168701171875,-1032.150634765625,525.255859375,192.8086700439453
12494,411.5198974609375,-1022.6550903320312,528.8685913085939,193.20884704589844
12495,424.6058044433594,-1020.7103271484376,533.0909423828125,199.95936584472656
12496,411.7667236328125,-1030.7369384765623,529.6390380859375,188.6611175537109
12497,409.8032836914063,-1038.2242431640623,523.7636108398439,187.6700439453125
12498,413.6815490722656,-1025.093505859375,529.4669799804689,193.5716094970703
12499,427.6201477050781,-1013.6531372070312,537.0140991210939,203.58706665039062
12500,416.4528198242188,-1031.241943359375,531.8941650390625,197.52842712402344
12501,402.9630126953125,-1037.87646484375,525.4615478515625,188.4404754638672
12502,408.2437438964844,-1026.7764892578123,528.7863159179689,190.0
12503,419.39239501953125,-1013.380126953125,537.7172241210939,199.9107360839844
12504,400.950927734375,-1031.94873046875,531.2733764648439,194.01292419433597
12505,394.7389526367188,-1037.947509765625,529.470703125,188.9939727783203
12506,400.3188781738281,-1029.611328125,530.0130004882811,198.03330993652344
12507,418.07220458984375,-1011.94775390625,544.6210327148439,203.9124298095703
12508,411.3216857910156,-1031.32421875,536.5728149414061,196.5336151123047
12509,402.05419921875,-1036.38427734375,527.9934692382811,183.4925842285156
12510,411.7554931640625,-1025.44873046875,529.8521728515625,191.0509185791016
12511,424.3028564453125,-1018.9376220703124,534.6990966796875,198.11558532714844
12512,402.0654296875,-1037.0499267578123,525.3082275390625,184.2517852783203
12513,397.9702453613281,-1037.2593994140623,530.2224731445311,183.6945343017578
12514,408.2213134765625,-1021.8472290039062,525.5513305664061,193.33973693847656
12515,419.2427978515625,-1017.19482421875,535.0656127929689,201.4104461669922
12516,403.1499938964844,-1027.7862548828123,531.3331909179689,197.02728271484372
12517,395.8272705078125,-1038.5609130859377,524.5191040039061,190.9985656738281
12518,404.2308349609375,-1026.727783203125,529.9307250976561,186.7799530029297
12519,415.1625671386719,-1008.6192016601562,533.506103515625,199.10665893554688
12520,399.9785461425781,-1027.6253662109377,532.1185913085939,190.50115966796875
12521,388.3175659179688,-1029.8394775390623,529.9755859375,185.2989501953125
12522,397.03900146484375,-1016.4992065429688,530.5178833007811,194.30088806152344
12523,414.3061218261719,-1007.8674926757812,535.8846435546875,199.6676483154297
12524,399.19317626953125,-1028.9268798828123,535.8211059570311,191.7876739501953
12525,392.6708068847656,-1032.5433349609377,529.1565551757811,185.5607452392578
12526,410.6522216796875,-1028.2911376953123,532.3280029296875,199.1515350341797
12527,419.5906066894531,-1021.0618896484376,542.8707885742189,204.05828857421875
12528,413.6254577636719,-1034.6527099609377,537.8069458007811,198.93836975097656
12529,400.7564697265625,-1040.8309326171877,530.8096313476561,194.3233337402344
12530,411.3478698730469,-1026.5894775390623,536.6812744140625,203.38885498046875
12531,420.1777648925781,-1021.667724609375,539.2655029296875,205.6851501464844
12532,407.0357666015625,-1037.76806640625,533.3003540039061,196.7804412841797
12533,400.5245971679688,-1034.940673828125,533.319091796875,187.57655334472656
12534,415.33831787109375,-1026.103271484375,528.6442260742189,195.7744140625
12535,424.4187927246094,-1018.4663696289062,543.0316162109375,203.39633178710938
12536,406.8001403808594,-1028.3172607421877,534.388671875,186.39100646972656
12537,389.0243835449219,-1031.5447998046877,529.2762451171875,184.1732482910156
12538,402.4917602539063,-1020.7178344726562,529.1827392578125,187.8794860839844
12539,410.4652404785156,-1011.2371826171876,540.0247192382811,194.82073974609372
12540,401.7849426269531,-1028.769775390625,537.5003051757811,184.80528259277344
12541,397.6598205566406,-1035.72607421875,535.7799072265625,183.66835021972656
12542,413.1056213378906,-1030.613525390625,537.720947265625,195.49017333984372
12543,423.1472473144531,-1024.577392578125,542.1788940429689,200.66246032714844
12544,412.5633239746094,-1043.4451904296877,540.3425903320311,190.938720703125
12545,409.5265197753906,-1047.38330078125,536.81591796875,188.82568359375
12546,414.7362060546875,-1039.4996337890623,532.0811767578125,192.8460693359375
12547,428.74212646484375,-1030.318115234375,532.0736694335939,199.95936584472656
12548,415.6861267089844,-1049.09619140625,525.0127563476561,184.00120544433597
12549,404.78057861328125,-1050.8614501953123,525.5325927734375,185.340087890625
12550,417.1072998046875,-1037.9512939453123,534.856201171875,190.48619079589844
12551,423.180908203125,-1028.3284912109377,539.3552856445311,199.49562072753903
12552,408.5578918457031,-1044.7503662109377,530.738525390625,189.44276428222656
12553,398.6359252929688,-1049.44775390625,522.6753540039061,179.89854431152344
12554,409.69482421875,-1032.382568359375,525.2072143554689,191.6567840576172
12555,415.8469543457031,-1026.2977294921877,538.6259765625,195.76693725585938
12556,401.6951599121094,-1033.15673828125,532.5598754882811,186.9108428955078
12557,389.08050537109375,-1039.54443359375,527.5820922851561,178.3539581298828
12558,397.7832336425781,-1027.4832763671877,524.6312866210939,188.31704711914062
12559,407.4546203613281,-1013.08837890625,530.4132080078125,188.96031188964844
12560,389.69757080078125,-1032.8350830078123,525.7120971679689,183.0138702392578
12561,380.03741455078125,-1039.6754150390623,523.7486572265625,181.69369506835938
12562,399.9374084472656,-1025.306640625,518.2211303710939,194.55894470214844
12563,410.8654174804688,-1026.5445556640623,528.8386840820311,200.8307647705078
12564,403.2696838378906,-1039.708984375,524.1077270507811,191.5670318603516
12565,397.9889221191406,-1044.66064453125,519.1261596679689,181.71612548828125
12566,407.6491088867188,-1036.2384033203123,522.5107421875,198.1081085205078
12567,421.5951843261719,-1027.0943603515623,528.752685546875,199.6938323974609
12568,410.44281005859375,-1038.100830078125,528.1729736328125,192.1130523681641
12569,405.2181701660156,-1049.9227294921877,522.9707641601561,192.10183715820312
12570,417.2232360839844,-1029.199951171875,530.4954833984375,198.89349365234372
12571,424.5235290527344,-1020.8636474609376,537.1636962890625,207.36810302734372
12572,408.8869934082031,-1042.6224365234377,528.4197998046875,192.09060668945312
12573,398.074951171875,-1043.6695556640623,524.2535400390625,185.1381378173828
12574,412.817626953125,-1034.106689453125,529.1976928710939,189.7157745361328
12575,423.4202575683594,-1020.7701416015624,536.5690307617189,198.3212890625
12576,409.41058349609375,-1031.5897216796877,532.8366088867189,192.01206970214844
12577,398.1609802246094,-1041.994140625,529.1827392578125,182.3481750488281
12578,406.033447265625,-1032.0048828125,530.8358154296875,191.1593780517578
12579,415.2186584472656,-1019.835205078125,540.6417846679689,199.72000122070312
12580,398.1759338378906,-1038.75537109375,527.6531372070311,181.76475524902344
12581,389.0879821777344,-1046.8634033203123,516.698974609375,186.443359375
12582,400.5171203613281,-1031.7691650390623,520.8464965820311,192.04946899414062
12583,417.746826171875,-1025.235595703125,528.44970703125,201.71337890625
12584,407.09185791015625,-1041.5191650390623,524.855712890625,195.32188415527344
12585,403.3856201171875,-1049.7843017578123,522.6603393554689,189.73448181152344
12586,413.75634765625,-1031.7879638671877,526.6171875,192.8460693359375
12587,427.3434143066406,-1028.6090087890623,537.6087646484375,205.63278198242188
12588,414.2163696289063,-1037.102294921875,530.8544921875,194.3719482421875
12589,405.9736328125,-1041.5789794921877,521.6318969726561,187.6737823486328
12590,409.8032836914063,-1031.163330078125,529.564208984375,195.82676696777344
12591,425.3463134765625,-1016.5777587890624,539.1196899414061,205.6814117431641
12592,409.79205322265625,-1031.582275390625,532.122314453125,189.5325164794922
12593,396.5528259277344,-1035.3109130859377,528.4833984375,188.6125030517578
12594,407.1778564453125,-1018.7244262695312,527.9523315429689,187.90191650390625
12595,417.582275390625,-1020.4410400390624,529.3959350585939,195.2171630859375
12596,406.0932922363281,-1037.453857421875,521.7066650390625,182.0714263916016
12597,395.5093688964844,-1041.6612548828123,519.8629150390625,174.1091766357422
12598,406.9572143554688,-1032.427490234375,520.221923828125,180.48944091796875
12599,416.0863037109375,-1019.90625,533.3228149414061,186.33116149902344
12600,402.6675415039063,-1036.466552734375,527.5260009765625,173.30136108398438
12601,395.10546875,-1037.9737548828123,525.3680419921875,168.6339569091797
12602,406.8001403808594,-1030.3143310546877,529.6652221679689,182.94281005859372
12603,416.8268127441406,-1027.4794921875,534.4559936523439,190.66571044921875
12604,409.6761169433594,-1037.005126953125,529.048095703125,187.91314697265625
12605,402.6600646972656,-1048.2135009765623,528.0682373046875,188.69851684570312
12606,413.3748779296875,-1035.456787109375,528.191650390625,201.30198669433597
12607,427.5378723144531,-1027.6552734375,540.6006469726561,207.5663146972656
12608,406.4186706542969,-1047.5067138671877,531.7333374023439,197.12451171875
12609,399.4661865234375,-1055.1435546875,530.749755859375,193.3883514404297
12610,410.94769287109375,-1039.4808349609377,531.4080200195311,202.1210174560547
12611,423.5586242675781,-1029.2933349609377,543.6935424804689,212.48802185058597
12612,402.7124328613281,-1041.6612548828123,538.6559448242189,200.50912475585938
12613,391.373046875,-1046.0743408203123,534.2166748046875,190.91253662109372
12614,401.5306091308594,-1038.02978515625,537.9640502929689,198.6242218017578
12615,416.4902038574219,-1031.26806640625,546.3115234375,203.7104797363281
12616,404.1186218261719,-1042.5438232421877,541.0419921875,191.9036102294922
12617,392.46136474609375,-1050.6033935546877,534.8524169921875,180.2987060546875
12618,409.0552978515625,-1037.9512939453123,534.8150634765625,184.9548797607422
12619,413.5357055664063,-1028.8707275390623,534.1904907226561,187.51670837402344
12620,400.6816711425781,-1042.5625,537.0440063476561,175.8931121826172
12621,389.7873229980469,-1046.4969482421877,529.3024291992189,171.43515014648438
12622,406.2578430175781,-1036.3319091796877,531.112548828125,180.36602783203125
12623,413.7301635742188,-1026.761474609375,538.6970825195311,187.2848358154297
12624,404.0774841308594,-1038.026123046875,532.5935668945311,173.91844177246094
12625,397.1250305175781,-1047.7086181640623,525.491455078125,169.86813354492188
12626,403.8456115722656,-1037.3753662109377,520.4463500976561,173.4696502685547
12627,427.09283447265625,-1025.4075927734377,530.3795166015625,187.1651611328125
12628,410.1473388671875,-1040.3260498046877,521.628173828125,173.57437133789062
12629,396.9716796875,-1046.059326171875,514.7130737304689,168.895751953125
12630,413.9844970703125,-1035.7821044921877,524.2535400390625,178.5970458984375
12631,423.4576416015625,-1023.7134399414062,526.9537963867189,194.155029296875
12632,407.14794921875,-1039.005859375,529.3547973632811,188.1038818359375
12633,397.84307861328125,-1045.9434814453123,528.7825927734375,183.649658203125
12634,407.4396667480469,-1033.852294921875,532.4813232421875,189.48390197753903
12635,418.40130615234375,-1025.445068359375,539.938720703125,205.6140899658203
12636,401.2388916015625,-1037.1434326171877,537.3992919921875,195.0900115966797
12637,394.7314758300781,-1044.436279296875,534.6878662109375,193.0181121826172
12638,398.3666687011719,-1036.619873046875,539.2655029296875,198.89349365234372
12639,413.7526245117188,-1027.8797607421877,542.6090087890625,204.2938995361328
12640,399.29791259765625,-1043.8116455078123,533.6406860351561,190.48619079589844
12641,389.0468444824219,-1053.1651611328123,527.5035400390625,179.1916961669922
12642,396.5565490722656,-1041.878173828125,530.244873046875,185.0895233154297
12643,410.2520751953125,-1024.1510009765623,539.893798828125,199.64520263671875
12644,398.53497314453125,-1040.9244384765623,531.5202026367189,191.3762969970703
12645,383.94561767578125,-1046.784912109375,526.4825439453125,183.3018493652344
12646,401.642822265625,-1033.474609375,528.752685546875,197.8350982666016
12647,417.1521911621094,-1031.997314453125,534.740234375,204.48089599609372
12648,404.4552307128906,-1040.54296875,536.7448120117189,199.9705810546875
12649,395.2513122558594,-1052.361083984375,528.3076171875,192.6216735839844
12650,403.93536376953125,-1036.5338134765623,534.4784545898439,194.23731994628903
12651,416.0040283203125,-1035.5203857421877,537.4254760742189,203.7404022216797
12652,398.94635009765625,-1047.9779052734377,530.289794921875,187.2511749267578
12653,397.0165710449219,-1049.6197509765623,532.0400390625,192.8236389160156
12654,407.8809814453125,-1039.798828125,534.856201171875,200.23985290527344
12655,427.2798156738281,-1028.3734130859377,543.9927368164061,205.0718078613281
12656,404.9264526367188,-1043.942626953125,538.9551391601561,193.4781188964844
12657,397.0315246582031,-1046.4857177734377,538.401611328125,188.5152740478516
12658,413.838623046875,-1036.14111328125,543.813232421875,190.24310302734372
12659,423.4688720703125,-1031.350341796875,552.5010375976561,195.1797637939453
12660,408.1352844238281,-1040.984375,538.6932983398439,180.433349609375
12661,394.5145568847656,-1050.90625,524.1226806640625,171.34352111816406
12662,403.0490112304688,-1039.0732421875,517.9817504882811,178.91680908203125
12663,408.7112121582031,-1033.4559326171877,520.4500732421875,180.3043212890625
12664,398.40032958984375,-1045.9583740234377,518.8494262695311,177.2413330078125
12665,391.9639587402344,-1046.83349609375,515.2927856445311,176.8748321533203
12666,406.5570373535156,-1037.8240966796877,512.2110595703125,180.53619384765625
12667,414.0331115722656,-1032.0010986328123,521.7403564453125,192.2046813964844
12668,401.642822265625,-1045.69287109375,519.1822509765625,188.3413543701172
12669,399.600830078125,-1046.50439453125,512.2297973632811,189.53065490722656
12670,403.6324462890625,-1036.1448974609377,524.0254516601561,196.1540069580078
12671,418.7827758789063,-1030.374267578125,531.5725708007811,205.5224609375
12672,405.9287414550781,-1039.40234375,524.7061157226561,192.3954162597656
12673,402.5628356933594,-1043.336669921875,528.1393432617189,189.43341064453125
12674,410.281982421875,-1033.324951171875,527.3052978515625,194.2391815185547
12675,419.4596862792969,-1023.3507080078124,536.9729614257811,204.27333068847656
12676,408.673828125,-1035.4044189453123,536.8009033203125,201.5357360839844
12677,398.4713745117188,-1046.455810546875,532.133544921875,188.42364501953125
12678,409.79205322265625,-1034.0804443359377,536.7523193359375,196.9468688964844
12679,417.735595703125,-1028.76611328125,542.9605712890625,206.0722198486328
12680,404.4664306640625,-1044.3726806640623,532.9712524414061,195.80245971679688
12681,391.7769470214844,-1052.7762451171877,525.5625610351561,182.78761291503903
12682,407.9071350097656,-1043.4002685546877,525.6747436523439,185.3681488037109
12683,418.75286865234375,-1034.9854736328123,528.2814331054689,190.5890350341797
12684,405.6594543457031,-1043.3853759765623,524.6312866210939,178.32591247558594
12685,389.24505615234375,-1048.826904296875,522.7613525390625,171.46319580078125
12686,407.1180419921875,-1034.01318359375,524.1189575195311,179.1860809326172
12687,414.4968566894531,-1028.9754638671877,525.8018798828125,183.397216796875
12688,401.8597412109375,-1040.845947265625,523.9431762695311,175.7304229736328
12689,393.6020202636719,-1038.3177490234377,516.0257568359375,172.1214141845703
12690,401.2950134277344,-1027.3935546875,519.904052734375,182.86614990234372
12691,409.8518981933594,-1023.0963745117188,528.8499145507811,194.55706787109372
12692,401.2052612304688,-1030.3331298828123,519.3617553710939,189.4895172119141
12693,389.9219665527344,-1036.7882080078123,509.54827880859375,185.8543243408203
12694,409.8369445800781,-1025.445068359375,528.4085693359375,206.203125
12695,416.3443603515625,-1013.8588256835938,528.3524780273439,217.19468688964844
12696,399.62701416015625,-1028.8895263671877,526.381591796875,191.4155578613281
12697,393.4674072265625,-1025.3963623046877,526.8228759765625,185.45416259765625
12698,409.5227966308594,-1002.6541137695312,528.9696044921875,190.57781982421875
12699,417.2195129394531,-1000.0960083007812,528.8311767578125,193.25558471679688
12700,404.6197814941406,-1015.388427734375,527.6082763671875,176.2764434814453
12701,395.11669921875,-1027.3673095703123,522.484619140625,170.82740783691406
12702,405.4911804199219,-1013.5409545898438,524.3695068359375,178.06411743164062
12703,408.1315307617188,-997.6351318359376,520.607177734375,181.7516632080078
12704,394.16302490234375,-1016.00927734375,521.616943359375,175.24049377441406
12705,388.6130065917969,-1019.39013671875,519.597412109375,175.2105712890625
12706,402.0579528808594,-1010.76220703125,521.4486694335939,184.48178100585938
12707,406.1905212402344,-1001.9734497070312,530.8731689453125,189.4969940185547
12708,399.4736633300781,-1013.08837890625,525.3755493164061,179.90040588378906
12709,390.5914001464844,-1017.9951782226562,521.2092895507811,178.6961669921875
12710,404.5561828613281,-1003.1627197265624,528.2814331054689,187.64947509765625
12711,415.36077880859375,-992.8555297851562,534.470947265625,187.57467651367188
12712,402.7984313964844,-1006.0237426757812,531.935302734375,187.24557495117188
12713,393.4524230957031,-1008.3275146484376,527.6119995117189,177.26004028320312
12714,403.5277404785156,-997.380859375,531.0003662109375,188.5732421875
12715,418.438720703125,-989.3811645507812,543.1362915039061,203.2299041748047
12716,391.0102844238281,-1005.1897583007812,529.0369262695311,197.0478515625
12717,387.67803955078125,-1005.7470092773438,525.7457885742189,193.59217834472656
12718,403.5165100097656,-1000.1670532226562,524.294677734375,202.2650146484375
12719,409.6873474121094,-997.7099609375,530.5665283203125,204.94651794433597
12720,389.6489562988281,-1012.7406005859376,522.7388916015625,187.9561462402344
12721,384.4991149902344,-1015.8746337890624,518.2884521484375,185.71969604492188
12722,398.0225830078125,-1009.6177978515624,531.5202026367189,191.0079040527344
12723,412.7578125,-1000.0623168945312,527.3427124023439,198.41665649414062
12724,398.3105773925781,-1010.7696533203124,520.4014892578125,184.3284454345703
12725,389.0094299316406,-1026.8736572265623,517.0804443359375,177.85467529296875
12726,407.7911987304688,-1012.2805786132812,522.56689453125,185.8057098388672
12727,421.5615234375,-1008.8211669921876,528.2777099609375,193.0461578369141
12728,414.1565246582031,-1028.8819580078123,529.3622436523439,188.0608673095703
12729,404.0550537109375,-1030.2508544921877,524.421875,179.08885192871094
12730,418.2741394042969,-1017.9989013671876,534.2952270507811,196.7935333251953
12731,423.08740234375,-1011.2633666992188,533.9922485351561,195.34619140625
12732,409.8518981933594,-1020.0670776367188,534.3101806640625,185.71221923828125
12733,399.4774169921875,-1026.8511962890623,530.1439208984375,186.12359619140625
12734,411.32916259765625,-1011.338134765625,539.16455078125,189.10055541992188
12735,420.529296875,-1002.324951171875,546.7939453125,204.00405883789062
12736,408.10162353515625,-1016.6824340820312,541.0643920898439,192.634765625
12737,390.4156494140625,-1022.9655151367188,530.6151123046875,187.50363159179688
12738,409.1712341308594,-1019.3826904296876,536.4942626953125,198.84674072265625
12739,425.2640380859375,-1008.0469970703124,542.3621826171875,208.4470672607422
12740,409.20489501953125,-1016.0728759765624,528.9658203125,190.9443359375
12741,388.15673828125,-1022.1165161132812,520.2069702148439,181.76661682128903
12742,401.8148498535156,-1011.020263671875,524.8668823242189,195.7239227294922
12743,414.79229736328125,-1004.5203247070312,529.5081176757811,199.665771484375
12744,402.9704895019531,-1020.3139038085938,520.3902587890625,182.95590209960938
12745,390.6849060058594,-1027.9544677734377,508.02239990234375,172.56272888183594
12746,408.6401672363281,-1009.6663818359376,511.7398681640625,171.81100463867188
12747,417.582275390625,-1002.2164916992188,524.1450805664061,181.20188903808597
12748,403.3669128417969,-1012.6433715820312,522.6678466796875,179.77325439453125
12749,399.72052001953125,-1021.1815795898438,524.91552734375,177.72378540039062
12750,412.81390380859375,-1009.3671875,535.1104736328125,190.4992828369141
12751,423.5885620117188,-1007.7178955078124,544.6285400390625,203.81332397460938
12752,411.71435546875,-1025.388916015625,538.6559448242189,196.64019775390625
12753,400.63677978515625,-1037.4388427734377,534.9571533203125,191.0677490234375
12754,408.75238037109375,-1025.9947509765623,540.267822265625,199.1534118652344
12755,414.2350463867188,-1008.8361206054688,544.2807006835939,208.85845947265625
12756,401.2052612304688,-1019.1994018554688,539.5460205078125,204.2359313964844
12757,396.5902099609375,-1026.6156005859377,539.0673217773439,199.36285400390625
12758,400.7489929199219,-1016.0878295898438,536.0978393554689,197.1338653564453
12759,427.4780578613281,-1009.614013671875,549.389404296875,209.95050048828125
12760,416.8268127441406,-1035.9093017578123,543.6636352539061,197.6948547363281
12761,404.6347351074219,-1036.85546875,533.4910888671875,184.97544860839844
12762,416.9464721679688,-1016.2299194335938,536.0641479492189,193.19949340820312
12763,436.2107238769531,-1010.2012329101562,537.47412109375,197.31712341308597
12764,414.9905090332031,-1021.6116333007812,531.0153198242189,186.40036010742188
12765,405.4275817871094,-1032.1170654296877,524.2498168945311,184.8520355224609
12766,409.5788879394531,-1023.885498046875,528.7788696289061,184.8333282470703
12767,419.4410095214844,-1017.841796875,530.9779052734375,197.32833862304688
12768,397.7981872558594,-1028.5604248046877,528.14306640625,183.78990173339844
12769,386.3989868164063,-1026.477294921875,522.7501220703125,177.80606079101562
12770,403.8680419921875,-1014.730224609375,531.7146606445311,188.55079650878903
12771,412.8961791992188,-1001.0496826171876,540.31640625,200.03228759765625
12772,408.37091064453125,-1023.358154296875,538.9364013671875,191.74093627929688
12773,398.9613037109375,-1030.8416748046877,538.1398315429689,189.3847961425781
12774,406.055908203125,-1019.4537353515624,544.9090576171875,199.18333435058597
12775,423.2557067871094,-1014.80126953125,549.0266723632811,208.79861450195312
12776,408.8084716796875,-1032.315185546875,540.2864990234375,198.68966674804688
12777,401.7176208496094,-1033.942138671875,534.72900390625,185.9291229248047
12778,412.26788330078125,-1022.9916381835938,540.926025390625,195.71270751953125
12779,421.0304565429688,-1017.01904296875,545.8253173828125,195.9034423828125
12780,411.80413818359375,-1017.7183837890624,537.4105224609375,194.42991638183597
12781,396.4256591796875,-1031.656982421875,520.513671875,182.9334716796875
12782,413.0457763671875,-1025.4039306640623,525.4541015625,188.80137634277344
12783,423.5137634277344,-1012.3179931640624,533.0311279296875,191.6586456298828
12784,407.8173828125,-1026.1668701171877,522.8286743164061,181.33279418945312
12785,396.98291015625,-1032.8013916015623,518.4380493164061,187.86639404296875
12786,409.6424560546875,-1015.8709106445312,519.1112060546875,195.01333618164062
12787,423.08740234375,-1005.8704223632812,528.8573608398439,200.95230102539062
12788,403.15374755859375,-1018.4813232421876,519.0064697265625,190.0916290283203
12789,383.4070739746094,-1018.1185913085938,516.676513671875,192.0326385498047
12790,400.0645751953125,-1007.7890014648438,527.0884399414061,198.8729248046875
12791,408.3522033691406,-994.1607666015624,523.9506225585939,205.83287048339844
12792,394.671630859375,-1008.6416625976562,529.0256958007811,200.6905059814453
12793,387.1955871582031,-1015.0069580078124,526.194580078125,201.0832061767578
12794,401.0032958984375,-1009.3671875,531.4902954101561,207.3512725830078
12795,416.045166015625,-1006.2406616210938,544.1386108398439,219.4423675537109
12796,405.4313354492188,-1016.8058471679688,539.7891235351561,207.0109405517578
12797,399.9224548339844,-1029.4580078125,531.8268432617189,202.2201232910156
12798,408.6775817871094,-1016.420654296875,533.4163208007811,204.83058166503903
12799,414.7474365234375,-1005.761962890625,538.2557373046875,207.8000640869141
12800,399.2268371582031,-1017.1536865234376,526.8153686523439,195.9857177734375
12801,398.2207946777344,-1022.206298828125,523.57666015625,192.06256103515625
12802,409.02911376953125,-1019.6856079101562,533.5921020507811,198.3231506347656
12803,418.5696105957031,-1007.089599609375,539.1981811523439,202.92697143554688
12804,403.2285461425781,-1021.9893798828124,527.9149169921875,187.55224609375
12805,394.4285583496094,-1029.2335205078123,523.1764526367189,181.68060302734372
12806,402.5104675292969,-1018.1896362304688,516.9196166992189,187.2119140625
12807,414.354736328125,-1003.1963500976562,529.0069580078125,194.8637542724609
12808,402.4244689941406,-1015.6427612304688,526.1908569335939,190.3534240722656
12809,379.5661926269531,-1019.2069091796876,520.1209716796875,188.0234680175781
12810,393.1083679199219,-1003.4207763671876,521.0260620117189,189.73634338378903
12811,402.62640380859375,-993.9401245117188,526.9537963867189,200.8251495361328
12812,393.837646484375,-1010.5938720703124,523.3036499023439,195.11805725097656
12813,386.5036926269531,-1016.7572631835938,524.1600952148439,186.84539794921875
12814,405.9960632324219,-1009.9693603515624,530.8993530273439,197.6724090576172
12815,419.05206298828125,-1001.3638305664062,539.9948120117189,202.31362915039062
12816,410.0463562011719,-1018.1709594726562,530.8469848632811,192.13735961914062
12817,402.17388916015625,-1028.6015625,529.1603393554689,184.0853576660156
12818,410.7569580078125,-1016.1513671875,527.0846557617189,190.9817352294922
12819,420.9556579589844,-1006.6295776367188,534.4074096679689,192.62355041503903
12820,406.8562316894531,-1022.59521484375,525.26708984375,181.29913330078125
12821,400.950927734375,-1032.49853515625,518.400634765625,176.34002685546875
12822,412.63812255859375,-1021.4583129882812,522.8585815429689,181.6244964599609
12823,424.9311828613281,-1015.3622436523438,526.7144165039061,188.1842803955078
12824,407.9894409179688,-1027.7750244140623,520.19580078125,181.3514862060547
12825,397.4578552246094,-1031.582275390625,510.4570617675781,175.9772491455078
12826,404.0363464355469,-1024.4951171875,520.9661865234375,190.91441345214844
12827,413.2813720703125,-1016.3870239257812,524.504150390625,194.5982208251953
12828,394.095703125,-1029.169921875,517.4656372070311,189.17535400390625
12829,379.2782287597656,-1030.3929443359377,509.6380310058594,183.88340759277344
12830,386.7206115722656,-1020.43359375,514.5822143554689,195.0806579589844
12831,404.3953857421875,-1008.5743408203124,522.121826171875,200.8999481201172
12832,384.32708740234375,-1015.9120483398438,515.4722900390625,186.7519073486328
12833,376.043212890625,-1020.7327880859376,513.5911254882811,187.7392425537109
12834,388.4970703125,-1014.8984985351562,519.9564208984375,184.1040496826172
12835,406.7926635742188,-1003.09912109375,526.8901977539061,192.23460388183597
12836,400.4909362792969,-1016.1251831054688,519.9826049804689,185.29335021972656
12837,398.0263366699219,-1022.161376953125,515.3750610351561,180.06495666503906
12838,401.5081787109375,-1017.9614868164062,519.7320556640625,188.20672607421875
12839,421.1800537109375,-1009.53173828125,528.0346069335939,196.9580841064453
12840,404.24951171875,-1030.58740234375,527.4586791992189,187.6793975830078
12841,394.12188720703125,-1032.1170654296877,524.5191040039061,184.4518585205078
12842,403.99896240234375,-1021.3535766601562,527.6494140625,192.5150909423828
12843,416.1760559082031,-1013.5184936523438,532.193359375,200.75782775878903
12844,399.447509765625,-1027.827392578125,522.34619140625,194.89366149902344
12845,394.0695190429688,-1030.6658935546877,524.0254516601561,197.1338653564453
12846,404.7880859375,-1019.1956787109376,523.471923828125,195.5668487548828
12847,412.39501953125,-1012.6620483398438,531.2846069335939,211.39784240722656
12848,400.8424682617188,-1025.5347900390623,524.4779663085939,203.4879608154297
12849,383.8521118164063,-1039.8885498046877,523.6401977539061,190.1851348876953
12850,392.9064025878906,-1021.2189331054688,530.783447265625,205.29432678222656
12851,406.4186706542969,-1022.5204467773438,534.43359375,212.99478149414062
12852,397.08013916015625,-1030.400390625,532.2606811523439,201.78256225585938
12853,389.6227722167969,-1035.6063232421877,526.7481079101561,194.22048950195312
12854,405.7454833984375,-1029.37939453125,532.70947265625,200.92987060546875
12855,417.33917236328125,-1020.5494995117188,528.109375,196.2699432373047
12856,410.8878479003906,-1034.69384765625,526.0599365234375,179.4441375732422
12857,397.8206481933594,-1038.355224609375,519.904052734375,168.14590454101562
12858,398.8042297363281,-1021.4957275390624,523.8421630859375,179.3207244873047
12859,411.4899597167969,-1016.607666015625,532.0961303710939,190.75360107421875
12860,403.322021484375,-1037.076171875,521.616943359375,185.03903198242188
12861,400.1094665527344,-1044.17822265625,528.038330078125,181.3701934814453
12862,407.8211364746094,-1030.2564697265623,529.5511474609375,192.6441192626953
12863,416.0339660644531,-1030.9969482421877,532.4271240234375,203.35145568847656
12864,404.6459655761719,-1044.621337890625,528.4927368164061,202.40151977539062
12865,390.0304260253906,-1050.242431640625,520.3173217773439,195.4452972412109
12866,396.3396301269531,-1045.8704833984377,522.725830078125,198.7214508056641
12867,419.3026123046875,-1036.47216796875,530.6170043945311,207.5550994873047
12868,401.1229553222656,-1050.627685546875,525.6317138671875,193.59405517578125
12869,393.22802734375,-1055.8822021484377,520.5604248046875,193.72494506835938
12870,408.72991943359375,-1045.029052734375,522.4528198242189,191.85873413085938
12871,422.148681640625,-1032.58642578125,531.705322265625,202.21826171875
12872,406.1680908203125,-1050.616455078125,524.887451171875,194.155029296875
12873,396.3658142089844,-1053.2193603515623,524.7864990234375,182.83810424804688
12874,414.2425537109375,-1037.6390380859377,532.1242065429689,188.403076171875
12875,415.6449890136719,-1029.69921875,533.032958984375,194.18121337890625
12876,405.0012512207031,-1041.064697265625,532.6851806640625,182.38931274414062
12877,401.6353454589844,-1047.8863525390623,537.490966796875,181.30099487304688
12878,410.14361572265625,-1037.998046875,538.7512817382811,182.4454040527344
12879,431.58819580078125,-1022.9262084960938,548.0150146484375,193.732421875
12880,417.7169189453125,-1042.6280517578123,528.6610107421875,178.54469299316406
12881,402.47308349609375,-1052.06005859375,520.7100219726561,174.09420776367188
12882,409.5826110839844,-1046.81298828125,523.7916870117189,176.360595703125
12883,424.6506652832031,-1025.5516357421877,530.497314453125,192.2551727294922
12884,407.8510437011719,-1044.0640869140623,523.2493896484375,190.48992919921875
12885,394.1705017089844,-1054.6517333984377,514.98046875,185.2166748046875
12886,403.0602416992188,-1047.40380859375,516.68212890625,195.8155517578125
12887,415.33831787109375,-1033.4989013671877,523.9973754882811,201.05514526367188
12888,399.3727111816406,-1045.62744140625,516.611083984375,192.88720703125
12889,385.187255859375,-1050.4705810546877,509.7296752929688,186.1890563964844
12890,397.0689086914063,-1037.343505859375,511.8240051269531,191.55206298828125
12891,405.3453063964844,-1022.7803344726562,518.0471801757811,206.82955932617188
12892,388.2913818359375,-1037.2724609375,519.3187866210939,197.57704162597656
12893,386.89263916015625,-1041.6556396484377,520.4594116210939,192.6329040527344
12894,402.4394226074219,-1033.5550537109377,518.537109375,196.877685546875
12895,412.28656005859375,-1023.1768188476562,527.445556640625,203.20933532714844
12896,407.83233642578125,-1035.709228515625,526.4993896484375,190.0972442626953
12897,394.02838134765625,-1043.129150390625,520.3771362304689,183.2719268798828
12898,400.36376953125,-1030.7276611328123,524.67431640625,187.9654998779297
12899,415.23736572265625,-1022.7092895507812,531.353759765625,203.11209106445312
12900,400.28521728515625,-1035.978515625,527.3370971679689,193.45193481445312
12901,396.3882446289063,-1042.227783203125,528.71337890625,189.31561279296875
12902,406.82257080078125,-1037.6165771484377,530.7030029296875,193.9530792236328
12903,425.8212585449219,-1023.4984130859376,543.9310302734375,205.24757385253903
12904,410.2071838378906,-1046.8092041015623,535.662109375,199.1291046142578
12905,398.37786865234375,-1053.5484619140623,529.4576416015625,194.2597503662109
12906,413.4459533691406,-1042.9346923828123,532.4981689453125,205.0306701660156
12907,422.40673828125,-1034.359130859375,540.531494140625,218.01559448242188
12908,408.4643859863281,-1047.321533203125,529.9662475585939,204.8249664306641
12909,394.9110107421875,-1049.6253662109377,523.5,196.4102020263672
12910,403.45294189453125,-1032.294677734375,529.0574951171875,202.6371307373047
12911,415.6824035644531,-1029.7403564453123,532.0718383789061,207.36436462402344
12912,403.94659423828125,-1045.7545166015623,531.5145874023439,203.9573211669922
12913,391.5937194824219,-1048.5594482421877,525.5831298828125,203.72543334960938
12914,398.744384765625,-1035.7615966796877,525.1231079101561,205.857177734375
12915,414.9606018066406,-1031.142822265625,534.8767700195311,208.1946258544922
12916,410.44281005859375,-1038.5926513671877,534.8880004882811,192.15419006347656
12917,397.4429016113281,-1047.40380859375,523.31298828125,184.51731872558597
12918,409.3096008300781,-1030.2677001953123,533.3359375,194.0428466796875
12919,423.2930908203125,-1017.671630859375,535.942626953125,202.14720153808597
12920,408.2474670410156,-1035.8812255859377,533.0367431640625,195.36302185058597
12921,399.91497802734375,-1036.9395751953123,529.498779296875,193.1340484619141
12922,412.8101501464844,-1028.782958984375,533.8856811523439,202.465087890625
12923,424.68060302734375,-1022.9935302734376,540.0677490234375,208.71072387695312
12924,412.982177734375,-1036.90966796875,533.1339721679689,191.35385131835938
12925,405.6594543457031,-1039.090087890625,528.1075439453125,189.0313720703125
12926,419.6167602539063,-1029.912353515625,529.6483764648439,196.3765411376953
12927,429.77435302734375,-1016.9610595703124,540.871826171875,207.28582763671875
12928,405.2331237792969,-1038.7310791015623,535.1385498046875,201.22344970703125
12929,393.2205505371094,-1041.6817626953123,527.138916015625,191.3276672363281
12930,403.1051025390625,-1027.6796875,530.5010986328125,197.49850463867188
12931,409.6723937988281,-1016.1270751953124,534.1736450195311,200.74099731445312
12932,399.1408081054688,-1026.9129638671877,531.1630249023439,194.0877227783203
12933,391.07012939453125,-1037.8670654296877,526.5629272460939,188.6910400390625
12934,403.3519592285156,-1029.84130859375,528.2645874023439,194.8506622314453
12935,419.4821472167969,-1021.6322021484376,535.01513671875,202.7530670166016
12936,407.076904296875,-1035.02099609375,523.9786987304689,184.70431518554688
12937,398.00762939453125,-1040.9376220703123,517.0374145507811,185.42611694335938
12938,413.0270690917969,-1031.9132080078123,519.2963256835939,185.7664337158203
12939,425.5594787597656,-1014.5787353515624,530.9797973632811,197.82388305664062
12940,410.5176086425781,-1032.051513671875,523.8964233398439,188.8668212890625
12941,395.2662963867188,-1036.288818359375,522.3331298828125,185.78887939453125
12942,404.2420349121094,-1025.6824951171877,527.0715942382811,196.97866821289062
12943,420.798583984375,-1012.7200317382812,530.90869140625,205.1652984619141
12944,410.611083984375,-1031.602783203125,525.0445556640625,191.38751220703125
12945,400.3861999511719,-1036.8460693359377,523.0623779296875,184.2779541015625
12946,409.2796936035156,-1029.770263671875,522.0750732421875,192.2963104248047
12947,426.91705322265625,-1019.14892578125,537.116943359375,212.7386016845703
12948,409.6424560546875,-1039.2359619140623,529.076171875,206.9230499267578
12949,393.6955261230469,-1038.4991455078123,522.4602661132811,197.1469573974609
12950,394.4584655761719,-1032.7210693359377,519.5768432617189,200.03042602539062
12951,411.07110595703125,-1024.8336181640623,528.1038208007811,206.90809631347656
12952,393.3851318359375,-1035.54833984375,519.5730590820311,191.76898193359372
12953,388.2689208984375,-1048.7576904296877,514.6588745117189,188.3095703125
12954,405.880126953125,-1042.306396484375,519.0681762695311,191.6567840576172
12955,416.9352722167969,-1029.7327880859377,526.0805053710939,191.0920562744141
12956,402.0729064941406,-1043.304931640625,518.24169921875,175.1376495361328
12957,403.60626220703125,-1044.4605712890623,518.136962890625,171.95498657226562
12958,414.6651611328125,-1029.265380859375,524.206787109375,174.97308349609375
12959,426.58795166015625,-1025.6488037109377,526.2225952148439,180.081787109375
12960,408.5504150390625,-1035.2828369140623,517.9649047851561,173.37989807128906
12961,401.0780944824219,-1047.082275390625,511.5697021484375,166.97718811035156
12962,407.4471435546875,-1035.720458984375,516.786865234375,176.97019958496094
12963,417.3990173339844,-1026.580078125,525.6728515625,188.051513671875
12964,406.3999633789063,-1040.8665771484377,515.5639038085939,176.50645446777344
12965,399.78033447265625,-1050.3546142578123,518.2865600585939,174.69259643554688
12966,407.6378784179688,-1038.880615234375,517.291748046875,188.0440368652344
12967,421.3595581054688,-1025.9256591796877,530.62451171875,198.0220947265625
12968,402.6002197265625,-1042.482177734375,525.4073486328125,188.84063720703125
12969,393.1382751464844,-1045.6798095703123,519.2028198242189,186.83230590820312
12970,404.9376525878906,-1033.26708984375,525.919677734375,191.1556396484375
12971,412.3912963867188,-1024.8372802734377,529.0462646484375,202.59225463867188
12972,390.3558044433594,-1039.4041748046877,511.4013977050781,188.1824188232422
12973,375.9459533691406,-1041.6219482421877,505.91497802734375,192.546875
12974,386.9225769042969,-1022.3165893554688,513.8809814453125,192.4720764160156
12975,396.9754333496094,-1014.8256225585938,514.322265625,199.8321990966797
12976,387.1133117675781,-1027.5113525390623,507.2426452636719,186.59295654296875
12977,380.2057189941406,-1033.1922607421877,504.3591613769531,180.8858642578125
12978,397.7271423339844,-1019.0367431640624,514.064208984375,190.9835968017578
12979,420.8060607910156,-1008.7931518554688,517.8153076171875,194.2934112548828
12980,411.75177001953125,-1025.278564453125,521.7122802734375,183.4664001464844
12981,402.0729064941406,-1036.93212890625,514.9617919921875,178.2305450439453
12982,414.025634765625,-1027.0999755859377,524.2778930664061,184.8314666748047
12983,426.4981994628906,-1021.3966064453124,528.8106079101561,191.98214721679688
12984,411.8826599121094,-1032.2908935546877,524.0609741210939,185.96466064453125
12985,406.209228515625,-1038.9554443359377,520.10791015625,184.3340606689453
12986,413.7526245117188,-1029.5234375,528.313232421875,194.0465850830078
12987,433.16644287109375,-1019.3359375,537.03466796875,210.3188781738281
12988,411.2693176269531,-1040.8814697265623,533.7996826171875,201.4478454589844
12989,408.3297424316406,-1049.363525390625,531.0994262695311,201.9976043701172
12990,416.69964599609375,-1040.7730712890623,530.9049682617189,212.3159942626953
12991,435.8292541503906,-1032.5078125,542.9885864257811,219.7284698486328
12992,412.2528991699219,-1043.634033203125,533.27978515625,203.26168823242188
12993,401.19775390625,-1054.797607421875,527.0528564453125,196.72808837890625
12994,416.2508544921875,-1045.642333984375,528.9340209960939,201.99012756347656
12995,420.57794189453125,-1035.0247802734377,535.624755859375,211.1566162109375
12996,406.9459838867188,-1041.966064453125,527.4044189453125,192.3262176513672
12997,397.7308654785156,-1044.206298828125,524.592041015625,190.92002868652344
12998,411.94622802734375,-1034.43017578125,528.0402221679689,196.63833618164062
12999,423.6633605957031,-1020.5737915039062,538.5792236328125,205.1690368652344
13000,401.796142578125,-1037.377197265625,525.4896240234375,189.68585205078125
13001,394.189208984375,-1038.8956298828123,526.095458984375,177.68450927734375
13002,411.3478698730469,-1028.0499267578123,527.4231567382811,185.9833526611328
13003,412.148193359375,-1014.6011962890624,534.6074829101561,193.54168701171875
13004,406.2241821289063,-1029.889892578125,525.87109375,187.47183227539062
13005,391.4627990722656,-1035.6044921875,523.44384765625,192.8423309326172
13006,398.2582092285156,-1030.2489013671877,520.4818725585939,203.51600646972656
13007,410.3006896972656,-1022.9337158203124,528.2421875,208.4115295410156
13008,403.5838317871094,-1040.66455078125,523.44384765625,204.6454620361328
13009,394.529541015625,-1043.7947998046877,513.14794921875,196.11474609375
13010,402.9742126464844,-1032.58642578125,514.1502075195311,200.50912475585938
13011,415.9030456542969,-1023.3563232421876,522.4528198242189,206.4144287109375
13012,401.87841796875,-1036.4384765625,509.4566650390625,190.46002197265625
13013,386.8253173828125,-1043.7911376953123,509.7820129394531,185.6093597412109
13014,393.5010681152344,-1031.90576171875,515.4105834960939,195.50140380859372
13015,405.9848327636719,-1021.755615234375,515.447998046875,206.1376800537109
13016,393.41876220703125,-1034.1907958984377,517.8564453125,187.1801300048828
13017,383.8595886230469,-1040.1297607421877,514.6513671875,183.7880401611328
13018,403.7409057617188,-1031.2923583984377,518.993408203125,191.16685485839844
13019,412.59698486328125,-1021.3405151367188,523.7617797851561,198.54942321777344
13020,399.17822265625,-1040.945068359375,518.7989501953125,190.2617950439453
13021,391.23468017578125,-1043.2750244140623,515.87060546875,185.59814453125
13022,408.4943237304688,-1027.6422119140623,520.2462768554689,195.10122680664062
13023,414.20513916015625,-1017.4808959960938,524.6892700195311,198.25396728515625
13024,398.5835876464844,-1040.5523681640623,522.0638427734375,187.44564819335938
13025,393.17193603515625,-1045.0814208984377,516.5138549804689,185.0558624267578
13026,402.5328979492188,-1036.73388671875,514.6925048828125,193.22006225585938
13027,415.3944396972656,-1023.8649291992188,522.3667602539061,207.49899291992188
13028,400.81256103515625,-1038.0877685546877,516.4502563476561,195.5986328125
13029,392.135986328125,-1046.9700927734377,512.736572265625,189.4951171875
13030,398.4826049804688,-1035.051025390625,514.0267944335939,192.32997131347656
13031,412.06591796875,-1026.542724609375,521.6188354492189,199.3460235595703
13032,396.8295593261719,-1043.8359375,518.3800659179689,190.49742126464844
13033,387.6630554199219,-1046.8914794921877,512.878662109375,186.9145965576172
13034,400.0570983886719,-1035.1220703125,513.5556030273439,187.90191650390625
13035,414.7848205566406,-1026.3968505859377,523.537353515625,196.55230712890625
13036,402.0093383789063,-1044.39697265625,516.7307739257811,179.8723602294922
13037,390.7260437011719,-1047.6170654296877,509.5576171875,170.6011505126953
13038,401.26507568359375,-1035.3426513671877,522.6472778320311,182.7969665527344
13039,424.4375,-1023.7340087890624,523.8515014648439,189.94390869140625
13040,403.4641418457031,-1043.4058837890623,522.3331298828125,180.6764373779297
13041,393.67681884765625,-1042.0220947265623,522.5425415039061,172.13824462890625
13042,407.89593505859375,-1030.525634765625,525.02587890625,183.0886688232422
13043,416.07135009765625,-1026.10888671875,533.0142822265625,196.51116943359372
13044,406.7328186035156,-1039.2135009765623,537.0533447265625,189.73448181152344
13045,397.1960754394531,-1051.4205322265623,529.7418823242189,183.3691711425781
13046,400.6629638671875,-1039.5986328125,527.6624755859375,185.7290344238281
13047,418.756591796875,-1029.0521240234377,537.6741943359375,202.16590881347656
13048,406.3401184082031,-1040.989990234375,532.9207763671875,189.8915557861328
13049,390.59515380859375,-1051.46533203125,527.4268798828125,193.22006225585938
13050,405.6407775878906,-1039.69970703125,529.9588012695311,198.0108795166016
13051,415.5477600097656,-1027.79931640625,537.86865234375,203.2018585205078
13052,399.929931640625,-1040.9488525390623,528.8367919921875,194.8282165527344
13053,392.7418518066406,-1048.8062744140623,525.283935546875,187.8046875
13054,404.9002685546875,-1032.447998046875,528.8817138671875,192.20654296875
13055,420.06182861328125,-1024.1192626953123,539.2973022460939,199.73870849609372
13056,406.9534606933594,-1035.59326171875,529.4613647460939,189.2969055175781
13057,399.7242431640625,-1045.4105224609377,531.6866455078125,179.86862182617188
13058,406.1344299316406,-1033.1585693359377,521.3270874023439,178.69802856445312
13059,418.416259765625,-1023.0421752929688,530.2691650390625,190.9798583984375
13060,409.0104064941406,-1035.451171875,525.9945068359375,183.7543792724609
13061,400.41986083984375,-1043.25634765625,518.9635009765625,175.57521057128906
13062,401.7662353515625,-1036.9620361328123,516.6671752929689,185.07455444335938
13063,416.9539794921875,-1029.112060546875,524.2703857421875,187.97671508789062
13064,410.5587463378906,-1042.755126953125,525.31005859375,178.91494750976562
13065,399.20440673828125,-1042.074462890625,522.6585083007811,179.44227600097656
13066,406.0484313964844,-1038.5477294921877,526.413330078125,191.4174346923828
13067,423.27813720703125,-1025.1514892578123,534.6561279296875,200.64376831054688
13068,407.5331726074219,-1037.9830322265623,522.3368530273439,191.21920776367188
13069,402.39453125,-1045.287109375,522.3779907226561,190.2767639160156
13070,408.5578918457031,-1041.8426513671877,522.8754272460939,197.62191772460938
13071,421.0790710449219,-1033.5625,533.6500854492189,201.35060119628903
13072,411.0785827636719,-1048.4398193359377,530.44873046875,191.4847412109375
13073,400.9920654296875,-1053.3839111328123,527.2735595703125,189.76438903808597
13074,413.17291259765625,-1042.3848876953123,530.5833740234375,191.51092529296875
13075,427.7286071777344,-1033.6634521484377,537.3600463867189,199.27870178222656
13076,411.11224365234375,-1048.847412109375,527.0416870117189,182.9315948486328
13077,406.86370849609375,-1058.694580078125,526.4656982421875,181.42816162109372
13078,423.169677734375,-1039.9427490234377,533.9081420898439,185.99082946777344
13079,430.3390808105469,-1030.559326171875,537.55078125,198.6803131103516
13080,413.17291259765625,-1053.5634765625,529.652099609375,184.68934631347656
13081,400.98834228515625,-1053.22314453125,518.06591796875,177.8004608154297
13082,412.1706237792969,-1039.9876708984377,517.2019653320311,187.0828857421875
13083,419.6616516113281,-1028.913818359375,532.8871459960939,197.39752197265625
13084,405.1246643066406,-1040.802978515625,522.1087036132811,187.4606170654297
13085,396.35833740234375,-1051.7421875,516.2034301757811,185.1643218994141
13086,405.3303527832031,-1038.1363525390623,516.5325317382811,189.59983825683597
13087,417.1110534667969,-1034.9986572265623,525.5120239257811,202.74932861328125
13088,402.992919921875,-1052.306884765625,522.6884155273439,192.43841552734372
13089,395.0007629394531,-1051.7010498046877,517.5422973632811,191.97467041015625
13090,409.51904296875,-1037.508056640625,524.2255249023439,200.16879272460938
13091,417.1260070800781,-1028.0648193359377,530.9685668945311,210.6143341064453
13092,401.74005126953125,-1042.5831298828123,525.2539672851561,194.9553680419922
13093,397.0988464355469,-1050.2462158203123,525.9234008789061,188.1001434326172
13094,409.07025146484375,-1037.4444580078123,524.0908813476561,200.8345031738281
13095,415.3233642578125,-1032.0404052734377,529.5735473632811,204.55943298339844
13096,403.7371520996094,-1039.8231201171877,527.598876953125,195.516357421875
13097,391.2159729003906,-1047.411376953125,522.47900390625,187.7672882080078
13098,404.7357177734375,-1036.8685302734377,523.6121826171875,191.9148406982422
13099,419.1492919921875,-1029.59814453125,533.4705200195311,193.22006225585938
13100,413.004638671875,-1040.144775390625,522.28076171875,174.5355224609375
13101,396.5902099609375,-1041.494873046875,512.7552490234375,176.75701904296875
13102,400.6405334472656,-1031.3671875,518.6680297851561,186.1591339111328
13103,409.4031066894531,-1022.3240966796876,523.1334838867189,194.23731994628903
13104,396.04791259765625,-1032.9454345703123,518.7278442382811,189.21463012695312
13105,390.3595275878906,-1045.91162109375,516.85791015625,186.1778259277344
13106,409.1413269042969,-1035.6568603515623,521.3345947265625,190.3964385986328
13107,420.6938781738281,-1028.2855224609377,533.6986694335939,210.29644775390625
13108,407.5294189453125,-1041.3414306640623,529.0350341796875,199.5030975341797
13109,393.10089111328125,-1048.3013916015623,518.89990234375,194.8805694580078
13110,410.622314453125,-1041.887451171875,522.2059936523439,199.21511840820312
13111,424.6170349121094,-1027.847900390625,533.8220825195311,204.64170837402344
13112,409.68359375,-1041.072265625,533.1190185546875,194.05406188964844
13113,397.17364501953125,-1048.552001953125,524.46484375,189.4053649902344
13114,410.293212890625,-1034.4002685546877,528.06640625,198.7064971923828
13115,421.2660827636719,-1022.9112548828124,534.3681030273439,208.47885131835938
13116,400.8200378417969,-1045.20849609375,526.4283447265625,191.80638122558597
13117,401.9345397949219,-1052.2806396484377,521.4841918945311,185.0408935546875
13118,414.2013854980469,-1039.6697998046877,522.1348876953125,187.4755706787109
13119,416.3481140136719,-1028.681884765625,526.3759765625,191.361328125
13120,399.5036010742188,-1036.2552490234377,521.5626831054689,176.1062774658203
13121,390.0453796386719,-1039.7744140625,515.3133544921875,171.0648956298828
13122,403.11260986328125,-1026.651123046875,513.910888671875,177.34043884277344
13123,412.4473876953125,-1019.9716796875,520.5043334960939,187.3409423828125
13124,397.9291076660156,-1033.513916015625,516.3343505859375,175.19374084472656
13125,391.9115905761719,-1041.3863525390623,514.68505859375,175.96041870117188
13126,405.9175109863281,-1033.6036376953123,519.5244750976561,179.85739135742188
13127,419.4596862792969,-1028.2406005859377,525.8523559570311,197.15817260742188
13128,407.8473205566406,-1043.23388671875,519.662841796875,188.97528076171875
13129,397.49151611328125,-1043.8770751953123,524.4424438476561,193.15647888183597
13130,406.0222473144531,-1034.018798828125,520.706298828125,197.0833740234375
13131,423.180908203125,-1027.765625,527.0416870117189,208.1684417724609
13132,406.5682678222656,-1045.73583984375,526.5966186523439,197.0572052001953
13133,392.8465576171875,-1044.9803466796877,521.1513061523439,193.51177978515625
13134,411.5236206054688,-1036.6217041015623,522.2620849609375,204.99327087402344
13135,427.747314453125,-1029.527099609375,536.9785766601561,208.76683044433597
13136,405.4462890625,-1044.1575927734377,521.5926513671875,192.6366424560547
13137,393.93115234375,-1051.921630859375,518.6119384765625,182.5426483154297
13138,406.6094055175781,-1041.1507568359377,521.7796020507811,188.4404754638672
13139,422.94903564453125,-1027.58984375,524.5172119140625,193.00314331054688
13140,413.9022216796875,-1035.70166015625,521.540283203125,182.3444366455078
13141,406.126953125,-1040.0848388671877,520.7137451171875,173.5930633544922
13142,417.1297302246094,-1036.3973388671877,524.0908813476561,181.7797088623047
13143,419.93841552734375,-1024.2164306640623,532.4794921875,188.80323791503903
13144,411.6919250488281,-1038.65625,528.5675659179689,185.19049072265625
13145,399.941162109375,-1044.1575927734377,525.437255859375,175.72854614257812
13146,410.7345275878906,-1037.081787109375,528.1636352539061,184.09097290039062
13147,424.2804260253906,-1019.9380493164062,540.179931640625,200.7297821044922
13148,409.11138916015625,-1035.4361572265623,533.4107055664061,191.9634552001953
13149,398.5386962890625,-1042.59814453125,529.427734375,185.90855407714844
13150,403.826904296875,-1037.4332275390623,530.7217407226561,196.4812469482422
13151,426.1690673828125,-1023.6068725585938,538.0743408203125,212.4543609619141
13152,409.9454040527344,-1041.4349365234377,529.7568359375,199.5442352294922
13153,403.2060852050781,-1045.6348876953123,530.8302001953125,198.12681579589844
13154,414.9344177246094,-1037.093017578125,529.3305053710939,206.2947540283203
13155,429.8678283691406,-1022.8626098632812,542.6893920898439,217.7164001464844
13156,403.9017028808594,-1041.5023193359377,529.1285400390625,202.0911102294922
13157,398.3629150390625,-1048.3201904296877,524.756591796875,193.1938781738281
13158,411.4039611816406,-1040.6683349609377,529.1322631835939,201.82557678222656
13159,419.7177429199219,-1030.604248046875,531.4547729492189,207.218505859375
13160,405.8464660644531,-1039.5687255859377,520.9718017578125,197.62940979003903
13161,399.25677490234375,-1047.3291015625,519.5394287109375,188.1749420166016
13162,405.80157470703125,-1037.7923583984377,513.5780029296875,191.05465698242188
13163,417.6982116699219,-1029.418701171875,525.0670166015625,195.4752197265625
13164,403.486572265625,-1040.5299072265623,520.1265869140625,185.9571685791016
13165,395.6552429199219,-1048.1556396484377,516.8167724609375,178.32029724121094
13166,411.3366394042969,-1036.3599853515623,527.303466796875,185.9758758544922
13167,421.3745422363281,-1029.31396484375,532.1204223632811,197.9061584472656
13168,404.4888916015625,-1046.379150390625,525.2053833007811,186.4583282470703
13169,394.60430908203125,-1043.9183349609377,515.7097778320311,180.53057861328125
13170,406.6729736328125,-1033.6522216796877,517.2393798828125,194.1737365722656
13171,426.9320068359375,-1027.5338134765623,530.9947509765625,203.67681884765625
13172,410.6858825683594,-1045.216064453125,523.582275390625,187.6850128173828
13173,396.6537780761719,-1051.4915771484377,519.4459228515625,188.6611175537109
13174,405.7641906738281,-1039.4490966796877,521.5253295898439,195.32188415527344
13175,420.7649230957031,-1027.694580078125,528.7096557617189,199.91448974609372
13176,407.559326171875,-1044.890625,521.2149047851561,189.33804321289062
13177,400.19921875,-1051.910400390625,520.41455078125,186.94076538085938
13178,408.8084716796875,-1035.3837890625,518.5932006835939,188.5451812744141
13179,419.21661376953125,-1023.2964477539062,533.5042114257811,201.64231872558597
13180,407.67901611328125,-1039.056396484375,519.6441650390625,190.7517242431641
13181,400.6517333984375,-1041.1768798828123,520.4744262695311,182.01905822753903
13182,405.4051513671875,-1033.9215087890623,519.5431518554689,181.8283233642578
13183,421.40069580078125,-1023.1543579101562,527.1090087890625,194.4280548095703
13184,408.064208984375,-1039.2733154296877,519.3150024414061,181.72360229492188
13185,396.818359375,-1039.53515625,516.094970703125,171.7380828857422
13186,411.11224365234375,-1030.7537841796877,518.3912963867189,177.73687744140625
13187,419.7177429199219,-1016.9049682617188,523.6682739257811,189.2108917236328
13188,407.6640625,-1032.459228515625,518.54833984375,178.6344451904297
13189,400.46099853515625,-1043.40966796875,511.5435180664063,175.45553588867188
13190,414.4594421386719,-1032.69482421875,518.1556396484375,192.24020385742188
13191,427.90814208984375,-1021.82666015625,525.5569458007811,204.2901611328125
13192,412.3651123046875,-1039.6136474609377,525.930908203125,198.80372619628903
13193,405.2293701171875,-1047.774169921875,522.60986328125,193.07794189453125
13194,409.3096008300781,-1034.6619873046877,521.9778442382811,203.3701477050781
13195,412.58575439453125,-1022.55224609375,532.9993286132811,206.44061279296875
13196,398.3965759277344,-1040.6683349609377,519.7189331054689,197.10955810546875
13197,394.1181335449219,-1048.361328125,515.2534790039061,189.94017028808597
13198,405.5622253417969,-1038.8880615234377,523.1633911132811,198.6578826904297
13199,420.0057373046875,-1028.76416015625,535.8865356445311,206.33963012695312
13200,411.1870422363281,-1045.1412353515623,526.293701171875,192.804931640625
13201,405.2331237792969,-1052.1722412109377,519.064453125,183.8067321777344
13202,415.8993225097656,-1036.1954345703123,518.279052734375,192.04946899414062
13203,427.242431640625,-1033.35302734375,524.932373046875,201.56378173828125
13204,405.9249877929688,-1047.0523681640623,511.5360412597656,178.9411163330078
13205,405.2630310058594,-1050.4892578125,510.27569580078125,179.64422607421875
13206,413.8947143554688,-1037.45947265625,515.32080078125,180.3174133300781
13207,419.0857238769531,-1025.5628662109377,522.5836791992189,188.46664428710938
13208,408.2848815917969,-1034.489990234375,518.9896850585939,180.0855255126953
13209,398.7855224609375,-1044.5802001953123,514.3709106445311,180.72879028320312
13210,409.5489501953125,-1030.944580078125,516.8878173828125,185.78887939453125
13211,417.10357666015625,-1022.00244140625,522.1124877929689,196.7093811035156
13212,398.7967529296875,-1034.93505859375,514.898193359375,183.9376220703125
13213,391.9115905761719,-1048.518310546875,515.7284545898439,181.41693115234372
13214,400.797607421875,-1030.4097900390623,518.2267456054689,194.4130859375
13215,413.75634765625,-1019.6575317382812,523.6907348632811,204.5482177734375
13216,399.600830078125,-1033.1810302734377,516.8840942382811,190.95367431640625
13217,386.021240234375,-1039.9801025390623,509.3594055175781,180.90830993652344
13218,401.4632873535156,-1033.5662841796877,518.3389282226561,195.3480682373047
13219,419.7962951660156,-1020.2783813476562,524.0572509765625,207.4316864013672
13220,408.6289367675781,-1033.9888916015623,516.9700927734375,190.8938446044922
13221,399.0061950683594,-1043.072998046875,515.8630981445311,186.42840576171875
13222,416.98388671875,-1033.1025390625,516.4652099609375,194.6636657714844
13223,429.3854064941406,-1027.156005859375,530.332763671875,197.1993103027344
13224,416.3780212402344,-1038.7572021484377,521.7796020507811,177.875244140625
13225,406.4299011230469,-1045.840576171875,517.9910888671875,175.22366333007812
13226,410.7232971191406,-1034.6470947265623,523.3316650390625,180.29122924804688
13227,424.9835205078125,-1020.0352783203124,530.1233520507811,190.8227844238281
13228,405.2331237792969,-1034.0748291015623,525.87109375,177.73313903808594
13229,396.9642028808594,-1044.370849609375,521.4654541015625,172.69175720214844
13230,414.1827087402344,-1030.5892333984377,528.982666015625,188.66860961914062
13231,422.25341796875,-1019.7734985351562,535.67333984375,200.9429473876953
13232,409.1488037109375,-1037.998046875,528.6834716796875,189.4951171875
13233,401.1828002929688,-1040.638427734375,523.9487915039061,185.8038330078125
13234,408.04925537109375,-1029.69921875,521.5364990234375,188.8668212890625
13235,428.58880615234375,-1019.0142822265624,533.1077880859375,202.6483459472656
13236,407.0058288574219,-1033.8167724609377,527.39697265625,189.8653717041016
13237,398.7892761230469,-1042.5831298828123,520.0443115234375,186.23019409179688
13238,409.3470153808594,-1030.4359130859377,523.0923461914061,193.97178649902344
13239,426.4794921875,-1022.6793823242188,530.42626953125,208.4003143310547
13240,407.9183654785156,-1038.99658203125,523.2868041992189,193.4631500244141
13241,398.7107238769531,-1037.9456787109377,507.7325439453125,181.19253540039062
13242,405.3677673339844,-1028.749267578125,514.2736206054689,189.1847076416016
13243,428.5813293457031,-1015.1658935546876,521.012939453125,197.1656494140625
13244,410.9925537109375,-1031.7149658203123,518.8250732421875,187.1464691162109
13245,405.6519775390625,-1038.1251220703123,517.3740234375,181.2000274658203
13246,413.344970703125,-1029.64306640625,515.2123413085939,181.63385009765625
13247,424.1607666015625,-1016.8077392578124,528.8367919921875,192.1205291748047
13248,406.3999633789063,-1033.7943115234377,517.6956787109375,177.34043884277344
13249,393.2916259765625,-1044.9991455078123,512.844970703125,171.43141174316406
13250,404.6459655761719,-1030.536865234375,512.31396484375,182.40426635742188
13251,423.1509704589844,-1019.6575317382812,526.4283447265625,194.40560913085938
13252,396.75103759765625,-1033.55126953125,522.9689331054689,185.856201171875
13253,389.2263488769531,-1038.8544921875,520.2761840820311,183.2719268798828
13254,407.37982177734375,-1029.1307373046877,524.0086059570311,190.79660034179688
13255,418.333984375,-1024.3548583984377,530.40380859375,201.1748352050781
13256,410.468994140625,-1040.8477783203123,525.7850341796875,196.4027099609375
13257,397.4241943359375,-1047.2542724609377,524.1432495117189,188.0702209472656
13258,412.24169921875,-1035.9560546875,530.2243041992189,200.74473571777344
13259,432.80364990234375,-1025.992919921875,538.6876831054689,217.2601318359375
13260,407.570556640625,-1047.1046142578123,526.1104125976561,199.7274932861328
13261,406.2167053222656,-1048.200439453125,524.1095581054689,198.6728363037109
13262,415.0054931640625,-1036.240234375,527.3258666992189,200.4792022705078
13263,427.2985229492188,-1026.310791015625,546.7060546875,213.3182830810547
13264,410.1922302246094,-1041.0740966796877,535.5125122070311,196.0362091064453
13265,401.5081787109375,-1047.6114501953123,528.1411743164061,188.7733154296875
13266,414.9867858886719,-1030.6658935546877,534.087646484375,194.90301513671875
13267,430.4998779296875,-1021.2526245117188,546.8257446289061,198.4110412597656
13268,408.2998352050781,-1042.0015869140623,535.2806396484375,183.84413146972656
13269,402.2150268554688,-1047.05419921875,523.5149536132811,181.1588897705078
13270,413.7974853515625,-1032.580810546875,530.27294921875,181.72360229492188
13271,426.21771240234375,-1020.328857421875,535.7219848632811,192.38980102539062
13272,403.8942260742188,-1037.5174560546877,525.4671630859375,179.07949829101562
13273,394.858642578125,-1044.3165283203123,519.4907836914061,178.5185089111328
13274,405.7417602539063,-1031.42138671875,525.1941528320311,188.84063720703125
13275,424.5758972167969,-1018.9600219726562,528.2496337890625,203.6880340576172
13276,393.9834899902344,-1038.1943359375,517.3366088867189,192.35987854003903
13277,397.66357421875,-1043.75927734375,517.3067016601561,188.8630828857422
13278,410.611083984375,-1025.751708984375,524.3190307617189,196.89263916015625
13279,428.52520751953125,-1022.3858032226562,531.3238525390625,213.8007354736328
13280,403.59503173828125,-1046.1453857421877,522.9913330078125,199.5068359375
13281,396.18255615234375,-1041.73974609375,520.7362060546875,196.63833618164062
13282,401.9756774902344,-1027.991943359375,522.8978271484375,203.07095336914062
13283,412.0322570800781,-1014.0645141601562,534.8842163085939,216.38499450683597
13284,387.51348876953125,-1034.29736328125,519.7526245117189,195.88661193847656
13285,384.75341796875,-1033.0220947265623,519.767578125,195.176025390625
13286,400.2590637207031,-1027.6253662109377,525.7401733398439,199.2674865722656
13287,417.8216247558594,-1018.6085205078124,536.1445922851561,207.5214385986328
13288,397.8916931152344,-1027.8721923828123,523.7318725585939,188.5638885498047
13289,393.0934143066406,-1028.111572265625,519.1990966796875,177.70321655273438
13290,399.3091125488281,-1017.9502563476562,525.250244140625,190.6507568359375
13291,427.4630737304688,-1005.6422729492188,530.9012451171875,200.2622985839844
13292,404.83294677734375,-1025.833984375,522.7295532226561,179.46844482421875
13293,400.0047302246094,-1030.8416748046877,518.0023193359375,180.0780487060547
13294,409.8294677734375,-1018.3766479492188,520.0330810546875,188.08517456054688
13295,418.3414611816406,-1004.142578125,528.71337890625,198.76258850097656
13296,401.8597412109375,-1020.3213500976562,525.1604614257811,190.8527069091797
13297,393.5047912597656,-1025.5721435546877,519.4683837890625,189.83544921875
13298,411.9537048339844,-1014.4833984375,522.6996459960939,203.1046142578125
13299,418.509765625,-995.200439453125,531.3350830078125,213.5015411376953
13300,405.18450927734375,-1012.7144165039062,527.5203857421875,197.7640380859375
13301,397.3980407714844,-1015.9120483398438,522.0975341796875,192.18785095214844
13302,408.9094543457031,-1012.5910034179688,528.6498413085939,197.5957489013672
13303,423.4239807128906,-998.1063842773438,543.4598388671875,209.61204528808597
13304,397.9029235839844,-1013.2716674804688,527.890625,192.49078369140625
13305,383.3472290039063,-1014.63671875,517.2057495117189,186.5144195556641
13306,397.9403076171875,-1004.4342651367188,516.2258911132811,193.61648559570312
13307,417.911376953125,-987.3653564453124,529.8577880859375,203.85260009765625
13308,402.50299072265625,-1005.2832641601562,518.3090209960939,186.45083618164062
13309,395.6514892578125,-1010.1151733398438,518.361328125,185.12692260742188
13310,404.694580078125,-1003.8059692382812,521.4729614257811,183.37664794921875
13311,422.2234802246094,-983.3823852539062,527.610107421875,195.82302856445312
13312,397.8206481933594,-1003.0692138671876,515.69482421875,175.0030059814453
13313,390.6026306152344,-1002.511962890625,511.3303527832031,172.67678833007812
13314,395.2288818359375,-1005.058837890625,514.4120483398439,180.1191864013672
13315,410.7270202636719,-980.6859130859376,517.9425048828125,186.8360595703125
13316,387.5059814453125,-997.8333740234376,509.5426635742188,177.93508911132812
13317,378.7882995605469,-1004.7484130859376,505.55218505859375,177.77053833007812
13318,389.51806640625,-990.8883666992188,510.82171630859375,192.7637939453125
13319,405.63702392578125,-975.3827514648438,519.8012084960939,204.19293212890625
13320,386.7056579589844,-996.442138671875,517.1458740234375,195.7407531738281
13321,379.86163330078125,-1006.4238891601562,518.7054443359375,191.58946228027344
13322,394.3761901855469,-994.6619262695312,525.1642456054689,204.671630859375
13323,411.6769714355469,-987.3391723632812,531.6604614257811,214.3467559814453
13324,391.0813293457031,-1011.11376953125,520.2088623046875,198.2203063964844
13325,390.2062072753906,-1019.248046875,514.1203002929689,191.4323883056641
13326,401.54931640625,-1015.2500610351562,515.2796630859375,193.20135498046875
13327,421.0379333496094,-1011.0651245117188,524.3489379882811,207.91786193847656
13328,402.8882141113281,-1021.712646484375,522.4677734375,186.0394592285156
13329,396.3246765136719,-1029.4991455078123,523.8964233398439,192.7338714599609
13330,407.13671875,-1015.9307250976562,521.8544311523439,193.43698120117188
13331,424.2205810546875,-1003.390869140625,535.613525390625,203.4262542724609
13332,398.8229370117188,-1022.699951171875,516.7719116210939,186.5331268310547
13333,391.7657470703125,-1028.67626953125,515.7509155273439,181.29725646972656
13334,396.5004577636719,-1020.340087890625,518.3987426757811,185.0371551513672
13335,415.13262939453125,-1003.6713256835938,530.7666015625,192.69273376464844
13336,393.9797668457031,-1022.62890625,522.232177734375,182.35565185546875
13337,383.16021728515625,-1030.4266357421877,519.1430053710939,175.5078887939453
13338,396.7024230957031,-1020.987060546875,519.1654052734375,177.19459533691406
13339,410.106201171875,-1005.33935546875,524.1282958984375,194.8768310546875
13340,388.9832458496094,-1017.7894897460938,525.1455078125,181.45806884765625
13341,382.2514343261719,-1018.5748291015624,522.3779907226561,183.71324157714844
13342,398.404052734375,-1009.6065673828124,528.9302978515625,192.4272003173828
13343,416.03021240234375,-998.5364379882812,537.8237915039061,203.97227478027344
13344,404.95635986328125,-1024.8316650390623,531.9970092773439,188.71722412109372
13345,401.1080017089844,-1026.2080078125,525.9122314453125,191.1107635498047
13346,417.51495361328125,-1023.8069458007812,533.6724853515625,198.98324584960938
13347,433.48431396484375,-1013.204345703125,544.7650756835939,208.94259643554688
13348,414.7549133300781,-1036.3431396484377,530.2093505859375,193.1901397705078
13349,412.80267333984375,-1038.8338623046877,529.4127807617189,186.5780029296875
13350,419.05206298828125,-1031.1109619140623,527.9354858398439,192.9433135986328
13351,436.4126586914063,-1016.16259765625,536.6569213867189,200.9429473876953
13352,410.94769287109375,-1034.5628662109377,526.9182739257811,184.56593322753903
13353,403.5875549316406,-1039.791259765625,519.0008544921875,177.01881408691406
13354,409.63873291015625,-1019.8875732421876,526.0917358398439,187.74110412597656
13355,427.9305725097656,-1010.4480590820312,533.1301879882811,198.1754302978516
13356,406.68792724609375,-1027.935791015625,527.6961669921875,179.12063598632812
13357,395.63653564453125,-1033.0931396484377,524.0609741210939,174.13160705566406
13358,401.7101440429688,-1022.1688842773438,527.5316162109375,179.85365295410156
13359,415.7572021484375,-1005.0214233398438,535.4751586914061,192.87599182128903
13360,394.8362121582031,-1019.8875732421876,529.147216796875,185.0034942626953
13361,383.96429443359375,-1025.916259765625,523.9637451171875,179.42356872558594
13362,394.1480712890625,-1015.0032348632812,522.09375,190.62831115722656
13363,402.4580993652344,-1007.7964477539062,531.2303466796875,195.29196166992188
13364,390.8157958984375,-1031.44384765625,521.0391235351561,191.5333709716797
13365,386.34661865234375,-1034.8770751953123,515.8219604492189,189.1099090576172
13366,403.2472229003906,-1031.7879638671877,522.5051879882811,201.92654418945312
13367,421.79339599609375,-1021.1703491210938,533.911865234375,219.62374877929688
13368,400.4535217285156,-1042.4541015625,528.53759765625,207.28582763671875
13369,396.4742736816406,-1049.5711669921877,523.9562377929689,207.19232177734372
13370,411.6358337402344,-1039.05078125,523.3541259765625,212.9106292724609
13371,425.5669555664063,-1022.9505004882812,533.8034057617189,215.28921508789062
13372,407.5929870605469,-1046.470703125,522.3480834960939,196.8365478515625
13373,402.5628356933594,-1047.7049560546877,513.27880859375,188.4442138671875
13374,418.41253662109375,-1034.8433837890623,520.0480346679689,185.0072479248047
13375,436.221923828125,-1025.740478515625,527.3446044921875,194.47293090820312
13376,414.3734436035156,-1039.944580078125,523.4476318359375,182.4416656494141
13377,399.0099182128906,-1039.3724365234377,525.9795532226561,174.7412109375
13378,409.6761169433594,-1021.2937622070312,530.1083984375,188.67608642578125
13379,421.6213684082031,-1008.3237915039062,537.5582885742189,202.53240966796875
13380,397.2633972167969,-1028.8072509765623,532.5916748046875,191.08457946777344
13381,396.0030517578125,-1032.98095703125,532.9432373046875,190.2505798339844
13382,404.5561828613281,-1032.0721435546877,534.6261596679689,196.73556518554688
13383,419.4971008300781,-1017.7445678710938,539.862060546875,202.99615478515625
13384,403.4903259277344,-1042.125,527.7597045898439,192.4608612060547
13385,395.5505065917969,-1047.641357421875,524.887451171875,197.1993103027344
13386,411.0000305175781,-1032.6817626953123,533.7996826171875,199.4694366455078
13387,428.1886291503906,-1026.96337890625,538.994384765625,210.34132385253903
13388,410.5437927246094,-1045.38623046875,527.3109130859375,199.3609771728516
13389,402.1850891113281,-1061.400390625,523.29052734375,195.692138671875
13390,415.4318237304688,-1049.62353515625,524.0347900390625,198.9944610595703
13391,428.0951232910156,-1031.94873046875,538.511962890625,209.1894378662109
13392,414.2126159667969,-1052.6229248046877,529.7418823242189,198.5643768310547
13393,398.0300598144531,-1055.985107421875,525.0894165039061,190.28797912597656
13394,408.0791931152344,-1035.65869140625,531.5370483398439,192.4122467041016
13395,426.6777038574219,-1026.2491455078123,537.3675537109375,203.79649353027344
13396,405.4425659179688,-1043.62841796875,532.1952514648439,189.30064392089844
13397,395.9731140136719,-1042.315673828125,527.1688232421875,182.82687377929688
13398,404.2944030761719,-1030.4752197265623,527.819580078125,193.11534118652344
13399,419.4073486328125,-1016.1701049804688,536.0324096679689,210.950927734375
13400,396.2424011230469,-1035.961669921875,528.148681640625,199.05804443359372
13401,394.6304931640625,-1037.162109375,525.1866455078125,195.8454742431641
13402,402.7049560546875,-1033.95703125,526.9369506835939,205.37847900390625
13403,417.0137939453125,-1022.2286987304688,534.4130249023439,213.4940643310547
13404,395.0605773925781,-1039.9334716796877,526.0094604492189,197.59201049804688
13405,386.2606201171875,-1051.351318359375,511.8988037109375,186.3984832763672
13406,397.5663146972656,-1033.6466064453123,522.5537719726561,196.81036376953125
13407,416.3780212402344,-1019.648193359375,528.8779296875,206.2573547363281
13408,402.77227783203125,-1037.9737548828123,523.2980346679689,197.27037048339844
13409,399.2642517089844,-1045.1805419921877,522.4602661132811,190.1421203613281
13410,411.0523986816406,-1037.771728515625,526.7611694335939,197.66680908203125
13411,422.0290222167969,-1026.4921875,534.64111328125,209.5447235107422
13412,407.4957580566406,-1047.1551513671877,530.4113159179689,191.8624725341797
13413,399.6643981933594,-1043.58349609375,520.06298828125,181.00555419921875
13414,411.9537048339844,-1027.3673095703123,528.7769775390625,193.42575073242188
13415,425.64923095703125,-1021.5780029296876,539.9069213867189,194.46170043945312
13416,408.23626708984375,-1031.8402099609377,530.2803955078125,182.8530578613281
13417,398.3330078125,-1042.9776611328123,530.8451538085939,176.09132385253906
13418,409.3058776855469,-1028.6688232421877,536.2904052734375,185.19422912597656
13419,424.4225463867188,-1017.1911010742188,538.0631713867189,191.55953979492188
13420,403.8942260742188,-1029.342041015625,530.3178100585939,178.62322998046875
13421,396.7697143554688,-1039.3275146484377,522.9240112304689,179.3749542236328
13422,406.1793212890625,-1028.77734375,526.89208984375,185.9833526611328
13423,426.7038879394531,-1014.12060546875,541.7469482421875,200.97286987304688
13424,404.9825439453125,-1037.39404296875,519.72265625,183.6571350097656
13425,398.6695861816406,-1042.57373046875,521.962890625,179.330078125
13426,409.5714111328125,-1033.556884765625,527.1688232421875,185.58319091796875
13427,421.3258972167969,-1019.1358032226562,537.950927734375,196.3802795410156
13428,402.9181213378906,-1036.9676513671877,525.9757690429689,184.4088592529297
13429,394.0358581542969,-1044.731689453125,528.3917846679689,183.94137573242188
13430,405.5921630859375,-1038.875,529.5997314453125,188.08517456054688
13431,421.4717712402344,-1029.2222900390623,542.2593383789061,199.3422698974609
13432,399.9673461914063,-1040.7486572265623,535.4227905273439,185.4784698486328
13433,394.76513671875,-1039.4920654296877,527.939208984375,182.7894744873047
13434,399.08099365234375,-1024.02392578125,522.6996459960939,179.62925720214844
13435,420.7761535644531,-1013.7578735351562,539.0392456054689,194.86187744140625
13436,395.2438354492188,-1036.58251953125,530.8413696289061,182.3481750488281
13437,393.1382751464844,-1045.214111328125,522.0152587890625,172.4972686767578
13438,397.7271423339844,-1030.5986328125,524.0796508789061,184.8950500488281
13439,412.9747009277344,-1016.947998046875,526.3834228515625,194.68983459472656
13440,387.9547729492188,-1040.505615234375,518.0621337890625,175.11520385742188
13441,385.4266052246094,-1044.2418212890623,510.0774841308594,169.34454345703125
13442,399.8139953613281,-1029.177490234375,515.5863647460939,182.83436584472656
13443,417.7692565917969,-1023.1076049804688,523.066162109375,195.0900115966797
13444,401.07061767578125,-1041.066650390625,521.2073974609375,191.97467041015625
13445,396.9081115722656,-1042.9515380859377,518.1294555664061,185.8449859619141
13446,413.3038330078125,-1035.2884521484377,525.0819702148439,197.87249755859372
13447,431.0608825683594,-1023.7957153320312,540.755859375,213.35568237304688
13448,415.8880920410156,-1042.8917236328123,533.6351318359375,201.7395477294922
13449,402.7797546386719,-1046.620361328125,530.0822143554689,186.5406036376953
13450,409.777099609375,-1032.831298828125,536.1221313476561,190.1533508300781
13451,426.0119934082031,-1018.4290161132812,541.6871337890625,203.7665863037109
13452,405.8464660644531,-1032.8948974609377,538.7811889648439,190.83773803710938
13453,398.9837341308594,-1032.995849609375,536.0885009765625,188.25721740722656
13454,407.2377014160156,-1021.4620361328124,537.2852172851561,191.4922332763672
13455,419.5045776367188,-1012.9088745117188,547.6859130859375,206.5303649902344
13456,405.20318603515625,-1033.613037109375,537.1655883789061,188.5264892578125
13457,399.8925476074219,-1037.266845703125,534.9179077148439,189.01641845703125
13458,409.1787109375,-1026.98583984375,534.1325073242189,185.5121307373047
13459,422.159912109375,-1016.3121948242188,542.221923828125,194.8282165527344
13460,412.0584411621094,-1037.7568359375,527.85693359375,181.4992218017578
13461,396.4032287597656,-1041.747314453125,518.3314208984375,171.3079833984375
13462,405.5360412597656,-1032.1319580078123,519.9133911132811,182.92037963867188
13463,424.2505187988281,-1021.8584594726562,526.5966186523439,190.7779083251953
13464,404.694580078125,-1039.095703125,521.09521484375,181.80963134765625
13465,394.96710205078125,-1043.046875,521.6019897460939,178.60079956054688
13466,405.9175109863281,-1033.22216796875,521.1793823242189,185.6766815185547
13467,421.24737548828125,-1021.1273193359376,531.4977416992189,193.06298828125
13468,405.5472717285156,-1039.8118896484377,522.7314453125,187.5877685546875
13469,387.87249755859375,-1045.391845703125,520.99609375,181.102783203125
13470,404.7843322753906,-1028.7679443359377,528.906005859375,187.2661437988281
13471,423.8092041015625,-1021.4340209960938,540.87744140625,204.8287048339844
13472,402.55908203125,-1040.6121826171877,531.5202026367189,193.7361602783203
13473,397.43170166015625,-1046.214599609375,533.3003540039061,187.8495635986328
13474,405.2368469238281,-1028.8427734375,537.8705444335939,194.5140686035156
13475,418.6144714355469,-1022.7803344726562,539.1570434570311,199.9668426513672
13476,395.2513122558594,-1041.3975830078123,528.7339477539061,183.1410369873047
13477,392.3753356933594,-1042.9945068359377,524.9304809570311,178.67933654785156
13478,399.2642517089844,-1030.6903076171877,521.8712768554689,184.6968231201172
13479,406.5084228515625,-1015.5399169921876,529.7698974609375,193.61648559570312
13480,392.6595764160156,-1039.6510009765623,522.3237915039061,185.8038330078125
13481,387.7603149414063,-1045.9415283203123,518.625,180.29122924804688
13482,399.3091125488281,-1033.8841552734377,519.6572265625,187.00808715820312
13483,413.6965026855469,-1028.5548095703123,531.265869140625,198.4521789550781
13484,393.30657958984375,-1046.81298828125,517.3347778320311,181.54409790039062
13485,389.3011474609375,-1047.6993408203123,520.2144775390625,181.02798461914062
13486,401.64654541015625,-1036.2626953125,525.8355712890625,191.13319396972656
13487,421.7485046386719,-1023.0084838867188,535.1441650390625,205.0194396972656
13488,401.0893249511719,-1045.7545166015623,532.0699462890625,188.92291259765625
13489,400.8873596191406,-1048.3201904296877,532.3990478515625,184.38641357421875
13490,413.9919738769531,-1038.6861572265623,539.4375610351561,194.13259887695312
13491,428.52520751953125,-1030.2041015625,546.6630249023439,205.9806060791016
13492,407.70892333984375,-1052.09375,538.0799560546875,188.8668212890625
13493,400.2328796386719,-1054.9097900390623,536.0791015625,184.6482086181641
13494,409.1824645996094,-1047.0223388671877,537.78076171875,186.2451477050781
13495,423.7867736816406,-1032.376953125,542.3583984375,198.41477966308597
13496,405.9212646484375,-1053.799072265625,529.0369262695311,178.48110961914062
13497,403.6997680664063,-1057.6212158203123,522.8174438476561,173.76136779785156
13498,407.922119140625,-1039.1611328125,532.70947265625,183.485107421875
13499,428.3980712890625,-1029.452392578125,539.9536743164061,192.2439422607422
13500,403.7072448730469,-1042.317626953125,532.0587158203125,183.05874633789062
13501,395.2214050292969,-1048.4622802734377,528.543212890625,173.6940460205078
13502,409.55645751953125,-1036.6927490234377,532.5860595703125,186.1740875244141
13503,421.40069580078125,-1023.0197143554688,543.7908325195311,202.71566772460938
13504,394.2378234863281,-1044.019287109375,533.3153686523439,194.4841461181641
13505,395.6141052246094,-1050.6650390625,526.8602905273439,193.4743804931641
13506,398.77056884765625,-1036.90966796875,531.6810302734375,200.29595947265625
13507,418.3377380371094,-1019.4481201171876,546.2404174804689,217.70518493652344
13508,395.29248046875,-1047.497314453125,535.4695434570311,202.65956115722656
13509,388.04827880859375,-1049.64404296875,529.8895874023439,194.09893798828125
13510,400.8275146484375,-1040.7169189453123,535.0431518554689,206.5453186035156
13511,417.1147766113281,-1026.21728515625,535.9071044921875,205.63278198242188
13512,395.8609313964844,-1038.6263427734377,534.0969848632811,194.8768310546875
13513,388.9720458984375,-1041.90625,526.0861206054689,185.25033569335938
13514,397.0614318847656,-1033.8765869140623,525.1324462890625,190.94993591308597
13515,418.0684509277344,-1021.0001831054688,541.9320678710939,200.33709716796875
13516,402.4955139160156,-1037.9306640625,525.9851684570311,180.6913909912109
13517,394.4098510742188,-1047.486083984375,523.658935546875,175.56773376464844
13518,405.0386352539063,-1038.1588134765623,525.4054565429689,175.4667510986328
13519,425.2490539550781,-1020.4915161132812,538.1510620117189,191.99337768554688
13520,400.8275146484375,-1042.7962646484377,525.2371826171875,185.80758666992188
