,T7,F8,Cz,P4
11000,457.6702575683594,-1004.4810180664062,508.47491455078125,187.0828857421875
11001,433.7610778808594,-1013.7410278320312,507.5885620117188,186.1778259277344
11002,435.2570495605469,-1009.79541015625,508.2318420410156,188.55267333984372
11003,444.8311767578125,-1006.8820190429688,512.4541625976561,190.84523010253903
11004,439.0867004394531,-1011.9832763671876,505.5316162109375,184.1433258056641
11005,428.7047424316406,-1014.6909790039062,510.090576171875,190.7367706298828
11006,427.0741271972656,-1002.3978881835938,508.5310363769531,192.1766357421875
11007,443.44366455078125,-1008.0152587890624,507.31182861328125,189.4951171875
11008,437.4486083984375,-1007.5327758789062,508.35150146484375,194.0316162109375
11009,435.9601440429688,-1009.877685546875,504.5442810058594,189.64471435546875
11010,441.0576171875,-1006.5005493164062,503.8673706054688,191.30897521972656
11011,446.6263427734375,-1001.5714111328124,508.48614501953125,201.5824737548828
11012,442.0412292480469,-1007.3869018554688,505.1090087890625,200.28472900390625
11013,443.6381530761719,-1013.9429931640624,504.821044921875,200.80831909179688
11014,435.8629150390625,-1009.2868041992188,511.75482177734375,202.07614135742188
11015,439.93939208984375,-1006.4182739257812,510.84228515625,200.8980712890625
11016,442.4376525878906,-1002.85791015625,517.9967041015625,194.64495849609372
11017,431.8238220214844,-1012.6265258789062,508.8713684082031,188.26095581054688
11018,438.17041015625,-1011.2577514648438,510.36358642578125,189.2520294189453
11019,444.7750854492188,-1007.4916381835938,510.8161010742188,186.21148681640625
11020,445.03314208984375,-1016.2916259765624,508.7591552734375,178.5521697998047
11021,441.6597595214844,-1017.3948974609376,511.4182434082031,185.4448089599609
11022,430.8364868164063,-1009.5972290039062,512.8206787109375,187.41574096679688
11023,442.2618713378906,-1011.9271850585938,519.9489135742189,196.94874572753903
11024,437.5084533691406,-1019.7921752929688,511.17138671875,191.0583953857422
11025,422.6610412597656,-1015.5249633789062,509.75396728515625,183.78428649902344
11026,421.3707885742188,-1013.8233032226562,503.306396484375,182.2808532714844
11027,439.3709411621094,-1005.0083618164062,514.7916259765625,200.58392333984372
11028,436.32666015625,-1015.4912719726562,512.932861328125,197.83135986328125
11029,424.0074157714844,-1018.4234008789062,506.3656311035156,186.5780029296875
11030,428.2858581542969,-1015.6446533203124,506.0477294921875,186.0282287597656
11031,434.22857666015625,-1008.45654296875,505.0491943359375,185.57196044921875
11032,437.0484619140625,-1017.211669921875,508.14208984375,189.7569122314453
11033,436.0835571289063,-1025.39453125,509.387451171875,187.41574096679688
11034,429.3479919433594,-1018.198974609375,495.7966613769531,179.154296875
11035,427.6837463378906,-1004.5520629882812,494.2109375,177.90890502929688
11036,438.6117248535156,-1006.2163696289062,501.7655334472656,180.2351226806641
11037,422.0589294433594,-1019.4144287109376,495.7518005371094,171.93255615234375
11038,435.7394714355469,-1019.0890502929688,493.22735595703125,163.50282287597656
11039,423.97003173828125,-1003.9125366210938,487.3033447265625,165.5410614013672
11040,430.9449462890625,-1011.1231079101562,499.15509033203125,165.69065856933594
11041,425.5183410644531,-1025.532958984375,492.6925354003906,155.36105346679688
11042,429.7257385253906,-1025.7161865234377,493.2497863769531,166.83132934570312
11043,433.9779968261719,-1023.3114013671876,499.2485961914063,173.08444213867188
11044,425.9671325683594,-1026.060302734375,492.08294677734375,169.31088256835938
11045,417.4812927246094,-1031.57666015625,491.3985595703125,172.35890197753906
11046,419.2203369140625,-1028.8128662109377,497.027099609375,181.9405212402344
11047,425.4435424804688,-1029.2391357421877,491.53692626953125,182.9577789306641
11048,420.7462158203125,-1027.9713134765623,491.9595336914063,179.17674255371094
11049,419.0370788574219,-1044.7186279296877,490.3663330078125,178.88128662109375
11050,426.6515197753906,-1036.344970703125,492.3447265625,180.36602783203125
11051,424.0298461914063,-1032.964111328125,485.92706298828125,174.76365661621094
11052,424.0934448242188,-1036.0943603515623,489.4201354980469,172.5720672607422
11053,416.50518798828125,-1035.0472412109377,488.3692321777344,172.25791931152344
11054,415.046630859375,-1033.9552001953123,482.3928527832031,160.57447814941406
11055,427.9642333984375,-1021.8173217773438,497.4908447265625,167.36239624023438
11056,426.2962341308594,-1034.7947998046877,489.5921630859375,163.03158569335938
11057,413.2589416503906,-1040.3822021484377,493.025390625,147.00611877441406
11058,425.4697265625,-1029.8505859375,492.6439208984375,150.4655303955078
11059,427.6089477539063,-1031.197021484375,491.4508972167969,154.80006408691406
11060,429.9725646972656,-1022.161376953125,490.5234069824219,153.6332244873047
11061,411.11224365234375,-1034.9481201171877,484.89111328125,151.52391052246094
11062,411.5086669921875,-1026.7689208984377,485.6353454589844,160.9222869873047
11063,420.94818115234375,-1026.540771484375,490.51593017578125,171.77548217773438
11064,413.7039794921875,-1024.427734375,490.54583740234375,182.7857360839844
11065,408.3559265136719,-1040.0306396484377,494.91778564453125,181.8694610595703
11066,411.0374450683594,-1029.132568359375,495.6620178222656,186.0357208251953
11067,418.1619567871094,-1026.2154541015623,497.1392822265625,192.4234619140625
11068,412.4548645019531,-1033.35498046875,496.3501586914063,187.95802307128903
11069,410.7158203125,-1036.212158203125,492.70751953125,187.206298828125
11070,416.31817626953125,-1032.11328125,490.0035705566406,186.865966796875
11071,413.8872375488281,-1034.4095458984377,480.0442199707031,180.8409881591797
11072,418.8463439941406,-1034.4881591796877,490.16436767578125,175.5415496826172
11073,409.69482421875,-1037.2967529296877,484.0945129394531,172.08963012695312
11074,417.10357666015625,-1028.7548828125,483.80279541015625,173.0545196533203
11075,411.6620178222656,-1022.0753784179688,485.7026672363281,167.029541015625
11076,417.4738159179688,-1026.376220703125,490.06341552734375,165.2605743408203
11077,416.8006286621094,-1026.8363037109377,491.85107421875,162.52296447753906
11078,415.67864990234375,-1022.7672729492188,496.4062805175781,160.72781372070312
11079,429.5686340332031,-1018.6683349609376,499.7198181152344,169.26600646972656
11080,432.5867614746094,-1017.5276489257812,505.3782958984375,167.38856506347656
11081,428.087646484375,-1016.82080078125,510.7787170410156,172.26913452148438
11082,427.4256896972656,-1014.3113403320312,511.4556274414063,175.14138793945312
11083,439.0044250488281,-1010.481689453125,511.1564331054688,183.9451141357422
11084,436.2742919921875,-1014.8424072265624,515.5470581054689,186.58921813964844
11085,424.39263916015625,-1025.9425048828123,509.9110412597656,186.08433532714844
11086,431.3787536621094,-1022.1539306640624,509.9708862304688,192.52818298339844
11087,440.3619995117188,-1022.5540771484376,511.2424621582031,194.47293090820312
11088,432.0706481933594,-1026.2977294921877,505.0978088378906,188.2310333251953
11089,426.7300720214844,-1029.5439453125,502.7304382324219,183.3579406738281
11090,424.8414001464844,-1022.5204467773438,500.6174011230469,188.3394927978516
11091,436.1620788574219,-1013.006103515625,500.924072265625,188.80697631835938
11092,436.5697326660156,-1015.915771484375,504.6041259765625,184.04608154296875
11093,436.75299072265625,-1018.627197265625,502.3302612304688,185.48968505859372
11094,435.7544555664063,-1011.360595703125,502.5135192871094,185.4635162353516
11095,447.83056640625,-996.0120239257812,515.7340698242189,194.98529052734372
11096,446.903076171875,-996.7936401367188,521.9310913085939,193.24624633789062
11097,436.6258544921875,-1008.2116088867188,519.1298828125,192.2850799560547
11098,441.4690246582031,-1003.9406127929688,521.3551635742189,195.71083068847656
11099,448.30181884765625,-998.9179077148438,525.491455078125,196.9973602294922
11100,451.1665649414063,-999.6734008789062,533.2517700195311,203.97601318359372
11101,442.3291931152344,-1005.7843627929688,531.3892822265625,196.24937438964844
11102,441.8429870605469,-997.7548217773438,536.9580078125,201.7919158935547
11103,450.5457458496094,-996.1878051757812,534.3624877929689,204.8548889160156
11104,451.1927490234375,-993.5811157226562,541.464599609375,207.3456573486328
11105,453.10009765625,-997.9829711914062,541.0494384765625,207.0128173828125
11106,450.0333862304688,-996.430908203125,534.9683837890625,206.10775756835938
11107,453.29083251953125,-1004.1126708984376,530.7984008789061,205.3934326171875
11108,447.5314025878906,-1006.0723266601562,525.678466796875,206.77719116210938
11109,442.7518005371094,-1013.731689453125,527.226806640625,197.1394805908203
11110,441.1810302734375,-1018.1298217773438,518.1687622070311,193.07046508789062
11111,435.0999755859375,-1009.3260498046876,508.8750915527344,179.77511596679688
11112,430.8701477050781,-1014.8798217773438,504.8547058105469,175.72854614257812
11113,418.86505126953125,-1024.050048828125,498.69134521484375,168.48062133789062
11114,415.2485656738281,-1024.214599609375,494.42413330078125,168.5180206298828
11115,422.3618469238281,-1016.525390625,499.53656005859375,169.9541473388672
11116,420.10296630859375,-1018.3616943359376,507.3080749511719,173.33876037597656
11117,414.61651611328125,-1024.61474609375,504.7238159179688,168.49183654785156
11118,422.9714660644531,-1017.9839477539062,504.68267822265625,170.95643615722656
11119,418.4536743164063,-1013.978515625,504.3722534179688,170.49269104003906
11120,424.5646667480469,-1022.898193359375,503.1679992675781,169.6175537109375
11121,409.5826110839844,-1023.7695922851562,500.067626953125,161.7338409423828
11122,414.0218811035156,-1015.4744873046876,508.2206115722656,166.04220581054688
11123,420.90704345703125,-1010.7210693359376,512.21484375,170.12991333007812
11124,424.49359130859375,-1017.72216796875,515.95849609375,174.00819396972656
11125,413.7264404296875,-1026.1668701171877,510.7076416015625,175.1264190673828
11126,417.9562683105469,-1022.898193359375,513.23583984375,176.5662841796875
11127,419.3998718261719,-1020.1567993164062,507.9513549804688,178.24923706054688
11128,422.40673828125,-1029.1624755859377,504.4881896972656,183.88526916503903
11129,417.5,-1036.6160888671877,500.3481140136719,176.46531677246094
11130,421.9130859375,-1031.2493896484377,498.6315002441406,181.67872619628903
11131,429.46392822265625,-1027.93212890625,495.5348815917969,176.2745819091797
11132,421.9916076660156,-1029.3980712890623,493.4405212402344,175.5490264892578
11133,415.1363830566406,-1033.3961181640623,491.8435974121094,170.84423828125
11134,411.1945190429688,-1032.10205078125,493.56768798828125,170.08877563476562
11135,424.2467651367188,-1023.3768920898438,491.8959655761719,171.3902587890625
11136,423.5025329589844,-1029.4580078125,494.91778564453125,166.89865112304688
11137,416.4528198242188,-1031.208251953125,494.4503173828125,163.05776977539062
11138,415.7572021484375,-1032.47607421875,496.7877502441406,168.90322875976562
11139,420.61907958984375,-1023.2646484375,496.7466125488281,168.8994903564453
11140,425.5856628417969,-1028.06298828125,499.7198181152344,163.7197265625
11141,425.8212585449219,-1028.0928955078123,505.6064147949219,175.8856201171875
11142,428.8094482421875,-1017.88671875,505.8906555175781,183.20460510253903
11143,440.8706359863281,-1013.193115234375,510.9021301269531,189.62228393554688
11144,435.8217468261719,-1016.7871704101562,520.6408081054689,193.55291748046875
11145,436.54730224609375,-1022.3147583007812,519.7581787109375,196.05490112304688
11146,425.63427734375,-1017.8455810546876,508.1121520996094,203.3252716064453
11147,434.8755798339844,-1016.8469848632812,510.52813720703125,201.3281707763672
11148,436.9437255859375,-1021.701416015625,509.1855163574219,194.9553680419922
11149,433.7311706542969,-1023.1786499023438,513.8491821289061,199.2936553955078
11150,431.24786376953125,-1014.3562622070312,510.8759460449219,198.743896484375
11151,437.594482421875,-1011.1287231445312,512.8992309570311,200.41189575195312
11152,432.9009094238281,-1014.412353515625,509.1294250488281,194.52902221679688
11153,428.06146240234375,-1010.3619995117188,506.3506774902344,186.2900238037109
11154,424.4113159179688,-1010.6387939453124,502.2405090332031,177.7256622314453
11155,439.1764526367188,-999.9202270507812,516.5755615234375,181.54409790039062
11156,436.5285949707031,-1008.6342163085938,514.6981201171875,171.03497314453125
11157,428.12506103515625,-1008.450927734375,513.8379516601561,169.89056396484375
11158,432.2763366699219,-1010.5303344726562,510.7001647949219,168.88827514648438
11159,431.8686828613281,-1007.1270141601562,517.061767578125,176.87295532226562
11160,435.7694091796875,-1009.1390991210938,521.6693115234375,186.1479034423828
11161,429.9800415039063,-1023.7845458984376,517.850830078125,186.2638397216797
11162,433.1626892089844,-1021.6939086914062,517.7760620117189,190.18325805664062
11163,444.4160461425781,-1018.122314453125,515.9622192382811,191.783935546875
11164,428.1138305664063,-1020.5831909179688,516.205322265625,192.06817626953125
11165,430.2418212890625,-1029.2784423828123,513.624755859375,186.8584899902344
11166,424.1271057128906,-1025.044921875,510.0494384765625,185.3812255859375
11167,440.2236328125,-1025.695556640625,514.0137329101561,193.49681091308597
11168,432.25762939453125,-1034.8284912109377,509.09576416015625,186.9220733642578
11169,422.1898193359375,-1035.4381103515623,504.5854187011719,182.1686553955078
11170,426.49444580078125,-1036.597412109375,503.4933776855469,177.5910186767578
11171,425.3986511230469,-1031.832763671875,500.92779541015625,177.89768981933594
11172,420.0057373046875,-1031.4027099609377,497.191650390625,171.7679901123047
11173,403.3407287597656,-1041.5079345703123,491.73138427734375,160.21170043945312
11174,412.9298400878906,-1031.7655029296877,490.9534912109375,161.50570678710938
11175,422.818115234375,-1020.7888793945312,500.8492736816406,164.1385955810547
11176,422.9004211425781,-1022.008056640625,503.4298095703125,161.5169219970703
11177,412.1407165527344,-1024.050048828125,510.1466674804688,161.76002502441406
11178,417.7169189453125,-1018.0699462890624,507.8428955078125,165.00999450683594
11179,427.54534912109375,-1013.720458984375,509.5220947265625,168.28240966796875
11180,427.3583679199219,-1016.6151123046876,512.5738525390625,174.63275146484375
11181,426.3224182128906,-1026.7540283203123,512.9478759765625,169.7783660888672
11182,414.7212524414063,-1021.7874145507812,506.2646484375,174.92446899414062
11183,427.4967346191406,-1021.0132446289062,510.3074645996094,183.5524139404297
11184,422.1524353027344,-1027.662841796875,505.9018859863281,185.3475646972656
11185,423.6820373535156,-1030.10498046875,504.7350158691406,183.70574951171875
11186,419.97955322265625,-1025.796630859375,498.5866394042969,180.69512939453125
11187,431.6517639160156,-1020.186767578125,503.0558166503906,186.7949066162109
11188,429.8341674804688,-1024.270751953125,506.7433471679688,187.28109741210938
11189,427.67999267578125,-1030.6846923828123,502.1844177246094,183.5299835205078
11190,420.1590576171875,-1025.8414306640623,500.4490966796875,178.33900451660156
11191,424.201904296875,-1016.8507690429688,502.614501953125,174.834716796875
11192,422.6947021484375,-1023.97900390625,504.2301330566406,170.2009735107422
11193,419.0445556640625,-1022.512939453125,506.3843383789063,176.4466094970703
11194,422.02154541015625,-1018.945068359375,505.9430236816406,171.30050659179688
11195,429.87158203125,-1008.9072265625,507.2519836425781,179.412353515625
11196,431.0272216796875,-1017.968994140625,511.781005859375,178.8102264404297
11197,436.21820068359375,-1026.716552734375,508.6656494140625,177.96875
11198,423.5399169921875,-1025.1083984375,513.6023559570311,184.28170776367188
11199,433.3272399902344,-1021.2900390625,506.2048034667969,183.6571350097656
11200,432.3511352539063,-1026.2491455078123,506.4404296875,180.66896057128903
11201,421.5091552734375,-1032.689208984375,503.1717529296875,179.92471313476562
11202,420.3310852050781,-1037.9326171875,498.6053466796875,175.53033447265625
11203,419.43353271484375,-1024.5250244140623,498.2425537109375,182.1723937988281
11204,419.6317443847656,-1026.72412109375,503.9945373535156,184.7940673828125
11205,410.77191162109375,-1033.5606689453123,503.3250732421875,182.31451416015625
11206,410.9888305664063,-1033.6279296875,497.8386535644531,180.14910888671875
11207,416.4602966308594,-1029.521484375,499.4991760253906,180.78489685058597
11208,415.2523193359375,-1032.4835205078123,496.9934387207031,177.17214965820312
11209,407.8211364746094,-1039.428466796875,492.9319152832031,168.379638671875
11210,409.1787109375,-1039.0806884765623,491.005859375,170.7993621826172
11211,412.0733947753906,-1028.4818115234377,494.9065856933594,172.93858337402344
11212,410.08001708984375,-1031.9525146484377,494.55126953125,161.9881591796875
11213,405.13214111328125,-1030.78564453125,498.2911682128906,163.32704162597656
11214,403.8007507324219,-1027.501953125,496.14447021484375,165.0436553955078
11215,417.7655334472656,-1023.7695922851562,503.6542053222656,169.3632354736328
11216,425.4397888183594,-1030.4266357421877,511.52667236328125,175.8033447265625
11217,433.4132690429688,-1030.8604736328123,513.3742065429689,175.95294189453125
11218,415.9367065429688,-1031.2642822265623,507.2370300292969,173.38363647460938
11219,432.0332336425781,-1022.8345947265624,512.1475219726561,177.9313507080078
11220,432.8971557617188,-1026.2042236328123,516.4558715820311,182.1723937988281
11221,423.3828430175781,-1040.0306396484377,507.8503723144531,178.13330078125
11222,419.93841552734375,-1036.114990234375,507.3155517578125,176.37928771972656
11223,425.18548583984375,-1034.0804443359377,507.30059814453125,178.8513641357422
11224,427.18634033203125,-1039.4210205078123,502.6294555664063,177.0786590576172
11225,417.900146484375,-1037.6446533203123,503.02587890625,172.09710693359375
11226,418.1058654785156,-1030.0975341796877,500.1312255859375,174.36721801757812
11227,427.3097534179688,-1027.0382080078123,503.1829833984375,170.60488891601562
11228,425.40240478515625,-1031.372802734375,506.5301818847656,172.77029418945312
11229,420.4956665039063,-1032.9248046875,500.7632446289063,168.20387268066406
11230,424.85638427734375,-1027.816162109375,500.8006591796875,170.2122039794922
11231,423.28936767578125,-1019.7865600585938,504.2301330566406,172.8712615966797
11232,426.5243835449219,-1019.3115844726562,507.9999694824219,170.0364227294922
11233,419.0333557128906,-1021.4470825195312,503.5046081542969,158.03134155273438
11234,423.8802490234375,-1020.5570068359376,506.32073974609375,164.8603973388672
11235,437.5308837890625,-1011.9140625,514.8776245117189,171.19578552246094
11236,427.7847290039063,-1014.4347534179688,512.637451171875,168.42079162597656
11237,424.2205810546875,-1015.3772583007812,514.1895141601561,174.999267578125
11238,433.4880676269531,-1014.4347534179688,516.26513671875,181.6263732910156
11239,442.7518005371094,-1008.4210205078124,522.5107421875,191.8437805175781
11240,435.9115295410156,-1022.4007568359376,514.59716796875,184.9399261474609
11241,422.3955078125,-1021.6340942382812,512.932861328125,184.8950500488281
11242,425.4098815917969,-1018.5823364257812,514.668212890625,187.83087158203125
11243,427.65380859375,-1011.5475463867188,513.2096557617189,185.3026885986328
11244,433.6002502441406,-1019.072265625,516.8485717773439,189.60357666015625
11245,429.0226135253906,-1019.3602294921876,513.3779296875,184.22560119628903
11246,421.4717712402344,-1016.5216674804688,506.5414123535156,189.1959228515625
11247,427.418212890625,-1010.03662109375,507.9737854003906,183.7543792724609
11248,427.38079833984375,-1010.6051025390624,515.2179565429689,183.5225067138672
11249,424.0523071289063,-1014.9246826171876,510.9806518554688,177.32174682617188
11250,430.7093200683594,-1012.0337524414062,518.411865234375,184.18072509765625
11251,441.0538940429688,-1007.934814453125,521.4710693359375,179.27023315429688
11252,437.3663330078125,-1009.72998046875,521.1531982421875,171.59222412109375
11253,413.9770202636719,-1015.515625,515.3301391601561,167.22027587890625
11254,422.1898193359375,-1008.9819946289062,513.1124267578125,169.66616821289062
11255,434.3370361328125,-1002.95703125,513.7968139648439,171.6483154296875
11256,432.9308166503906,-1009.6009521484376,515.7191162109375,175.18626403808594
11257,421.6998901367188,-1015.9887084960938,514.0810546875,177.55735778808594
11258,428.6112365722656,-1011.0482788085938,508.2991638183594,182.9764709472656
11259,432.69146728515625,-1009.3765869140624,507.1061096191406,183.78054809570312
11260,426.385986328125,-1017.9334716796876,508.7815856933594,184.2330780029297
11261,411.48248291015625,-1026.3968505859377,499.0728149414063,178.53721618652344
11262,418.6817932128906,-1026.6661376953123,499.7085876464844,176.91409301757812
11263,424.5534362792969,-1021.9014892578124,497.6479187011719,181.07659912109372
11264,414.3098449707031,-1026.5389404296877,493.5639343261719,175.52659606933594
11265,405.3939208984375,-1034.9761962890623,491.4321899414063,170.22341918945312
11266,411.632080078125,-1027.4515380859377,491.8884582519531,173.86233520507812
11267,415.95166015625,-1020.5888061523438,491.67529296875,174.37844848632812
11268,407.6191711425781,-1024.9345703125,492.45318603515625,173.27891540527344
11269,401.2725524902344,-1026.0079345703123,489.9886169433594,167.31752014160156
11270,414.9830322265625,-1026.09765625,498.0406188964844,173.5107879638672
11271,418.0572509765625,-1026.2696533203123,502.0348205566406,176.41668701171875
11272,416.1237182617188,-1030.2041015625,496.7802734375,163.52899169921875
11273,408.9468383789063,-1030.6865234375,492.7037658691406,155.2039794921875
11274,417.0063171386719,-1023.116943359375,495.05615234375,158.00515747070312
11275,420.9780883789063,-1011.7401733398438,496.0846252441406,161.87969970703125
11276,432.2202453613281,-1021.6434326171876,504.8509521484375,162.72117614746094
11277,407.2377014160156,-1031.7486572265623,498.7661437988281,171.42391967773438
11278,416.0040283203125,-1022.1707763671876,495.65081787109375,162.9979248046875
11279,422.30950927734375,-1024.137939453125,492.55792236328125,174.1577911376953
11280,422.24591064453125,-1029.4935302734377,493.6537170410156,170.32814025878906
11281,412.5483703613281,-1031.6214599609377,491.5705871582031,175.27975463867188
11282,413.3599243164063,-1032.8070068359377,488.0289001464844,179.0682830810547
11283,420.117919921875,-1032.7808837890623,488.6123046875,180.5193634033203
11284,414.9306945800781,-1032.470458984375,487.5950622558594,178.61575317382812
11285,409.1413269042969,-1037.8858642578123,486.3945617675781,174.73373413085938
11286,410.03515625,-1032.4630126953123,488.1784973144531,173.96331787109375
11287,414.9942626953125,-1028.091064453125,486.3646545410156,182.88671875
11288,411.0860595703125,-1029.8375244140623,487.6511535644531,174.25877380371094
11289,407.89593505859375,-1038.0279541015623,486.0953674316406,168.02809143066406
11290,407.5518493652344,-1027.3504638671877,488.4402770996094,175.0441436767578
11291,412.08087158203125,-1023.9285278320312,486.5404052734375,172.22799682617188
11292,410.82427978515625,-1024.8934326171877,485.12298583984375,171.771728515625
11293,405.4462890625,-1024.2388916015623,488.0812683105469,166.80140686035156
11294,402.6189270019531,-1022.3951416015624,488.5487365722656,168.97802734375
11295,416.901611328125,-1015.4539184570312,494.820556640625,177.09361267089844
11296,417.7730102539063,-1019.418212890625,502.52099609375,172.2504425048828
11297,417.0960693359375,-1026.9765625,496.45489501953125,166.97344970703125
11298,422.1412048339844,-1019.9380493164062,502.8276672363281,174.21014404296875
11299,434.2360534667969,-1014.3506469726562,503.2764587402344,174.25877380371094
11300,415.0017395019531,-1011.7738647460938,502.9324035644531,177.96127319335938
11301,410.25579833984375,-1020.1400146484376,498.1789855957031,178.84014892578125
11302,416.4303894042969,-1014.960205078125,493.0216674804688,178.73916625976562
11303,424.5683898925781,-1012.129150390625,502.4686584472656,189.8578948974609
11304,427.4555969238281,-1016.7703247070312,504.3760070800781,187.00808715820312
11305,417.0624084472656,-1022.8364868164062,496.2604064941406,183.73941040039062
11306,409.2796936035156,-1020.2372436523438,493.25726318359375,178.70550537109375
11307,427.40325927734375,-1011.15673828125,501.6458740234375,184.7978057861328
11308,422.9639892578125,-1014.7432861328124,497.2253112792969,174.71878051757812
11309,402.1402282714844,-1017.2078857421876,495.48626708984375,170.33187866210938
11310,412.3015441894531,-1013.610107421875,503.09320068359375,171.25189208984375
11311,417.241943359375,-1007.2560424804688,508.0597839355469,172.51223754882812
11312,422.0327453613281,-1002.753173828125,513.3517456054689,170.23837280273438
11313,416.4977111816406,-1013.5839233398438,514.59716796875,171.21075439453125
11314,419.5793762207031,-1001.7621459960938,511.3247375488281,167.6728057861328
11315,431.4498291015625,-984.8091430664062,515.3301391601561,168.14028930664062
11316,426.3486022949219,-988.4929809570312,516.7625732421875,171.62962341308594
11317,416.9165649414063,-991.3839111328124,515.6593017578125,174.43453979492188
11318,427.1339721679688,-994.618896484375,516.8598022460939,177.60972595214844
11319,433.4506530761719,-993.6614990234376,522.6603393554689,189.6260223388672
11320,432.0295104980469,-993.818603515625,518.9241943359375,191.1406707763672
11321,419.1193542480469,-996.896484375,519.16357421875,192.48704528808597
11322,416.6248474121094,-986.0283813476562,517.45068359375,189.5923614501953
11323,429.5162963867188,-983.960205078125,518.6773681640625,195.9688873291016
11324,427.8931884765625,-991.391357421875,519.7320556640625,194.09146118164062
11325,419.7925415039063,-1002.3978881835938,515.60693359375,185.26528930664062
11326,419.6541748046875,-990.4339599609376,504.0393981933594,183.4065704345703
11327,429.75189208984375,-980.381103515625,506.9004211425781,189.05755615234372
11328,434.9167175292969,-987.2026977539062,510.0830993652344,181.00180053710938
11329,421.40069580078125,-997.5472412109376,508.9125061035156,172.73663330078125
11330,431.8612060546875,-996.4327392578124,510.5356140136719,168.90696716308594
11331,457.3149719238281,-981.6863403320312,515.8911743164061,176.03895568847656
11332,450.1642761230469,-983.0177612304688,525.1174926757811,178.34274291992188
11333,446.409423828125,-982.4791870117188,523.9356689453125,172.9946746826172
11334,449.1732177734375,-975.8782958984376,531.1199951171875,185.5944061279297
11335,468.8226318359375,-969.96923828125,545.5597534179689,205.72628784179688
11336,468.4299621582031,-975.1153564453124,539.8788452148439,205.82351684570312
11337,459.8693237304688,-984.6969604492188,541.7263793945311,201.76199340820312
11338,463.60546875,-985.9161376953124,536.6924438476561,204.44723510742188
11339,477.6600341796875,-984.7081909179688,537.5264892578125,215.7828826904297
11340,457.0008239746094,-982.6774291992188,532.2831420898439,210.46473693847656
11341,441.4690246582031,-994.9517822265624,523.483154296875,201.960205078125
11342,448.1222839355469,-992.4385375976562,523.318603515625,207.74583435058597
11343,453.10009765625,-988.679931640625,520.595947265625,213.1499938964844
11344,443.4361877441406,-1001.7059936523438,519.5375366210939,203.1382751464844
11345,428.427978515625,-1010.7864990234376,515.2179565429689,189.30438232421875
11346,431.56201171875,-1007.57763671875,516.9382934570311,187.9056701660156
11347,456.77642822265625,-1007.7459716796876,522.9034423828125,182.4491424560547
11348,435.0139465332031,-1015.1173095703124,522.3948364257811,184.1582794189453
11349,426.6964111328125,-1016.8226928710938,518.6063232421875,166.8088836669922
11350,429.0862121582031,-1008.8941040039062,515.60693359375,164.224609375
11351,436.4650268554688,-1006.8184814453124,518.7260131835939,164.06753540039062
11352,425.1817321777344,-1013.7297973632812,514.7392578125,172.8488311767578
11353,414.2350463867188,-1027.1710205078123,502.4798583984375,159.2393341064453
11354,418.5396728515625,-1031.2923583984377,501.3915710449219,154.9421844482422
11355,416.15362548828125,-1037.5118408203123,497.9957275390625,164.9090118408203
11356,406.6804504394531,-1045.724609375,492.4980773925781,154.6616973876953
11357,397.0577087402344,-1052.1124267578123,480.818359375,154.8187713623047
11358,397.1586608886719,-1054.128173828125,477.32904052734375,154.93844604492188
11359,398.0525207519531,-1051.087646484375,482.69580078125,155.59292602539062
11360,392.5174560546875,-1057.3258056640623,474.0192260742188,153.95484924316406
11361,390.7335205078125,-1057.0565185546877,477.37017822265625,153.3415069580078
11362,387.7715148925781,-1060.385009765625,472.35498046875,148.5020751953125
11363,398.3180541992188,-1048.9820556640623,475.7882080078125,153.44996643066406
11364,393.3664245605469,-1060.3775634765623,476.5436706542969,150.33836364746094
11365,389.589111328125,-1059.9923095703123,476.2332458496094,145.61862182617188
11366,392.3828125,-1053.4176025390623,478.9858093261719,146.38156127929688
11367,400.8499450683594,-1049.2364501953123,486.2000732421875,151.6361083984375
11368,408.4569091796875,-1050.627685546875,490.396240234375,149.4407958984375
11369,384.9030151367188,-1049.6702880859377,485.7251281738281,142.1367645263672
11370,402.4580993652344,-1045.900390625,495.172119140625,141.64683532714844
11371,415.6562194824219,-1036.7825927734377,502.9473571777344,147.34645080566406
11372,417.60845947265625,-1043.2076416015623,498.1266174316406,146.91636657714844
11373,405.9736328125,-1050.4332275390623,492.3222961425781,147.4960479736328
11374,411.3628234863281,-1049.09423828125,486.862060546875,149.16029357910156
11375,417.0699157714844,-1041.7491455078123,490.68048095703125,158.79054260253906
11376,407.4695739746094,-1043.7349853515623,489.7417602539063,163.3868865966797
11377,393.1345520019531,-1046.928955078125,484.44232177734375,166.3040008544922
11378,393.673095703125,-1042.1605224609377,481.0352783203125,172.98345947265625
11379,412.5446166992188,-1033.5587158203123,488.33929443359375,176.59994506835938
11380,406.4635620117188,-1043.4508056640623,489.20697021484375,177.9724884033203
11381,404.69830322265625,-1040.945068359375,487.179931640625,180.9195251464844
11382,411.7854309082031,-1033.424072265625,490.7403259277344,186.4209289550781
11383,422.4254455566406,-1020.1175537109376,501.7169189453125,196.4176788330078
11384,427.0741271972656,-1024.2725830078123,505.1651306152344,195.4714813232422
11385,425.7352600097656,-1027.0177001953123,506.93408203125,194.2148742675781
11386,433.2001037597656,-1018.2887573242188,510.6627807617188,199.28244018554688
11387,446.585205078125,-1015.8129272460938,514.1932373046875,201.6161346435547
11388,446.6487731933594,-1017.1443481445312,519.1486206054689,196.93377685546875
11389,441.04638671875,-1018.8497314453124,516.1267700195311,188.567626953125
11390,453.6573486328125,-1011.9495849609376,524.2535400390625,191.2753143310547
11391,455.9349365234375,-1006.39208984375,530.738525390625,191.8325653076172
11392,455.76666259765625,-1007.3794555664062,528.718994140625,186.0581512451172
11393,448.6496276855469,-1012.3310546875,527.7055053710939,186.32742309570312
11394,450.2465515136719,-1005.6179809570312,529.1827392578125,187.3633728027344
11395,461.6195983886719,-1010.5770874023438,530.53662109375,194.495361328125
11396,456.7726745605469,-1010.7864990234376,531.4117431640625,196.0362091064453
11397,446.3608093261719,-1018.0082397460938,525.7120971679689,194.6300048828125
11398,445.6801452636719,-1010.82763671875,526.8789672851561,197.45362854003903
11399,451.23388671875,-1003.8938598632812,524.822021484375,199.77610778808597
11400,451.6752014160156,-1015.1322631835938,518.7446899414061,193.4481964111328
11401,438.9782409667969,-1017.76513671875,522.2938842773439,200.1538391113281
11402,446.3645324707031,-1009.537353515625,518.78955078125,197.99591064453125
11403,448.5075073242188,-1003.52734375,526.0973510742189,200.97286987304688
11404,445.9568786621094,-1010.6967163085938,527.1257934570311,200.28099060058597
11405,437.16064453125,-1011.5868530273438,526.7705078125,203.4486846923828
11406,446.6525268554688,-1010.49853515625,530.2485961914061,201.6161346435547
11407,449.9361572265625,-1000.7935180664062,528.588134765625,199.4095916748047
11408,447.1387023925781,-1008.0863037109376,531.3219604492189,196.8664703369141
11409,444.7863159179688,-1011.02587890625,525.700927734375,197.44615173339844
11410,441.4877014160156,-1002.577392578125,527.9186401367189,193.19761657714844
11411,446.35333251953125,-993.2313842773438,530.9105834960939,193.07794189453125
11412,447.92034912109375,-1001.403076171875,532.3990478515625,191.1107635498047
11413,440.1862182617188,-1001.5302734375,535.1366577148439,192.9246063232422
11414,446.5290832519531,-995.5725708007812,534.811279296875,195.2994384765625
11415,445.53802490234375,-996.6870727539062,533.39013671875,207.41297912597656
11416,445.2612609863281,-1002.3380737304688,534.9309692382811,208.77056884765625
11417,439.0567626953125,-1013.1613159179688,526.4713134765625,206.39572143554688
11418,442.7368469238281,-1001.1787109375,529.0780639648439,212.4394073486328
11419,448.2157897949219,-1001.9678344726562,524.9267578125,210.03091430664062
11420,450.0034484863281,-1000.1614379882812,529.728759765625,214.41033935546875
11421,437.2017822265625,-1005.6553344726562,527.8363647460939,207.2783508300781
11422,444.56939697265625,-998.6654663085938,529.1192016601561,220.4091339111328
11423,454.1173400878906,-989.4578247070312,530.4767456054689,220.0949859619141
11424,451.0169677734375,-994.1701049804688,530.7647094726561,209.9224548339844
11425,450.1343688964844,-993.5642700195312,526.6358642578125,211.04067993164062
11426,455.1121520996094,-986.3873901367188,531.1387329101561,215.6669464111328
11427,469.3050842285156,-984.9736938476562,534.844970703125,224.19390869140625
11428,463.4184875488281,-983.2009887695312,536.8009033203125,217.5555877685547
11429,464.5479431152344,-984.7119140625,538.5923461914061,211.5081787109375
11430,475.5843811035156,-973.8287963867188,552.1906127929689,229.24278259277344
11431,486.7853698730469,-964.8568115234376,554.6664428710939,235.38743591308597
11432,485.7456970214844,-968.4695434570312,557.2880859375,232.05892944335938
11433,485.65966796875,-971.1061401367188,558.6270141601561,232.55633544921875
11434,485.09869384765625,-963.6226196289062,558.3951416015625,235.2378387451172
11435,497.9751586914063,-958.4054565429688,562.9540405273438,241.8574676513672
11436,491.329345703125,-969.46435546875,553.4285278320311,234.61328125
11437,479.3616638183594,-975.0816650390624,552.0335693359375,229.0782165527344
11438,481.3363342285156,-982.3819580078124,549.0565795898439,233.45016479492188
11439,477.8058776855469,-986.05078125,544.0787963867189,230.2862091064453
11440,466.6086120605469,-1004.0397338867188,541.1392211914061,223.6030120849609
11441,452.26983642578125,-1014.4740600585938,531.5762939453125,210.1543273925781
11442,439.8421630859375,-1023.1094970703124,523.0006713867189,203.68429565429688
11443,438.1629333496094,-1017.0582885742188,518.6549072265625,201.8966217041016
11444,432.60919189453125,-1032.635009765625,516.2315063476561,193.68006896972656
11445,427.1227416992188,-1040.7393798828123,511.97174072265625,182.7146759033203
11446,425.6118469238281,-1037.728759765625,508.882568359375,176.49148559570312
11447,427.5416259765625,-1034.8377685546877,501.87774658203125,178.4773712158203
11448,421.0342102050781,-1043.7275390625,500.9053649902344,178.84388732910156
11449,411.5386047363281,-1046.685791015625,506.6162109375,175.01048278808594
11450,415.44677734375,-1038.3570556640623,512.8917236328125,182.5052490234375
11451,425.7464599609375,-1039.10498046875,513.0899658203125,186.0805969238281
11452,423.45391845703125,-1046.4501953125,513.3629760742189,182.7857360839844
11453,416.2171936035156,-1046.487548828125,505.9205627441406,180.61285400390625
11454,423.9625244140625,-1037.5791015625,511.3247375488281,184.5771484375
11455,422.02154541015625,-1030.9893798828123,511.616455078125,182.56134033203125
11456,420.9407043457031,-1033.341796875,510.0344543457031,183.9787750244141
11457,413.4702453613281,-1039.5126953125,511.7062072753906,180.11170959472656
11458,415.8712768554688,-1027.750732421875,509.39495849609375,184.2854461669922
11459,425.9652404785156,-1023.7302856445312,508.33282470703125,188.23851013183597
11460,419.1474304199219,-1027.0550537109377,510.38226318359375,184.3265838623047
11461,411.4394836425781,-1031.580322265625,504.3685302734375,182.7894744873047
11462,408.9337463378906,-1025.686279296875,506.8592834472656,180.4819641113281
11463,416.6454162597656,-1026.651123046875,504.9631652832031,179.7975616455078
11464,408.6083679199219,-1029.78515625,506.60498046875,177.57606506347656
11465,402.388916015625,-1034.115966796875,497.520751953125,172.8076934814453
11466,404.3897705078125,-1032.305908203125,497.3749084472656,169.68861389160156
11467,418.6948852539063,-1024.8260498046877,504.64154052734375,174.7786102294922
11468,406.3868713378906,-1033.4091796875,497.3898620605469,169.9578857421875
11469,393.8096008300781,-1037.48193359375,501.00634765625,168.8994903564453
11470,401.2183227539063,-1035.159423828125,499.3570556640625,166.6106719970703
11471,410.12677001953125,-1025.6937255859377,501.3952941894531,170.2084503173828
11472,402.0299072265625,-1036.1168212890623,497.356201171875,169.73348999023438
11473,392.48565673828125,-1043.54052734375,492.8197021484375,164.20591735839844
11474,398.0656127929688,-1037.6763916015623,493.74346923828125,166.9884033203125
11475,402.8526611328125,-1035.6044921875,488.19720458984375,167.4970245361328
11476,393.4430847167969,-1043.140380859375,487.26220703125,163.49533081054688
11477,392.7923278808594,-1038.48046875,484.6891784667969,163.91046142578125
11478,396.3415222167969,-1038.6263427734377,485.7774658203125,165.02120971679688
11479,397.8449401855469,-1038.83203125,484.5133972167969,169.25852966308594
11480,394.9577331542969,-1044.348388671875,487.9914855957031,169.61007690429688
11481,392.0518493652344,-1049.288818359375,489.6781921386719,162.87451171875
11482,392.3024291992188,-1047.7366943359377,484.8312683105469,163.32330322265625
11483,395.0923767089844,-1042.1007080078123,485.1155090332031,160.3725128173828
11484,386.5280151367188,-1054.468505859375,480.47802734375,150.64503479003906
11485,380.9967041015625,-1056.9967041015623,485.1529235839844,148.02337646484375
11486,385.4434509277344,-1046.0462646484377,486.0392761230469,151.53514099121094
11487,388.7233276367188,-1046.74560546875,486.3384704589844,153.36021423339844
11488,387.3956604003906,-1055.57177734375,483.7541809082031,152.98995971679688
11489,392.4781799316406,-1054.0234375,494.4353332519531,157.07766723632812
11490,397.1343688964844,-1050.36962890625,494.8990783691406,160.52210998535156
11491,400.3282470703125,-1049.561767578125,496.2155456542969,161.0120391845703
11492,397.2764892578125,-1054.95849609375,497.0495300292969,160.0284423828125
11493,397.5233154296875,-1057.2286376953123,489.4500427246094,161.6852264404297
11494,401.15850830078125,-1049.868408203125,491.1591796875,169.6212921142578
11495,402.0074462890625,-1041.2442626953123,491.3536682128906,166.3526153564453
11496,400.7545776367188,-1044.92431640625,494.45404052734375,166.71539306640625
11497,396.1283264160156,-1045.7769775390623,489.7080993652344,160.68667602539062
11498,399.4119567871094,-1044.3109130859377,494.0389099121094,164.50511169433594
11499,406.4205322265625,-1048.200439453125,494.11370849609375,166.3900146484375
11500,402.2430725097656,-1048.85498046875,490.6954345703125,161.05691528320312
11501,398.6864318847656,-1045.9041748046877,497.6591491699219,161.33741760253906
11502,407.5312805175781,-1044.666259765625,499.55902099609375,164.42283630371094
11503,409.9173583984375,-1040.51123046875,493.9042663574219,160.15560913085938
11504,405.7585754394531,-1048.761474609375,494.76446533203125,160.55950927734375
11505,402.5796508789063,-1049.8946533203123,497.8236999511719,164.50885009765625
11506,405.2424621582031,-1040.5860595703123,496.3277282714844,170.4590301513672
11507,412.5278015136719,-1039.1685791015623,497.6591491699219,169.59884643554688
11508,408.99359130859375,-1042.119384765625,495.23193359375,170.421630859375
11509,406.09515380859375,-1048.4285888671877,495.4301452636719,170.23837280273438
11510,411.8321838378906,-1039.680908203125,496.0135803222656,174.51681518554688
11511,414.618408203125,-1043.2899169921877,497.0607604980469,178.226806640625
11512,405.8819885253906,-1043.996826171875,487.5464477539063,168.38339233398438
11513,403.9185485839844,-1045.62744140625,488.39166259765625,167.205322265625
11514,407.3480224609375,-1045.111328125,486.8994445800781,168.11785888671875
11515,414.8203430175781,-1032.6163330078123,487.0452880859375,168.7723388671875
11516,405.0816650390625,-1037.9718017578123,491.2190246582031,168.3946075439453
11517,404.935791015625,-1047.17578125,495.1795959472656,166.62562561035156
11518,399.9205932617188,-1041.2891845703123,487.94287109375,163.52151489257812
11519,407.0226745605469,-1035.57080078125,493.1488037109375,161.1317138671875
11520,404.5767822265625,-1038.9217529296877,494.8691711425781,157.42921447753906
11521,398.7948913574219,-1040.8702392578123,489.7679443359375,150.39820861816406
11522,406.5888366699219,-1038.102783203125,489.5136413574219,153.44996643066406
11523,411.1402893066406,-1035.19677734375,483.2530517578125,154.08575439453125
11524,414.8278198242188,-1040.5897216796877,491.5556335449219,155.0020294189453
11525,400.885498046875,-1041.580810546875,492.88702392578125,158.0014190673828
11526,404.35986328125,-1035.312744140625,498.4370422363281,168.18142700195312
11527,407.23583984375,-1033.2857666015623,498.893310546875,173.63046264648438
11528,412.8045349121094,-1038.607666015625,503.1530456542969,171.5211639404297
11529,397.0595703125,-1043.08056640625,498.9606323242188,165.5074005126953
11530,402.8713684082031,-1042.6392822265623,500.0863342285156,167.4895477294922
11531,412.400634765625,-1036.8087158203123,502.6705932617188,163.37939453125
11532,403.2229309082031,-1044.4754638671877,504.89208984375,160.7091064453125
11533,406.0166320800781,-1050.825927734375,497.7713317871094,157.94906616210938
11534,404.71514892578125,-1049.984375,498.893310546875,157.63865661621094
11535,411.0916748046875,-1039.8829345703123,502.88751220703125,155.4171600341797
11536,412.30712890625,-1044.292236328125,501.2868347167969,150.01673889160156
11537,403.86993408203125,-1045.380615234375,492.9094543457031,145.80560302734375
11538,400.204833984375,-1038.035400390625,496.3015441894531,153.02735900878906
11539,411.3497314453125,-1031.6065673828123,502.5322265625,151.94651794433594
11540,406.3494873046875,-1036.5693359375,505.34088134765625,146.0487060546875
11541,400.4105224609375,-1042.6317138671877,505.8233337402344,142.40603637695312
11542,409.6705017089844,-1032.907958984375,506.5600891113281,143.17645263671875
11543,419.9328002929688,-1029.725341796875,508.3589782714844,150.7871551513672
11544,419.5999450683594,-1033.4615478515623,511.01806640625,150.8357696533203
11545,416.0208740234375,-1033.080078125,509.1107177734375,151.36309814453125
11546,423.8297729492188,-1023.1019897460938,515.947265625,166.25912475585938
11547,433.7143249511719,-1016.7105102539062,519.9564208984375,176.75701904296875
11548,434.9671936035156,-1022.9037475585938,519.0214233398439,177.8715057373047
11549,429.3311767578125,-1020.8692626953124,517.9144287109375,178.36517333984375
11550,433.1944885253906,-1015.7044677734376,518.5726318359375,182.3780975341797
11551,439.9038696289063,-1017.8997802734376,523.9132080078125,183.67210388183597
11552,431.0216064453125,-1014.6273803710938,527.709228515625,187.09783935546875
11553,434.55206298828125,-1011.87109375,532.1409912109375,183.92266845703125
11554,436.5229797363281,-1007.4580078125,529.2014770507811,183.67584228515625
11555,444.4216613769531,-1004.3987426757812,531.4977416992189,188.3320159912109
11556,437.7870788574219,-1010.547119140625,536.4381713867189,185.3999328613281
11557,432.1136474609375,-1014.900390625,533.3340454101561,182.5052490234375
11558,439.1671142578125,-1004.0397338867188,531.475341796875,177.34793090820312
11559,444.1823120117188,-1001.6574096679688,536.2848510742189,181.58523559570312
11560,446.2616882324219,-1010.0946044921876,533.5845947265625,176.97767639160156
11561,436.7025146484375,-1013.1912841796876,533.8389282226561,171.59222412109375
11562,440.80517578125,-1015.5810546875,528.917236328125,171.1471710205078
11563,446.919921875,-1015.0125732421876,538.2931518554689,172.01856994628906
11564,443.1837463378906,-1014.1075439453124,532.4364624023439,174.46820068359375
11565,427.3078918457031,-1016.5122680664062,520.4463500976561,167.2501983642578
11566,425.5762939453125,-1009.4288940429688,522.1405029296875,168.48062133789062
11567,426.97503662109375,-1007.259765625,526.0487060546875,176.63360595703125
11568,428.1942443847656,-1014.290771484375,525.338134765625,170.82180786132812
11569,420.3067932128906,-1023.6854248046876,516.9308471679689,171.03123474121094
11570,419.16986083984375,-1020.2222900390624,520.689453125,170.49269104003906
11571,428.4074096679688,-1019.5977172851562,521.9049072265625,168.9331512451172
11572,418.4667663574219,-1030.0096435546877,513.142333984375,156.79344177246094
11573,416.0096435546875,-1037.2987060546877,516.5979614257811,160.91481018066406
11574,412.8868103027344,-1034.972412109375,513.4863891601561,165.23439025878906
11575,417.1839599609375,-1036.157958984375,508.882568359375,153.977294921875
11576,405.8782653808594,-1040.4700927734377,506.4142456054688,152.9188995361328
11577,399.7934265136719,-1050.1751708984377,500.6697692871094,145.25210571289062
11578,402.4637145996094,-1042.085693359375,498.5903625488281,146.7555389404297
11579,408.32415771484375,-1029.3289794921877,502.5172729492188,149.37347412109375
11580,395.39532470703125,-1037.4482421875,501.6832580566406,143.89825439453125
11581,387.5228271484375,-1051.83935546875,496.8700256347656,139.78811645507812
11582,393.8395080566406,-1049.947021484375,497.2776794433594,141.34765625
11583,400.0552368164063,-1046.72314453125,495.0075378417969,142.21530151367188
11584,396.13580322265625,-1048.3201904296877,495.82659912109375,143.2924041748047
11585,383.5361022949219,-1052.2470703125,496.0210571289063,141.3738250732422
11586,386.5878601074219,-1048.552001953125,488.6048278808594,142.45840454101562
11587,395.7618103027344,-1048.9820556640623,497.5544128417969,141.7964324951172
11588,389.07861328125,-1055.6690673828123,493.1974487304688,135.44609069824222
11589,385.4060363769531,-1060.5159912109377,492.2662048339844,131.69869995117188
11590,386.39337158203125,-1056.4693603515623,489.3453369140625,139.15980529785156
11591,396.0086669921875,-1053.4998779296877,493.8182678222656,147.193115234375
11592,397.6953430175781,-1057.41552734375,493.0104370117188,143.70751953125
11593,389.79669189453125,-1062.2587890625,493.91925048828125,139.70582580566406
11594,388.2408752441406,-1052.9576416015623,490.9273071289063,143.61402893066406
11595,394.8642578125,-1047.57958984375,491.58929443359375,146.90139770507812
11596,397.2203979492188,-1053.61962890625,496.862548828125,140.7081298828125
11597,389.8752136230469,-1062.1727294921877,489.3116760253906,140.39398193359378
11598,392.1079406738281,-1058.51513671875,489.0685729980469,139.47021484375
11599,403.3313903808594,-1053.90380859375,482.2208251953125,136.35113525390622
11600,399.0679016113281,-1053.271728515625,501.1185302734375,143.14654541015625
11601,395.1971130371094,-1055.4072265625,499.057861328125,143.51678466796875
11602,397.6878662109375,-1052.9801025390623,498.2650146484375,145.491455078125
11603,404.59173583984375,-1042.0333251953123,506.0140686035156,162.05174255371094
11604,403.1069946289063,-1047.2430419921877,503.60931396484375,162.4556427001953
11605,402.1907043457031,-1049.1728515625,507.6110229492188,166.69668579101562
11606,397.9646301269531,-1048.1817626953123,503.02587890625,166.59197998046875
11607,404.5842590332031,-1043.622802734375,504.73876953125,170.23463439941406
11608,399.7074279785156,-1052.3592529296877,503.41485595703125,167.79995727539062
11609,398.7799072265625,-1053.9822998046877,499.8619384765625,165.35780334472656
11610,403.9933471679688,-1048.002197265625,504.68267822265625,167.1080780029297
11611,406.2485046386719,-1040.61962890625,502.8800354003906,163.36444091796875
11612,401.0575256347656,-1050.736083984375,498.4370422363281,151.3518829345703
11613,397.07080078125,-1049.0606689453123,495.7330932617188,149.61656188964844
11614,406.132568359375,-1040.53369140625,500.7931823730469,152.64588928222656
11615,408.10723876953125,-1037.257568359375,503.6392517089844,153.33029174804688
11616,404.86474609375,-1041.5958251953123,505.172607421875,152.30555725097656
11617,396.0871887207031,-1045.5264892578123,501.8440856933594,140.85023498535156
11618,404.9058837890625,-1034.4227294921877,504.9930725097656,148.84988403320312
11619,409.16937255859375,-1027.3841552734377,507.9850158691406,155.17031860351562
11620,401.6970520019531,-1032.0216064453123,510.4645690917969,157.7882537841797
11621,396.6668701171875,-1031.920654296875,504.8509521484375,162.6725616455078
11622,402.6357727050781,-1025.8582763671877,509.67169189453125,171.37530517578125
11623,418.0030212402344,-1017.8362426757812,511.0554504394531,174.98805236816406
11624,420.8266296386719,-1026.4080810546877,513.7556762695311,180.11170959472656
11625,407.3554992675781,-1032.810791015625,513.8453979492189,176.6522979736328
11626,411.62646484375,-1031.2138671875,501.20831298828125,171.92132568359375
11627,415.47857666015625,-1031.9169921875,509.069580078125,177.4900360107422
11628,412.04534912109375,-1036.356201171875,508.81524658203125,177.041259765625
11629,406.11761474609375,-1036.09814453125,508.81524658203125,169.0640411376953
11630,403.9559326171875,-1033.094970703125,507.1584777832031,170.48895263671875
11631,419.8617248535156,-1022.8364868164062,512.0764770507811,176.57376098632812
11632,414.2892761230469,-1033.1436767578123,512.8169555664061,170.07382202148438
11633,415.57208251953125,-1036.883544921875,510.00830078125,168.82843017578125
11634,417.3560180664063,-1029.2578125,518.6212768554689,167.6241912841797
11635,429.1516418457031,-1016.22802734375,528.7564086914061,176.76075744628906
11636,429.9519958496094,-1021.7631225585938,532.0662231445311,174.93943786621094
11637,417.0044555664063,-1025.42822265625,528.8685913085939,169.0640411376953
11638,425.38555908203125,-1017.1517944335938,532.3504638671875,178.49981689453125
11639,430.7261352539063,-1009.7542724609376,526.6845092773439,180.67269897460938
11640,419.9515075683594,-1019.373291015625,526.6845092773439,174.5729217529297
11641,406.626220703125,-1019.8445434570312,526.9761962890625,172.26165771484375
11642,416.2116088867188,-1014.05517578125,535.1292114257811,177.75930786132812
11643,428.2017211914063,-1010.32275390625,538.543701171875,182.1275177001953
11644,421.98974609375,-1019.3097534179688,533.5845947265625,174.68885803222656
11645,409.3264465332031,-1034.961181640625,523.3821411132811,168.0355682373047
11646,414.0274963378906,-1036.4384765625,514.4662475585939,166.8163604736328
11647,420.6059875488281,-1036.169189453125,510.7674865722656,163.9366455078125
11648,407.1685180664063,-1046.2220458984377,496.5446472167969,157.33946228027344
11649,386.6028137207031,-1055.1566162109377,490.8899230957031,152.25694274902344
11650,393.38323974609375,-1048.3687744140623,489.2406311035156,162.18263244628906
11651,400.1412353515625,-1034.5760498046877,499.68243408203125,170.57496643066406
11652,400.7284240722656,-1044.468017578125,500.0302429199219,168.18516540527344
11653,399.1950378417969,-1047.5908203125,496.5484008789063,166.66677856445312
11654,403.8175659179688,-1032.5340576171877,500.7707214355469,166.9023895263672
11655,417.3859252929688,-1025.895751953125,509.1032409667969,175.39569091796875
11656,407.9538879394531,-1027.1036376953123,509.72406005859375,170.74700927734375
11657,405.9268798828125,-1031.6812744140623,510.1017761230469,162.08912658691406
11658,411.2169494628906,-1026.466064453125,508.09906005859375,167.5755615234375
11659,426.9619445800781,-1019.9810180664062,522.3667602539061,183.2868804931641
11660,420.5741882324219,-1023.2946166992188,523.758056640625,175.85195922851562
11661,420.798583984375,-1024.674560546875,524.898681640625,176.46531677246094
11662,429.3629455566406,-1014.6666259765624,524.8650512695311,175.4779815673828
11663,430.6270446777344,-1007.6318969726562,525.70654296875,186.39474487304688
11664,422.1673889160156,-1019.3228149414062,529.9326171875,184.8127593994141
11665,410.9439392089844,-1025.27294921875,526.8733520507811,180.02943420410156
11666,416.8380432128906,-1017.54638671875,525.4223022460939,182.06393432617188
11667,425.4397888183594,-1011.5812377929688,528.1823120117189,191.6231231689453
11668,422.5077209472656,-1024.367919921875,527.8157958984375,188.2684326171875
11669,422.0290222167969,-1024.85791015625,525.826171875,188.87803649902344
11670,423.45391845703125,-1019.6182861328124,526.86962890625,191.89239501953125
11671,429.04132080078125,-1006.4164428710938,524.8239135742189,193.7548675537109
11672,422.7395935058594,-1012.7368774414062,521.97412109375,187.31475830078125
11673,416.53509521484375,-1018.320556640625,522.2359008789061,182.60997009277344
11674,416.5837097167969,-1014.588134765625,521.5626831054689,179.6741485595703
11675,428.1325378417969,-1013.66064453125,525.6915283203125,187.3259735107422
11676,421.4306335449219,-1024.872802734375,530.190673828125,178.08468627929688
11677,413.6665954589844,-1028.8558349609377,529.26318359375,178.7728271484375
11678,418.438720703125,-1014.4085693359376,524.3264770507811,174.10169982910156
11679,427.1825866699219,-1004.9466552734376,532.1316528320311,173.86981201171875
11680,424.871337890625,-1020.2540283203124,534.4653930664061,170.9302520751953
11681,421.3371276855469,-1017.2247314453124,535.7631225585939,176.6859588623047
11682,433.2113037109375,-1010.7846069335938,539.0579833984375,182.7483367919922
11683,434.202392578125,-1007.3439331054688,542.6295776367189,186.6228790283203
11684,440.3171081542969,-1018.6309204101562,546.260986328125,187.2848358154297
11685,432.2202453613281,-1021.8248291015624,544.4546508789061,182.22476196289062
11686,431.831298828125,-1020.9346923828124,543.3925170898439,191.42117309570312
11687,432.7326049804688,-1009.6551513671876,542.4126586914061,191.97093200683597
11688,429.5649108886719,-1015.4931640625,536.5148315429689,190.88262939453125
11689,421.3520812988281,-1019.801513671875,530.7516479492189,185.6392822265625
11690,426.2550964355469,-1018.6795654296876,530.6282348632811,191.89239501953125
11691,436.1022644042969,-1018.20458984375,536.3502807617189,189.96261596679688
11692,420.622802734375,-1024.3978271484377,526.974365234375,180.78489685058597
11693,415.188720703125,-1026.1070556640623,529.8092041015625,178.731689453125
11694,417.0437316894531,-1015.9307250976562,531.3201293945311,181.0915679931641
11695,432.5194396972656,-1011.4765014648438,533.2274780273439,180.20147705078125
11696,421.55029296875,-1021.1703491210938,527.1575927734375,180.0967559814453
11697,413.5768432617188,-1021.6602783203124,526.1253662109375,176.97393798828125
11698,419.8636169433594,-1014.2216186523438,529.3828125,182.7184295654297
11699,431.4348449707031,-1013.2342529296876,539.58154296875,187.1614227294922
11700,428.7944946289063,-1021.5518188476562,539.55908203125,181.2336883544922
11701,426.210205078125,-1029.0689697265623,535.4676513671875,180.7699279785156
11702,428.3120422363281,-1033.8822021484377,529.7830200195311,188.2235565185547
11703,440.1488342285156,-1023.2085571289062,533.736083984375,188.25347900390625
11704,428.7982177734375,-1034.3123779296877,531.364990234375,187.49801635742188
11705,411.6657409667969,-1043.5760498046877,525.5120239257811,182.60247802734372
11706,429.1161193847656,-1032.4461669921877,528.2720947265625,189.166015625
11707,435.6759033203125,-1027.726318359375,525.68408203125,193.94186401367188
11708,426.4645385742188,-1030.879150390625,516.9327392578125,185.86741638183597
11709,418.2180480957031,-1033.426025390625,521.5028686523439,180.5455474853516
11710,426.15411376953125,-1029.8543701171877,521.3495483398439,176.6522979736328
11711,433.8134460449219,-1026.83251953125,525.0670166015625,181.0242462158203
11712,419.92718505859375,-1031.892578125,522.4827270507811,177.96875
11713,414.76611328125,-1027.0980224609377,524.7154541015625,179.13185119628906
11714,418.0123596191406,-1021.2900390625,523.6009521484375,182.19110107421875
11715,428.18115234375,-1010.41064453125,525.35498046875,192.89468383789062
11716,423.8279113769531,-1016.68994140625,535.3106079101561,194.5327606201172
11717,419.9683227539063,-1013.3539428710938,531.8212280273439,199.48439025878903
11718,423.4127807617188,-1007.68798828125,536.6607055664061,191.4323883056641
11719,436.6781921386719,-1003.1963500976562,543.1680908203125,198.3063201904297
11720,436.0124816894531,-1011.6148681640624,544.0469970703125,191.3388977050781
11721,436.1022644042969,-1017.9390869140624,540.4791259765625,185.8374938964844
11722,434.2135925292969,-1017.2359619140624,533.2274780273439,184.1508026123047
11723,444.04205322265625,-1011.5213623046876,535.3255615234375,186.9258117675781
11724,437.4934997558594,-1016.4992065429688,529.510009765625,181.1626281738281
11725,428.9366149902344,-1024.5025634765623,526.1478271484375,183.4327392578125
11726,425.57818603515625,-1018.945068359375,521.6300048828125,185.27651977539062
11727,433.7648315429688,-1017.3145141601562,527.0266723632811,189.3679656982422
11728,426.34112548828125,-1017.0639038085938,526.8583984375,182.21353149414062
11729,419.3362731933594,-1023.8892211914062,524.2218017578125,175.19000244140625
11730,432.171630859375,-1018.6010131835938,524.3676147460939,178.41754150390625
11731,436.1321716308594,-1011.2222290039062,527.7709350585939,180.27252197265625
11732,430.45501708984375,-1019.7454223632812,534.0315551757811,176.0614013671875
11733,421.2436218261719,-1024.61474609375,531.8511962890625,173.5706329345703
11734,424.5945739746094,-1017.8156127929688,528.1337280273439,176.29701232910156
11735,428.2896118164063,-1010.91552734375,527.8532104492189,183.5150146484375
11736,419.6504211425781,-1024.798095703125,525.953369140625,177.7480926513672
11737,404.0812377929688,-1028.2200927734377,524.3638916015625,178.07347106933594
11738,417.2381896972656,-1014.4459838867188,528.0701293945311,177.8341064453125
11739,424.2654724121094,-1007.8189086914062,530.1345825195311,179.10194396972656
11740,421.303466796875,-1015.4968872070312,531.3612670898439,173.9521026611328
11741,418.8688049316406,-1016.9442749023438,529.0013427734375,169.8232421875
11742,433.2337646484375,-1011.2857666015624,532.09423828125,178.71673583984375
11743,440.3395690917969,-1011.5775146484376,533.7061767578125,186.9108428955078
11744,435.6422424316406,-1014.872314453125,535.1422729492189,181.74978637695312
11745,424.1944274902344,-1019.7005615234376,530.0186157226561,175.44058227539062
11746,430.57843017578125,-1015.68017578125,527.8233032226561,182.3406982421875
11747,440.96038818359375,-1013.1669311523438,533.2760620117189,189.2034149169922
11748,435.9152526855469,-1020.1007080078124,532.1428833007811,182.0527191162109
11749,427.6463317871094,-1023.10009765625,528.840576171875,178.90371704101562
11750,425.0059814453125,-1019.6631469726562,523.2943115234375,172.5010223388672
11751,434.9541015625,-1010.1712646484376,527.72607421875,180.67269897460938
11752,426.54681396484375,-1016.4692993164062,521.2523193359375,178.36517333984375
11753,414.8633728027344,-1021.0842895507812,521.1625366210939,175.10772705078125
11754,421.1688232421875,-1009.5654296875,524.8575439453125,180.2650451660156
11755,432.1155090332031,-1007.0335083007812,529.861572265625,187.4194793701172
11756,421.9093322753906,-1014.2777099609376,523.8328247070311,185.88986206054688
11757,420.0767822265625,-1016.443115234375,522.0077514648439,178.8289337158203
11758,419.5270080566406,-1011.8804321289062,528.2272338867189,176.68222045898438
11759,434.366943359375,-1003.27490234375,534.2708740234375,180.5605010986328
11760,432.171630859375,-1007.8525390625,534.6448974609375,176.71214294433594
11761,430.8327331542969,-1018.3654174804688,536.6531982421875,180.61285400390625
11762,433.31976318359375,-1008.275146484375,538.3099975585939,181.4468536376953
11763,440.71728515625,-1002.1417236328124,544.1554565429689,185.98709106445312
11764,430.1558227539063,-1009.3036499023438,536.5260620117189,176.9440155029297
11765,426.5393371582031,-1016.585205078125,533.4293823242189,174.93194580078125
11766,427.54534912109375,-1007.0260620117188,532.7225952148439,179.48715209960938
11767,437.7066650390625,-1006.7230834960938,529.0686645507811,173.3050994873047
11768,427.0704040527344,-1016.4580688476562,524.14697265625,170.2944793701172
11769,422.8742370605469,-1025.14208984375,520.2163696289061,168.96681213378906
11770,426.0793151855469,-1023.0552368164062,519.0494995117189,170.45155334472656
11771,429.9201965332031,-1014.2739868164062,527.8157958984375,179.85365295410156
11772,419.4035949707031,-1017.4790649414062,524.206787109375,178.6755828857422
11773,404.8105163574219,-1018.3541870117188,515.9229125976561,174.4532470703125
11774,414.1041564941406,-1014.6591796875,513.5181884765625,174.51307678222656
11775,424.1158752441406,-1007.2728881835938,521.7272338867189,182.0714263916016
11776,412.4361572265625,-1019.5322265625,514.9356079101561,169.7447052001953
11777,406.5271301269531,-1019.072265625,519.240234375,166.95474243164062
11778,417.6982116699219,-1016.5066528320312,517.03369140625,168.92193603515625
11779,427.0292663574219,-1008.7576293945312,524.1320190429689,171.57725524902344
11780,429.37042236328125,-1014.4833984375,525.1941528320311,174.2400665283203
11781,422.80316162109375,-1020.1942138671876,529.4127807617189,171.3566131591797
11782,418.79400634765625,-1009.5579223632812,529.8952026367189,173.56689453125
11783,435.7843627929688,-1003.850830078125,534.570068359375,174.88333129882812
11784,424.15325927734375,-1012.4338989257812,536.33154296875,169.8643798828125
11785,418.3152770996094,-1017.2621459960938,531.727783203125,165.61585998535156
11786,420.9818420410156,-1010.0628051757812,533.4219360351561,168.12533569335938
11787,426.93951416015625,-1011.2857666015624,530.355224609375,172.96102905273438
11788,416.9764099121094,-1021.2489013671876,525.8748168945311,167.76255798339844
11789,413.6105041503906,-1028.945556640625,522.879150390625,168.39834594726562
11790,420.0019836425781,-1015.410888671875,526.8060302734375,180.07057189941406
11791,416.0900573730469,-1014.576904296875,529.1621704101561,191.0696258544922
11792,418.7491149902344,-1020.740234375,530.9237060546875,194.24853515625
11793,412.1257629394531,-1029.274658203125,529.7044677734375,187.9243621826172
11794,429.8341674804688,-1022.1015625,533.466796875,199.48439025878903
11795,429.2133483886719,-1017.8568115234376,530.40380859375,190.46002197265625
11796,426.0344543457031,-1025.0672607421877,531.5744018554689,189.98130798339844
11797,416.90533447265625,-1023.3469848632812,529.3305053710939,183.4290008544922
11798,425.0171813964844,-1015.6876220703124,525.8150024414061,175.24984741210938
11799,434.2510070800781,-1008.6828002929688,527.6063842773439,178.58209228515625
11800,419.5718994140625,-1017.243408203125,537.2141723632811,172.7964630126953
11801,420.458251953125,-1017.441650390625,533.8445434570311,163.0390625
11802,425.5482482910156,-1004.4454956054688,533.582763671875,167.42222595214844
11803,442.9013977050781,-1003.5740966796876,536.1669921875,169.0341339111328
11804,430.7205505371094,-1007.4747924804688,539.615234375,171.20327758789062
11805,419.1156311035156,-1017.5089721679688,533.5453491210939,166.16561889648438
11806,420.5741882324219,-1016.8956298828124,520.0218505859375,164.6135711669922
11807,426.9806518554688,-1008.3050537109376,525.3923950195311,179.88357543945312
11808,410.3081665039063,-1021.185302734375,521.846923828125,180.72879028320312
11809,406.7739562988281,-1031.043701171875,515.777099609375,177.44142150878906
11810,418.1208190917969,-1014.3861694335938,517.9462280273439,183.84786987304688
11811,429.37042236328125,-1016.5104370117188,522.033935546875,191.7241058349609
11812,416.2658386230469,-1026.5557861328123,523.2681274414061,181.59271240234372
11813,414.9119873046875,-1036.97509765625,522.5874633789061,179.94715881347656
11814,424.0822143554688,-1027.9620361328123,520.56787109375,180.9344940185547
11815,430.6569519042969,-1015.9232788085938,524.9061889648439,184.0386047363281
11816,423.076171875,-1022.0753784179688,526.2376098632811,182.464111328125
11817,417.9749450683594,-1024.4427490234377,524.1320190429689,173.80250549316406
11818,426.0082702636719,-1015.68017578125,523.5336303710939,177.0001220703125
11819,430.9898071289063,-1011.1436767578124,530.9461059570311,174.0306396484375
11820,419.9683227539063,-1021.43212890625,532.4944458007811,169.30340576171875
11821,416.8305358886719,-1017.5164794921876,530.6693725585939,160.7913818359375
11822,424.49359130859375,-1010.3134155273438,529.016357421875,159.7442169189453
11823,434.6848449707031,-1000.3615112304688,537.6068725585939,164.29566955566406
11824,430.8776245117188,-1011.8505249023438,537.3413696289061,164.83421325683594
11825,420.5629577636719,-1019.8164672851562,534.3082885742189,168.84339904785156
11826,425.5707092285156,-1008.3312377929688,533.0479125976561,176.67848205566406
11827,435.5749206542969,-1008.2302856445312,535.4639282226561,188.03656005859372
11828,421.2062377929688,-1017.8118896484376,533.2461547851561,183.90023803710938
11829,422.829345703125,-1021.0469360351562,532.857177734375,183.71697998046875
11830,430.90753173828125,-1018.9974365234376,530.4187622070311,185.0970001220703
11831,439.19140625,-1010.691162109375,532.902099609375,189.0799865722656
11832,425.6268005371094,-1019.9324340820312,532.8310546875,183.8516082763672
11833,417.66455078125,-1023.9827270507812,526.611572265625,176.2259521484375
11834,431.07208251953125,-1016.9554443359376,528.3394165039061,184.78659057617188
11835,441.6335754394531,-1008.6528930664062,531.1368408203125,191.88491821289062
11836,436.7081298828125,-1015.2650146484376,537.5919189453125,187.2137756347656
11837,430.799072265625,-1019.7940673828124,532.4196166992189,179.80877685546875
11838,436.0611267089844,-1008.5257568359376,533.7174072265625,176.24839782714844
11839,444.2253112792969,-1001.7864379882812,535.5873413085939,172.8824920654297
11840,438.41351318359375,-1002.8111572265624,534.6149291992189,161.37855529785156
11841,428.9478149414063,-1009.1241455078124,533.1863403320311,163.390625
11842,435.3355712890625,-999.7556762695312,531.0770263671875,168.91819763183594
11843,437.6169128417969,-996.7861938476562,531.6791381835939,185.2615509033203
11844,430.0361328125,-1006.8988647460938,532.4196166992189,180.6352996826172
11845,429.5948181152344,-1009.9730834960938,529.5511474609375,180.63156127929688
11846,434.5763854980469,-1003.6339721679688,530.5160522460939,193.2387542724609
11847,454.3342590332031,-997.6201782226562,535.5162963867189,208.97251892089844
11848,441.74951171875,-1006.4388427734376,532.6739501953125,202.8951873779297
11849,437.89739990234375,-1012.2506713867188,531.81005859375,201.6572723388672
11850,443.3988037109375,-1000.1782836914062,533.1339721679689,208.72943115234372
11851,451.7799072265625,-996.2252197265624,537.2665405273439,214.1634979248047
11852,449.5322265625,-1002.8186645507812,535.2582397460939,209.11090087890625
11853,437.4560852050781,-1009.0418090820312,534.9739990234375,202.5997314453125
11854,442.2843017578125,-1002.5718383789062,533.3396606445311,205.32986450195312
11855,453.0813903808594,-995.1443481445312,543.7066650390625,208.3404693603516
11856,442.6022033691406,-1005.0401611328124,539.3683471679689,199.8920440673828
11857,432.7326049804688,-1005.7432250976562,538.8560180664061,190.3365936279297
11858,452.4942321777344,-1000.8851318359376,539.6824951171875,189.9364318847656
11859,459.5439453125,-996.4215698242188,541.7133178710939,188.12257385253903
11860,450.5981140136719,-1008.3218994140624,533.4518432617189,182.14996337890625
11861,444.6628723144531,-1012.634033203125,531.8735961914061,174.9207305908203
11862,444.63671875,-1009.46630859375,532.9918212890625,177.69200134277344
11863,451.31243896484375,-1011.9570922851562,536.4288330078125,180.7100982666016
11864,439.1502685546875,-1021.8341674804688,531.9334716796875,179.68910217285156
11865,418.427490234375,-1030.5968017578123,527.2286376953125,169.740966796875
11866,422.9639892578125,-1022.9448852539062,526.600341796875,181.68995666503903
11867,434.3033752441406,-1015.74560546875,528.41796875,186.89588928222656
11868,422.1898193359375,-1030.6827392578123,525.1193237304689,178.1707000732422
11869,415.7347717285156,-1037.6539306640623,518.89990234375,178.3053436279297
11870,422.6049499511719,-1035.8587646484377,519.3038330078125,183.9675445556641
11871,424.0335998535156,-1028.951171875,519.9956665039061,188.25721740722656
11872,413.3113098144531,-1037.762451171875,517.3179321289061,179.5395050048828
11873,402.47308349609375,-1034.677001953125,509.8904724121094,163.61502075195312
11874,411.1421508789063,-1031.5989990234377,513.8734741210939,168.54046630859375
11875,412.63812255859375,-1025.839599609375,510.7207336425781,170.02894592285156
11876,404.0662841796875,-1039.30322265625,503.9926452636719,164.6995849609375
11877,389.764892578125,-1047.9610595703123,497.0401916503906,155.59292602539062
11878,405.7267761230469,-1035.5408935546877,503.0240173339844,155.52186584472656
11879,405.1695556640625,-1037.0555419921877,512.1456298828125,157.04026794433594
11880,399.20440673828125,-1045.784423828125,502.021728515625,146.3441619873047
11881,397.5513610839844,-1049.7525634765623,495.56292724609375,143.76736450195312
11882,400.9397277832031,-1035.9298095703123,498.4052429199219,151.1274871826172
11883,404.9339294433594,-1032.4068603515623,495.1515197753906,157.01034545898438
11884,399.52978515625,-1039.7109375,498.124755859375,150.93675231933594
11885,394.5781555175781,-1044.1800537109377,494.1941223144531,157.47784423828125
11886,405.1097106933594,-1033.173583984375,500.660400390625,169.25103759765625
11887,418.5696105957031,-1026.662353515625,508.5815124511719,178.54469299316406
11888,410.0089721679688,-1035.9373779296877,510.94140625,175.59765625
11889,408.0567321777344,-1039.4490966796877,506.599365234375,167.25767517089844
11890,411.3366394042969,-1026.0003662109377,514.9730224609375,171.1808319091797
11891,423.1247863769531,-1018.879638671875,523.3803100585939,176.5288848876953
11892,418.28912353515625,-1027.0325927734377,520.6912841796875,173.79501342773438
11893,410.8130493164063,-1033.8990478515623,513.3685913085939,169.25103759765625
11894,423.2444763183594,-1026.740966796875,516.1398315429689,172.23922729492188
11895,435.5973815917969,-1018.2363891601562,522.8866577148439,169.59884643554688
11896,427.77349853515625,-1024.85595703125,521.7684326171875,171.42018127441406
11897,420.66021728515625,-1033.4053955078123,518.9859008789061,163.19615173339844
11898,424.8227233886719,-1023.9359741210938,523.2868041992189,171.75677490234375
11899,440.22735595703125,-1019.5303955078124,528.0476684570311,175.3769989013672
11900,435.6310119628906,-1027.3580322265623,526.8359375,168.14402770996094
11901,423.78302001953125,-1032.8818359375,526.7611694335939,171.12472534179688
11902,429.5274963378906,-1024.8709716796877,525.4896240234375,172.9311065673828
11903,429.3330383300781,-1016.9161987304688,531.94091796875,180.83724975585938
11904,425.6941223144531,-1020.3905639648438,532.9207763671875,184.7716217041016
11905,417.2868041992188,-1022.5821533203124,530.4187622070311,185.53829956054688
11906,418.9510803222656,-1020.8206787109376,525.6578979492189,181.2561187744141
11907,427.17138671875,-1005.7750244140624,531.2752075195311,187.95428466796875
11908,425.9596557617188,-1011.7962646484376,532.6290893554689,185.91976928710938
11909,420.8509521484375,-1012.6863403320312,527.8270263671875,192.52818298339844
11910,430.282958984375,-1007.3831787109376,529.1734008789061,194.330810546875
11911,443.4100036621094,-997.5921630859376,534.8056640625,197.6368865966797
11912,438.4097595214844,-1002.2109375,533.1638793945311,197.44615173339844
11913,428.8056945800781,-1002.117431640625,531.8549194335939,193.55665588378903
11914,443.3277282714844,-994.6937255859376,533.7398071289061,198.54942321777344
11915,450.29144287109375,-992.18798828125,528.8704833984375,198.1754302978516
11916,455.4524841308594,-996.4627075195312,532.3485717773439,192.37484741210938
11917,444.46466064453125,-1002.094970703125,536.37646484375,188.11883544921875
11918,453.15618896484375,-995.7708129882812,537.1805419921875,193.22006225585938
11919,457.0830993652344,-995.2808837890624,542.5884399414061,190.80783081054688
11920,450.8636474609375,-1002.37548828125,538.7811889648439,189.1585235595703
11921,439.55792236328125,-1009.4812622070312,535.5648803710939,180.95692443847656
11922,437.33642578125,-1005.1168212890624,533.8370361328125,184.30039978027344
11923,446.4281311035156,-1003.2730712890624,537.1094970703125,185.45602416992188
11924,431.0047607421875,-1016.5571899414062,530.7366943359375,184.1508026123047
11925,423.2818908691406,-1025.1776123046877,525.9159545898439,173.9745330810547
11926,420.3198852539063,-1023.0533447265624,522.538818359375,173.00216674804688
11927,426.4533081054688,-1021.1422729492188,524.5770874023439,177.77427673339844
11928,423.3865966796875,-1029.9085693359377,524.4424438476561,178.3539581298828
11929,414.365966796875,-1036.0906982421877,512.7702026367189,166.97344970703125
11930,413.509521484375,-1028.689453125,509.3257446289063,172.8376007080078
11931,423.5174865722656,-1022.8514404296876,517.7293090820311,170.40667724609375
11932,414.7997741699219,-1029.3214111328123,515.8930053710939,172.94606018066406
11933,405.45751953125,-1034.91259765625,508.2299499511719,161.40847778320312
11934,419.17919921875,-1031.0828857421877,503.9889221191406,164.64723205566406
11935,423.18463134765625,-1027.036376953125,508.0093078613281,161.97694396972656
11936,417.395263671875,-1027.7431640625,508.0953369140625,159.9873046875
11937,414.5828552246094,-1033.468994140625,506.84619140625,154.2390899658203
11938,417.7169189453125,-1030.2041015625,508.2149963378906,163.54022216796875
11939,422.3020324707031,-1025.439453125,510.2046203613281,162.46311950683594
11940,415.5328063964844,-1031.449462890625,513.4097290039061,158.5998077392578
11941,406.35882568359375,-1039.3070068359377,507.10052490234375,158.68955993652344
11942,412.64935302734375,-1023.6666870117188,510.3355407714844,164.576171875
11943,419.283935546875,-1014.9527587890624,515.2348022460939,165.79537963867188
11944,416.1199645996094,-1027.2906494140623,511.6220397949219,163.3831329345703
11945,411.8302917480469,-1028.330322265625,509.2509460449219,161.40098571777344
11946,424.7441711425781,-1028.6182861328123,509.7633361816406,166.8911590576172
11947,428.2222900390625,-1029.2354736328123,513.1629028320311,166.59571838378906
11948,416.5650024414063,-1042.8973388671877,506.6666870117188,162.04051208496094
11949,407.5780334472656,-1052.01513671875,499.6581115722656,157.8780059814453
11950,406.68792724609375,-1049.0269775390623,499.8638000488281,158.86534118652344
11951,409.5115661621094,-1041.999755859375,494.556884765625,163.1774444580078
11952,401.4071960449219,-1051.592529296875,497.6797180175781,157.0739288330078
11953,391.04766845703125,-1053.7242431640623,486.3104248046875,149.8596649169922
11954,404.2083740234375,-1046.5137939453123,495.3834228515625,152.11856079101562
11955,404.5113220214844,-1042.493408203125,494.721435546875,153.8987579345703
11956,399.9598693847656,-1045.27587890625,498.7007141113281,154.33631896972656
11957,396.8033752441406,-1048.5146484375,497.3543395996094,149.58290100097656
11958,395.352294921875,-1040.7767333984377,497.7769470214844,150.77967834472656
11959,402.4281921386719,-1034.0487060546877,497.5749816894531,157.62368774414062
11960,398.755615234375,-1039.0040283203123,502.0254821777344,152.80670166015625
11961,384.1138916015625,-1045.6348876953123,494.7775573730469,146.4152069091797
11962,393.42999267578125,-1035.57080078125,499.8077087402344,144.0889892578125
11963,398.1759338378906,-1021.1871337890624,508.5665588378906,153.2592315673828
11964,392.28558349609375,-1025.7723388671877,508.4580993652344,161.5543212890625
11965,385.7445068359375,-1034.23193359375,498.5697937011719,151.69595336914062
11966,394.0470886230469,-1030.4322509765623,500.8548889160156,158.74192810058594
11967,397.13623046875,-1025.8209228515623,503.5064697265625,160.48097229003906
11968,391.93402099609375,-1038.727294921875,498.289306640625,151.78944396972656
11969,389.6863708496094,-1048.4173583984377,495.2450256347656,158.40907287597656
11970,397.9029235839844,-1042.0220947265623,494.69525146484375,162.2723846435547
11971,402.5516052246094,-1036.6666259765623,501.4196166992188,162.7510986328125
11972,394.75390625,-1046.6072998046877,495.6377258300781,153.23304748535156
11973,394.62677001953125,-1050.4033203125,496.269775390625,149.70632934570312
11974,399.9748229980469,-1045.006591796875,502.8744201660156,159.59835815429688
11975,402.1850891113281,-1034.58349609375,504.38909912109375,159.2804718017578
11976,392.2481994628906,-1034.2618408203123,501.6477355957031,151.3743133544922
11977,393.93115234375,-1038.6337890625,495.43951416015625,141.8375701904297
11978,406.2765502929688,-1029.1943359375,501.5729370117188,148.36370849609375
11979,409.6312561035156,-1027.29443359375,505.05853271484375,150.90309143066406
11980,410.3455505371094,-1032.9940185546877,504.0562438964844,142.6940155029297
11981,403.9653015136719,-1029.6243896484377,502.4144287109375,149.4445343017578
11982,409.5901184082031,-1015.5436401367188,505.3091125488281,154.6841278076172
11983,423.5661010742188,-1011.9570922851562,512.0408935546875,162.7136993408203
11984,419.5531921386719,-1019.8220825195312,512.901123046875,163.01663208007812
11985,407.7239074707031,-1027.4365234375,508.6824951171875,165.22691345214844
11986,415.3832092285156,-1021.8304443359376,505.23431396484375,169.30714416503906
11987,421.82330322265625,-1019.5678100585938,512.385009765625,174.57666015625
11988,416.5986633300781,-1029.9796142578123,512.8338012695311,174.39340209960938
11989,400.0982360839844,-1036.6927490234377,501.7150573730469,169.37071228027344
11990,410.02392578125,-1029.20556640625,507.8447570800781,175.67245483398438
11991,411.2805480957031,-1027.27197265625,511.341552734375,177.4227294921875
11992,416.48272705078125,-1035.3165283203123,510.7244873046875,173.7763214111328
11993,405.6594543457031,-1034.6619873046877,509.6137390136719,166.11326599121094
11994,417.8777160644531,-1032.2310791015623,512.6318359375,172.63938903808594
11995,432.5343933105469,-1024.4932861328123,514.9468383789061,169.3594970703125
11996,423.3828430175781,-1030.1068115234377,518.1743774414061,164.9090118408203
11997,413.8947143554688,-1040.4700927734377,504.8341369628906,156.86074829101562
11998,422.44415283203125,-1032.986572265625,511.1246337890625,161.80116271972656
11999,433.5927734375,-1023.2964477539062,519.1130981445311,163.95159912109375
12000,433.2001037597656,-1032.062744140625,522.187255859375,164.9613800048828
12001,420.4283447265625,-1042.414794921875,513.6378784179689,165.48497009277344
12002,434.4080810546875,-1038.4580078125,517.01123046875,177.0262908935547
12003,441.58868408203125,-1031.6102294921877,518.9896850585939,182.25466918945312
12004,435.6534729003906,-1035.9560546875,520.0518188476561,172.22425842285156
12005,420.469482421875,-1039.968994140625,518.7540283203125,172.8824920654297
12006,429.4265441894531,-1035.6568603515623,522.7295532226561,182.43792724609372
12007,423.8054504394531,-1034.1422119140623,518.148193359375,176.5662841796875
12008,418.09088134765625,-1033.83544921875,517.3253784179689,177.86776733398438
12009,411.0523986816406,-1037.728759765625,515.0440673828125,173.02085876464844
12010,421.3333740234375,-1032.3133544921877,513.5219116210939,172.53466796875
12011,424.27294921875,-1027.574951171875,511.352783203125,174.25503540039062
12012,416.0339660644531,-1029.46728515625,513.9332885742189,171.31546020507812
12013,409.3245849609375,-1038.4730224609377,514.5054931640625,166.12448120117188
12014,422.2085266113281,-1034.546142578125,509.6212158203125,173.30136108398438
12015,437.1120300292969,-1027.3504638671877,513.9407958984375,178.15200805664062
12016,426.9768981933594,-1036.730224609375,516.7681274414061,164.8379669189453
12017,418.3003234863281,-1038.0989990234377,511.5248107910156,163.977783203125
12018,426.9694213867188,-1033.577392578125,511.7566833496094,168.90322875976562
12019,431.0907897949219,-1030.9259033203123,518.1070556640625,178.0472869873047
12020,423.0387878417969,-1033.9066162109377,512.6467895507811,172.31402587890625
12021,413.47210693359375,-1042.564453125,508.98541259765625,174.04933166503906
12022,416.2284240722656,-1032.9490966796877,508.3645935058594,175.81082153320312
12023,418.685546875,-1027.4664306640623,512.1456298828125,180.72879028320312
12024,415.06158447265625,-1033.1212158203123,508.3458862304688,181.2000274658203
12025,402.4431457519531,-1036.8424072265623,510.8965148925781,173.11062622070312
12026,412.3052673339844,-1030.0806884765623,511.352783203125,176.12498474121094
12027,424.44873046875,-1025.3646240234377,512.8300170898439,177.8902130126953
12028,416.2284240722656,-1034.69189453125,510.3280334472656,175.65374755859375
12029,413.5357055664063,-1035.8101806640623,510.8815612792969,168.19639587402344
12030,415.13262939453125,-1033.7196044921877,508.8283386230469,169.0752716064453
12031,428.86553955078125,-1030.054443359375,512.1119995117189,176.00904846191406
12032,424.0523071289063,-1037.48193359375,510.8179626464844,170.2944793701172
12033,414.6240234375,-1041.5958251953123,504.908935546875,172.19808959960938
12034,424.4001159667969,-1033.6971435546877,509.0003967285156,170.30943298339844
12035,431.7789306640625,-1021.9613037109376,515.36572265625,171.12472534179688
12036,422.0252685546875,-1034.2843017578123,509.2771301269531,174.08673095703125
12037,416.0077819824219,-1035.2567138671877,507.2201843261719,173.0059051513672
12038,414.1303405761719,-1030.099365234375,507.42962646484375,172.38133239746094
12039,416.0077819824219,-1029.7664794921877,510.2008972167969,183.1933898925781
12040,414.3098449707031,-1029.901123046875,508.4132080078125,177.91639709472656
12041,405.2480773925781,-1036.8460693359377,511.1283874511719,180.02195739746094
12042,422.3468933105469,-1025.2225341796877,515.8630981445311,183.4439697265625
12043,437.3850402832031,-1023.0159912109376,518.6381225585939,181.6039276123047
12044,429.8528747558594,-1029.2467041015623,522.550048828125,181.76475524902344
12045,420.9145202636719,-1033.1099853515623,520.5416870117189,171.96621704101562
12046,433.2262573242188,-1026.5576171875,517.6021728515625,173.4322509765625
12047,439.4045715332031,-1025.0205078125,522.4490356445311,177.30303955078125
12048,431.2516174316406,-1033.8953857421877,518.2117309570311,172.03726196289062
12049,422.8330993652344,-1036.0457763671877,513.4359130859375,174.28494262695312
12050,430.1483459472656,-1026.509033203125,516.6260375976561,180.8222961425781
12051,436.5099182128906,-1027.8890380859377,519.6254272460939,186.47702026367188
12052,427.67626953125,-1032.062744140625,522.4303588867189,184.2667388916016
12053,420.6864013671875,-1033.0389404296877,520.6912841796875,178.12208557128906
12054,425.7389831542969,-1026.1051025390623,517.220703125,183.20834350585938
12055,424.28790283203125,-1020.2073364257812,522.7482299804689,188.1412811279297
12056,417.7243957519531,-1028.4163818359377,520.3509521484375,181.1813201904297
12057,417.8103942871094,-1028.5323486328123,515.859375,180.69888305664062
12058,426.056884765625,-1024.54931640625,515.6087646484375,178.15200805664062
12059,436.7417907714844,-1016.0335693359376,520.7960205078125,181.3795318603516
12060,424.5777587890625,-1025.7872314453123,515.184326171875,183.16534423828125
12061,417.5429992675781,-1027.84423828125,513.4302978515625,177.3198699951172
12062,424.55157470703125,-1020.8019409179688,515.5881958007811,179.5712890625
12063,438.9501953125,-1011.17919921875,525.491455078125,175.0310516357422
12064,429.6565246582031,-1025.476806640625,520.70068359375,172.72354125976562
12065,423.3323669433594,-1031.55419921875,517.6900634765625,173.03021240234375
12066,424.5665283203125,-1026.224853515625,516.6503295898439,176.98329162597656
12067,436.4818420410156,-1022.4325561523438,520.7791748046875,180.53245544433597
12068,417.6813659667969,-1030.0694580078123,513.3742065429689,174.85154724121094
12069,415.5646057128906,-1023.9285278320312,518.7334594726561,177.15158081054688
12070,416.6080322265625,-1016.2953491210938,514.6046142578125,181.3028717041016
12071,425.9203796386719,-1008.0638427734376,523.236328125,187.54476928710938
12072,415.71044921875,-1019.5266723632812,519.5188598632811,184.7061767578125
12073,419.2184753417969,-1025.6937255859377,520.3753051757811,181.63946533203125
12074,430.9542846679688,-1020.35693359375,522.4957885742189,184.99041748046875
12075,433.1122131347656,-1014.5563354492188,525.0015258789061,180.15472412109372
12076,427.154541015625,-1019.0965576171876,524.8182983398439,179.12998962402344
12077,413.4964294433594,-1019.2760620117188,515.91357421875,173.3069610595703
12078,421.70550537109375,-1016.5758666992188,519.1822509765625,172.9778594970703
12079,434.73907470703125,-1015.3716430664062,519.7918701171875,177.42459106445312
12080,429.98565673828125,-1018.7861328125,521.0447387695311,171.5155487060547
12081,424.0541687011719,-1027.8741455078123,513.69580078125,167.1136932373047
12082,422.741455078125,-1020.734619140625,507.7718200683594,169.9522705078125
12083,432.4053649902344,-1017.1331176757812,517.77978515625,180.96627807617188
12084,417.3821716308594,-1023.468505859375,509.6043701171875,177.2974395751953
12085,408.8851318359375,-1031.228759765625,507.7044982910156,174.29055786132812
12086,417.4457702636719,-1016.5384521484376,508.7965698242188,178.9429931640625
12087,423.2762756347656,-1003.6507568359376,514.316650390625,184.0404815673828
12088,414.6670227050781,-1012.2301025390624,516.6914672851561,182.74647521972656
12089,410.6877746582031,-1019.3134765625,510.7076416015625,180.4688720703125
12090,424.6525573730469,-1020.13623046875,508.9125061035156,182.2565460205078
12091,433.8040771484375,-1010.3713989257812,518.3818969726561,183.3448486328125
12092,431.72845458984375,-1016.8675537109376,512.0353393554689,178.1763153076172
12093,426.896484375,-1014.6984252929688,515.947265625,174.22323608398438
12094,439.6009216308594,-1009.2568969726562,514.6121215820311,178.5241241455078
12095,440.6331481933594,-1004.301513671875,516.44091796875,173.56875610351562
12096,435.7675476074219,-1006.6277465820312,523.1839599609375,173.32192993164062
12097,430.4755859375,-1007.177490234375,517.005615234375,171.8970184326172
12098,432.9476623535156,-1000.6550903320312,513.5911254882811,169.41746520996094
12099,429.8697204589844,-998.0184936523438,520.5922241210939,177.51809692382812
12100,428.9870910644531,-1004.4473876953124,516.3099975585939,176.9571075439453
12101,419.98516845703125,-1014.7096557617188,513.613525390625,174.85528564453125
12102,427.2667541503906,-996.6983032226562,514.1932373046875,181.0709991455078
12103,435.7002258300781,-994.5777587890624,518.2098999023439,181.7928009033203
12104,426.2906188964844,-996.6907958984376,512.450439453125,182.7576904296875
12105,421.7765808105469,-1006.9343872070312,505.830810546875,178.63258361816406
12106,429.6528015136719,-996.8067626953124,511.1078186035156,183.3186798095703
12107,434.8101196289063,-991.9448852539062,513.2882080078125,185.2110595703125
12108,425.9203796386719,-1008.2471313476562,507.5698852539063,182.4809417724609
12109,412.1388549804688,-1008.6024169921876,513.1348266601561,180.674560546875
12110,425.8306274414063,-1006.496826171875,511.2275085449219,183.9507141113281
12111,437.0503234863281,-999.5406494140624,519.3729858398439,183.8946228027344
12112,430.7298889160156,-1007.4916381835938,518.8867797851561,176.15676879882812
12113,430.4494018554688,-1017.7913208007812,515.7490234375,172.64500427246094
12114,437.79083251953125,-1005.9283447265624,517.6115112304689,168.89013671875
12115,435.8647766113281,-1001.7733154296876,515.5059204101561,177.85467529296875
12116,425.6585693359375,-1013.258544921875,508.8863220214844,177.880859375
12117,422.3487854003906,-1017.858642578125,511.2835998535156,177.26377868652344
12118,432.57366943359375,-1009.021240234375,511.2574157714844,181.4001007080078
12119,427.4724426269531,-1007.3569946289062,511.01806640625,181.6918182373047
12120,410.6578369140625,-1012.9032592773438,507.5511779785156,179.79568481445312
12121,411.5591735839844,-1015.3978271484376,505.9579772949219,172.26727294921875
12122,423.0107421875,-1003.8639526367188,503.0820007324219,176.1530303955078
12123,430.6064758300781,-1005.8984375,510.9283142089844,182.18174743652344
12124,423.35107421875,-1014.8629760742188,513.2283325195311,175.92115783691406
12125,418.0067443847656,-1020.899169921875,511.4930419921875,171.75115966796875
12126,429.7874450683594,-1015.135986328125,514.7579345703125,180.06871032714844
12127,434.8063659667969,-1010.3526611328124,515.502197265625,181.59083557128903
12128,425.6211853027344,-1017.847412109375,514.4774780273439,181.16075134277344
12129,421.0173645019531,-1019.9268188476562,514.5186157226561,175.13577270507812
12130,429.3274230957031,-1017.78759765625,513.5125732421875,169.2865753173828
12131,433.3141479492188,-1005.509521484375,516.369873046875,174.48876953125
12132,425.9203796386719,-1010.206787109375,518.3220825195311,169.2042999267578
12133,416.7501525878906,-1021.3741455078124,514.234375,172.2971954345703
12134,422.2178649902344,-1005.2365112304688,515.677978515625,176.67286682128906
12135,424.53662109375,-1005.9508056640624,523.1054077148439,183.3112030029297
12136,413.597412109375,-1011.0894165039062,521.3738403320311,180.0911407470703
12137,403.9596862792969,-1016.8638305664062,512.8394165039061,175.74911499023438
12138,415.54962158203125,-1006.5828247070312,509.0920104980469,173.75949096679688
12139,424.2187194824219,-1005.0195922851562,512.4990844726561,181.9723052978516
12140,423.1042175292969,-1021.2656860351562,508.8040466308594,184.5042266845703
12141,413.4253845214844,-1024.8035888671877,503.11566162109375,174.34664916992188
12142,417.92822265625,-1015.827880859375,510.4570617675781,179.34690856933594
12143,425.6959838867188,-1012.0655517578124,507.4015808105469,183.9993438720703
12144,415.65435791015625,-1021.6995239257812,505.13519287109375,172.52906799316406
12145,412.9840698242188,-1021.9239501953124,506.7283935546875,169.09210205078125
12146,422.8087768554688,-1014.53759765625,509.4547729492188,169.35389709472656
12147,428.0633239746094,-1015.322998046875,507.2669372558594,163.901123046875
12148,425.6211853027344,-1018.0493774414062,510.1279602050781,155.82667541503906
12149,421.6905517578125,-1018.5953979492188,504.9519348144531,162.21441650390625
12150,417.0455932617188,-1014.4852905273438,504.5442810058594,168.3889923095703
12151,419.5213928222656,-1014.2608642578124,506.9266052246094,170.8348846435547
12152,409.9958801269531,-1018.7487182617188,505.43438720703125,174.90016174316406
12153,404.6927185058594,-1020.5289306640624,503.7215270996094,170.35618591308594
12154,410.0819091796875,-1013.7223510742188,498.5679321289063,173.99136352539062
12155,418.8968505859375,-1008.232177734375,505.2735595703125,175.32650756835938
12156,417.9169921875,-1025.641357421875,501.604736328125,168.85647583007812
12157,414.6744995117188,-1022.0398559570312,508.1271057128906,177.43580627441406
12158,427.0386047363281,-1016.179443359375,508.6806335449219,179.76202392578125
12159,429.7649841308594,-1011.9346313476562,508.0298767089844,182.9372100830078
12160,419.62237548828125,-1021.0338134765624,506.04400634765625,176.90475463867188
12161,419.4017333984375,-1024.291259765625,503.0670471191406,174.51869201660156
12162,427.7192687988281,-1020.229736328125,505.1015319824219,169.73910522460938
12163,431.8742980957031,-1014.148681640625,506.2945556640625,170.90594482421875
12164,420.9350891113281,-1026.5352783203123,501.088623046875,160.18739318847656
12165,422.3001403808594,-1026.8905029296877,500.8717041015625,156.5222930908203
12166,428.691650390625,-1020.7421264648438,494.75323486328125,159.2673797607422
12167,426.7768249511719,-1018.0792846679688,496.6269226074219,170.22154235839844
12168,417.6514587402344,-1023.3488159179688,500.67724609375,169.1930694580078
12169,402.482421875,-1030.6827392578123,495.6582946777344,169.12200927734375
12170,404.8572692871094,-1021.4302368164062,494.0650939941406,169.07339477539062
12171,417.9244689941406,-1010.0946044921876,501.51123046875,183.04193115234372
12172,414.7193908691406,-1020.1287841796876,497.367431640625,175.36390686035156
12173,408.0249633789063,-1026.4716796875,495.6919555664063,174.71690368652344
12174,414.1883239746094,-1017.6080932617188,503.3587341308594,181.3701934814453
12175,430.041748046875,-1013.5577392578124,505.842041015625,179.63861083984375
12176,424.3009948730469,-1018.374755859375,511.1190490722656,174.1634063720703
12177,415.287841796875,-1025.443115234375,504.469482421875,171.62774658203125
12178,431.3619384765625,-1014.88916015625,506.8406066894531,170.1280517578125
12179,441.7027587890625,-1016.7741088867188,513.9688110351561,172.15133666992188
12180,433.7928771972656,-1022.6046142578124,518.3931274414061,169.4847869873047
12181,429.9968566894531,-1030.0919189453123,511.5416564941406,163.35134887695312
12182,426.82916259765625,-1022.8177490234376,508.0934448242188,165.40081787109375
12183,436.5043029785156,-1014.5226440429688,511.1788635253906,171.02935791015625
12184,420.3741149902344,-1025.301025390625,507.7980041503906,166.9005126953125
12185,412.1126708984375,-1030.2564697265623,504.2525939941406,164.6640625
12186,416.6304626464844,-1024.9195556640623,504.74249267578125,167.5774383544922
12187,423.92327880859375,-1018.1727905273438,509.8661804199219,174.9487762451172
12188,414.8502807617188,-1025.8919677734377,508.89752197265625,172.94419860839844
12189,408.61212158203125,-1030.8623046875,500.6473083496094,172.25979614257812
12190,415.1831359863281,-1022.3427734375,506.2347412109375,178.25485229492188
12191,429.185302734375,-1012.2637329101562,514.05859375,182.5931396484375
12192,418.1937561035156,-1026.21728515625,506.7882385253906,171.8558807373047
12193,411.4806213378906,-1026.696044921875,505.9056091308594,165.49057006835938
12194,423.4034118652344,-1022.436279296875,511.9904479980469,181.7030334472656
12195,426.6047668457031,-1019.3770751953124,509.9110412597656,177.13662719726562
12196,423.2164306640625,-1024.8148193359377,509.48095703125,169.76153564453125
12197,423.9606628417969,-1027.4776611328123,510.3486328125,167.16978454589844
12198,426.2681884765625,-1018.8048706054688,506.4740905761719,167.798095703125
12199,434.2192077636719,-1012.622802734375,511.69873046875,175.2105712890625
12200,426.7917785644531,-1023.621826171875,509.1032409667969,164.85479736328125
12201,424.0018005371094,-1022.3390502929688,502.5247497558594,161.90774536132812
12202,433.4562683105469,-1015.9176635742188,505.2286987304688,168.1421661376953
12203,435.0793762207031,-1013.6737060546876,505.32220458984375,168.54232788085938
12204,421.4437255859375,-1018.572998046875,504.9220275878906,168.89013671875
12205,413.51885986328125,-1022.2792358398438,500.6585388183594,165.22877502441406
12206,416.484619140625,-1009.32421875,503.6280212402344,171.70254516601562
12207,422.8349609375,-1009.61962890625,507.4838562011719,181.45620727539062
12208,412.5016174316406,-1016.2579956054688,504.57421875,174.3279571533203
12209,413.9975891113281,-1013.8831176757812,503.564453125,172.5365447998047
12210,421.2230529785156,-1014.9153442382812,502.0460510253906,174.7505645751953
12211,431.3843688964844,-1006.2424926757812,510.068115234375,177.23011779785156
12212,422.38616943359375,-1014.0888061523438,510.0755920410156,171.66140747070312
12213,410.2763671875,-1019.3284301757812,503.96087646484375,165.35220336914062
12214,419.4017333984375,-1009.3204345703124,511.03302001953125,170.7713165283203
12215,427.483642578125,-999.2900390625,518.28466796875,176.096923828125
12216,417.8571472167969,-1017.1929321289062,516.9719848632811,173.67347717285156
12217,415.98345947265625,-1024.68017578125,514.72802734375,171.84840393066406
12218,426.4551696777344,-1010.569580078125,515.6031494140625,171.8147430419922
12219,437.4355163574219,-1007.3158569335938,520.689453125,179.5039825439453
12220,427.506103515625,-1017.6455078125,517.357177734375,174.65707397460938
12221,422.0421142578125,-1021.602294921875,519.4814453125,172.00921630859375
12222,435.53564453125,-1012.7499389648438,523.1727294921875,176.777587890625
12223,445.6782531738281,-1013.85693359375,523.449462890625,182.01719665527344
12224,432.7456970214844,-1022.5634155273438,518.400634765625,183.1616058349609
12225,423.69512939453125,-1025.2935791015623,520.0386962890625,184.2910461425781
12226,430.9916687011719,-1015.674560546875,522.3200073242189,187.30914306640625
12227,441.7812805175781,-1016.0410766601562,517.6339721679689,187.129638671875
12228,437.6673889160156,-1020.697265625,518.6661376953125,181.3926239013672
12229,427.9137573242188,-1019.6463012695312,519.3842163085939,185.1736602783203
12230,435.3337097167969,-1008.5350952148438,522.1480102539061,180.57359313964844
12231,442.5666809082031,-1009.3017578125,520.17333984375,182.8698883056641
12232,431.85186767578125,-1017.177978515625,517.0018920898439,171.37342834472656
12233,419.0426940917969,-1023.0159912109376,511.9642639160156,165.77854919433594
12234,430.1202697753906,-1011.7514038085938,519.4963989257811,184.5042266845703
12235,438.49017333984375,-1007.0503540039062,523.9169921875,184.33218383789062
12236,430.4381713867188,-1016.9274291992188,514.8065795898439,171.11538696289062
12237,423.1378784179688,-1023.281494140625,513.8641357421875,167.76817321777344
12238,429.185302734375,-1010.6256713867188,513.2582397460939,174.17462158203125
12239,434.795166015625,-1006.2424926757812,520.4126586914061,180.71945190429688
12240,429.2040100097656,-1020.66357421875,513.1647338867189,175.27041625976562
12241,420.6471252441406,-1023.8013305664062,517.7349243164061,175.8463592529297
12242,426.720703125,-1016.3888549804688,520.6370849609375,180.3379821777344
12243,435.4272155761719,-1012.5816650390624,521.5982666015625,187.02491760253903
12244,423.0069885253906,-1028.599609375,522.2564697265625,187.9673767089844
12245,418.4854431152344,-1027.309326171875,519.14111328125,183.12046813964844
12246,422.84619140625,-1022.282958984375,517.7386474609375,180.345458984375
12247,432.072509765625,-1019.65380859375,517.5142822265625,186.2021331787109
12248,425.3444213867188,-1026.1163330078123,516.7064208984375,179.05519104003906
12249,417.1203918457031,-1038.1214599609377,506.0776672363281,173.4752655029297
12250,422.752685546875,-1028.210693359375,507.8765563964844,171.4332733154297
12251,434.7914123535156,-1025.555419921875,516.4895629882811,177.54052734375
12252,420.29931640625,-1026.931640625,511.3770751953125,168.74053955078125
12253,414.0013122558594,-1030.4322509765623,514.5560302734375,167.8841094970703
12254,422.3637390136719,-1022.3502807617188,512.68603515625,169.6269073486328
12255,429.3012390136719,-1012.963134765625,517.9293823242189,175.98472595214844
12256,422.1730041503906,-1028.6033935546877,512.9029541015625,170.4646453857422
12257,416.62298583984375,-1030.4957275390623,514.6307983398439,173.5575408935547
12258,429.17034912109375,-1023.8873901367188,516.5680541992189,181.59832763671875
12259,430.2773742675781,-1022.33154296875,518.2584838867189,182.4996337890625
12260,417.11663818359375,-1036.344970703125,513.448974609375,178.643798828125
12261,413.6516418457031,-1037.48193359375,512.1737060546875,176.92718505859375
12262,420.7686767578125,-1028.595947265625,513.5537109375,178.65501403808594
12263,428.4317321777344,-1016.9461059570312,521.4075317382811,189.92333984375
12264,418.0385437011719,-1032.47412109375,518.8980102539061,179.6610565185547
12265,414.5641784667969,-1039.9053955078123,512.4429321289061,173.67347717285156
12266,423.7381591796875,-1027.5450439453123,513.3480224609375,171.66888427734375
12267,434.3220520019531,-1024.1903076171877,515.7565307617189,168.29176330566406
12268,426.1578674316406,-1031.146484375,510.0830993652344,159.3982696533203
12269,418.6593627929688,-1032.3994140625,508.6843566894531,157.8013458251953
12270,426.25885009765625,-1020.1923217773438,511.2873229980469,166.3021240234375
12271,431.8499755859375,-1021.8566284179688,512.9964599609375,170.416015625
12272,419.2091369628906,-1032.0926513671877,510.7263488769531,165.78602600097656
12273,409.8631286621094,-1028.46875,510.0045471191406,167.39791870117188
12274,418.1320495605469,-1022.118408203125,506.15618896484375,173.0077667236328
12275,420.6265563964844,-1019.0067749023438,510.771240234375,180.2108154296875
12276,412.6568298339844,-1024.358642578125,512.637451171875,175.06845092773438
12277,403.3856201171875,-1028.0611572265623,507.4053039550781,176.24278259277344
12278,413.7413940429688,-1022.3240966796876,503.9907836914063,178.3483428955078
12279,417.31298828125,-1016.0111694335938,505.74853515625,181.4674224853516
12280,417.1409606933594,-1020.1474609375,507.1734313964844,179.00283813476562
12281,412.499755859375,-1027.1934814453123,507.6558837890625,178.28477478027344
12282,421.28851318359375,-1019.6163940429688,504.2862548828125,178.4007110595703
12283,432.5493469238281,-1019.3209228515624,509.8212890625,176.7514190673828
12284,417.5598449707031,-1019.994140625,507.38287353515625,173.69964599609375
12285,412.2379455566406,-1025.5927734375,502.4200439453125,168.2468719482422
12286,425.7689208984375,-1021.9463500976562,505.82708740234375,171.43701171875
12287,427.5603332519531,-1018.7113647460938,502.6631164550781,172.02418518066406
12288,422.24591064453125,-1023.775146484375,501.36163330078125,170.6366729736328
12289,417.0437316894531,-1027.0999755859377,496.33148193359375,166.45921325683594
12290,418.8837585449219,-1024.8336181640623,498.7474365234375,170.767578125
12291,433.4356994628906,-1018.9432373046876,509.0770568847656,171.62400817871094
12292,422.05517578125,-1028.188232421875,505.9430236816406,168.95372009277344
12293,411.5161437988281,-1031.3035888671877,495.3216857910156,168.60964965820312
12294,423.9924621582031,-1018.9170532226562,507.73443603515625,177.8397216796875
12295,425.211669921875,-1013.9653930664062,512.00537109375,178.4343719482422
12296,417.88519287109375,-1024.7325439453123,508.224365234375,170.06820678710938
12297,416.0825805664063,-1029.5758056640623,510.5356140136719,174.2718505859375
12298,429.5162963867188,-1021.1011352539062,515.5770263671875,178.82705688476562
12299,431.93975830078125,-1016.3814086914062,519.1373901367189,186.74069213867188
12300,417.7692565917969,-1024.523193359375,512.7459106445311,179.2421875
12301,414.38092041015625,-1032.201171875,514.4400634765625,178.87567138671875
12302,420.5143432617188,-1022.4176025390624,516.4895629882811,180.7979888916016
12303,434.8269348144531,-1015.8316040039062,522.5182495117189,181.7890625
12304,420.6527404785156,-1030.8323974609377,518.7671508789061,175.58082580566406
12305,416.5949401855469,-1035.6494140625,515.8986206054689,173.45655822753906
12306,425.9933166503906,-1023.0982666015624,519.1261596679689,177.1964569091797
12307,432.7176513671875,-1020.35693359375,516.1454467773439,179.30201721191406
12308,431.1094970703125,-1026.6324462890623,517.6751098632811,180.49131774902344
12309,422.993896484375,-1029.3887939453123,517.1889038085939,181.2505187988281
12310,430.8514404296875,-1023.6068725585938,518.8531494140625,184.7061767578125
12311,439.88330078125,-1018.045654296875,517.719970703125,190.75733947753903
12312,421.5690002441406,-1019.4406127929688,518.1500244140625,182.6006164550781
12313,420.304931640625,-1023.3787231445312,519.47021484375,185.0427703857422
12314,434.4529724121094,-1011.568115234375,520.5173950195311,188.03468322753903
12315,432.6951904296875,-1011.5158081054688,521.5720825195311,191.3594665527344
12316,428.5439147949219,-1021.086181640625,519.4403076171875,188.80137634277344
12317,422.1412048339844,-1015.1285400390624,514.2119140625,186.54620361328125
12318,429.73321533203125,-1009.8365478515624,512.484130859375,188.4984436035156
12319,435.8741149902344,-999.9669799804688,521.53466796875,185.6972503662109
12320,429.2769470214844,-1006.9157104492188,517.7648315429689,181.4524688720703
12321,421.12396240234375,-1006.2575073242188,514.0436401367189,173.22842407226562
12322,431.1842956542969,-999.1217651367188,517.6227416992189,181.92369079589844
12323,441.2782897949219,-997.7567138671876,520.7268676757811,180.7867584228516
12324,430.6419982910156,-1015.674560546875,512.5476684570311,167.86915588378906
12325,428.169921875,-1012.4058837890624,515.315185546875,167.8766326904297
12326,432.4708251953125,-1000.6251831054688,515.2890014648439,170.95831298828125
12327,435.8292541503906,-1004.7689819335938,515.43115234375,179.7059326171875
12328,433.1739196777344,-1012.413330078125,516.1417236328125,170.26268005371094
12329,418.4312133789063,-1015.816650390625,516.4745483398439,176.28392028808594
12330,431.38623046875,-1008.7706909179688,519.5824584960939,181.05978393554688
12331,434.6175231933594,-1008.1610717773438,519.3355712890625,186.9987335205078
12332,422.60870361328125,-1020.6822509765624,516.2164916992189,177.2450714111328
12333,423.7456359863281,-1026.44921875,509.8549499511719,181.03733825683597
12334,424.3140869140625,-1021.4639282226562,510.8198547363281,179.21600341796875
12335,430.4886779785156,-1014.0813598632812,515.0982666015625,185.2447204589844
12336,419.3362731933594,-1024.949462890625,507.4053039550781,175.0011444091797
12337,409.3769226074219,-1030.559326171875,503.141845703125,168.41517639160156
12338,418.52471923828125,-1017.7090454101562,505.6849670410156,173.0414276123047
12339,427.1077880859375,-1015.8690185546876,503.7215270996094,168.9387664794922
12340,417.48876953125,-1026.157470703125,497.5020751953125,158.9270477294922
12341,413.9246520996094,-1027.1298828125,494.25958251953125,161.50758361816406
12342,428.33447265625,-1020.6598510742188,500.72210693359375,165.77854919433594
12343,424.8489074707031,-1016.8077392578124,502.7453918457031,165.64016723632812
12344,420.3535461425781,-1022.2642822265624,502.5322265625,163.5084228515625
12345,411.8976135253906,-1027.507568359375,503.0296325683594,160.00413513183594
12346,414.5641784667969,-1022.7579345703124,505.5390930175781,170.1130828857422
12347,420.5255737304688,-1012.9967651367188,510.9170837402344,176.3175811767578
12348,410.8429565429688,-1022.1857299804688,507.1061096191406,173.19850158691406
12349,402.3197326660156,-1027.2047119140623,504.9107971191406,171.71376037597656
12350,412.136962890625,-1018.0980224609376,505.0491943359375,175.767822265625
12351,422.43292236328125,-1011.34375,509.3463134765625,174.1446990966797
12352,416.7707214355469,-1021.2432861328124,508.0672912597656,174.07737731933594
12353,412.1257629394531,-1023.5133666992188,506.60870361328125,169.07713317871094
12354,423.4127807617188,-1007.2298583984376,508.9685974121094,176.0520477294922
12355,429.2358093261719,-1005.943359375,514.4774780273439,179.6086883544922
12356,418.932373046875,-1015.1060791015624,512.989013671875,171.953125
12357,420.4395446777344,-1015.465087890625,515.3339233398439,163.29525756835938
12358,429.8753356933594,-1011.7102661132812,516.5381469726561,164.48828125
12359,429.9201965332031,-1004.2267456054688,518.2173461914061,157.89109802246094
12360,423.11358642578125,-1011.250244140625,511.59027099609375,151.36497497558594
12361,416.2919921875,-1016.2467651367188,504.9930725097656,156.15203857421875
12362,433.3646545410156,-1007.4916381835938,511.93060302734375,160.931640625
12363,427.6276550292969,-1005.2589111328124,508.7329711914063,163.8038787841797
12364,417.7917175292969,-1018.4832153320312,503.28021240234375,157.76394653320312
12365,411.4076843261719,-1017.2153930664062,504.1628112792969,160.06024169921875
12366,422.0888366699219,-1009.4139404296876,505.3184509277344,174.63088989257812
12367,421.3820190429688,-1003.0187377929688,508.9386901855469,175.18064880371094
12368,415.704833984375,-1014.8442993164062,501.5187072753906,172.8768768310547
12369,410.128662109375,-1016.9573364257812,504.2675476074219,165.415771484375
12370,423.0013732910156,-1006.1490478515624,511.9268493652344,178.3894805908203
12371,430.47369384765625,-1005.6702880859376,514.1857299804689,178.87193298339844
12372,415.3944396972656,-1013.71484375,513.7145385742189,174.82162475585938
12373,409.5003356933594,-1008.7332763671876,511.5865173339844,171.5753936767578
12374,425.9409484863281,-1002.3231201171876,514.6008911132811,170.333740234375
12375,431.2665710449219,-1000.83837890625,514.92626953125,175.3078155517578
12376,417.1072998046875,-1005.1654052734376,511.5566101074219,167.7195587158203
12377,414.7511596679688,-1007.9703369140624,504.9930725097656,163.85997009277344
12378,426.6290893554688,-1003.1795654296876,511.4855346679688,166.49285888671875
12379,425.6043395996094,-998.7215576171876,508.9985046386719,167.8766326904297
12380,418.8014831542969,-1010.6929931640624,502.2218017578125,166.72474670410156
12381,411.8864135742188,-1014.8517456054688,501.4925231933594,158.8447723388672
12382,420.8995666503906,-1003.4039306640624,499.67120361328125,169.3912811279297
12383,426.8048706054688,-998.0521240234376,500.7632446289063,176.54197692871094
12384,417.3578796386719,-1008.396728515625,498.1490783691406,176.0520477294922
12385,408.3073120117188,-1016.3739013671876,500.7258605957031,177.95565795898438
12386,424.3776550292969,-1012.1553344726562,506.99017333984375,185.53643798828125
12387,419.624267578125,-1006.4444580078124,506.2833557128906,185.5551300048828
12388,408.34844970703125,-1015.2556762695312,506.6274108886719,186.98004150390625
12389,407.8622741699219,-1014.1636352539062,508.3028869628906,187.0922393798828
12390,422.2908020019531,-1008.198486328125,513.0525512695311,188.9547119140625
12391,428.23724365234375,-1005.3748779296876,521.51220703125,188.5732421875
12392,423.15472412109375,-1014.8928833007812,519.0663452148439,182.892333984375
12393,413.8460998535156,-1017.2901611328124,516.6690673828125,172.51036071777344
12394,419.3736877441406,-1010.2591552734376,524.5490112304689,175.16195678710938
12395,426.1840515136719,-1008.1573486328124,524.4181518554689,174.45510864257812
12396,421.303466796875,-1015.5286865234376,527.1370239257811,170.76382446289062
12397,409.6499328613281,-1029.7777099609377,516.5418701171875,160.82691955566406
12398,424.7366943359375,-1016.8862915039062,521.583251953125,164.3536376953125
12399,431.8499755859375,-1009.1633911132812,519.2608032226561,169.76527404785156
12400,420.880859375,-1022.118408203125,509.8437194824219,157.4049072265625
12401,418.8463439941406,-1021.2470092773438,507.1322937011719,162.33409118652344
12402,420.8995666503906,-1015.674560546875,507.16595458984375,170.47959899902344
12403,430.305419921875,-1006.7735595703124,509.4772338867188,170.66659545898438
12404,414.6352233886719,-1020.592529296875,507.68206787109375,169.97097778320312
12405,407.20404052734375,-1018.5953979492188,504.2862548828125,168.4413604736328
12406,420.3161315917969,-1002.0202026367188,510.6627807617188,180.74935913085938
12407,423.4688720703125,-1000.5279541015624,516.6204223632811,187.7467193603516
12408,412.5633239746094,-1007.9890747070312,515.6742553710939,186.2357940673828
12409,409.6574096679688,-1012.9070434570312,515.8462524414061,178.3446044921875
12410,423.2332458496094,-1001.6873168945312,519.7656860351561,188.1020050048828
12411,425.53704833984375,-1004.9260864257812,525.26708984375,183.0381774902344
12412,425.0994567871094,-1014.9564819335938,521.9834594726561,177.31239318847656
12413,416.15362548828125,-1012.458251953125,516.6390991210939,173.71835327148438
12414,419.85986328125,-1004.0360107421876,515.40869140625,167.56622314453125
12415,423.5174865722656,-995.7072143554688,517.1776733398439,169.85877990722656
12416,408.4756164550781,-1010.8201904296876,509.8250427246094,160.98025512695312
12417,412.7016906738281,-1020.7084350585938,509.2864990234375,163.9459991455078
12418,415.024169921875,-1009.219482421875,506.7059631347656,163.91607666015625
12419,423.016357421875,-1004.2005615234376,512.4579467773439,169.59698486328125
12420,412.6194152832031,-1024.1903076171877,505.655029296875,161.5749053955078
12421,410.9140319824219,-1019.0853271484376,500.6211242675781,154.26339721679688
12422,410.94769287109375,-1004.828857421875,496.6343994140625,158.6839599609375
12423,422.7657775878906,-1004.982177734375,504.316162109375,168.16085815429688
12424,412.5670776367188,-1007.8020629882812,506.7658081054688,169.0247802734375
12425,413.8423767089844,-1008.3705444335938,507.3155517578125,168.20948791503906
12426,419.09320068359375,-1006.1303100585938,510.2027587890625,172.6375274658203
12427,424.9985046386719,-997.0648193359376,515.5208740234375,174.0250244140625
12428,420.6527404785156,-1009.548583984375,513.8491821289061,169.38380432128906
12429,409.7135314941406,-1006.2537231445312,510.7824401855469,168.95745849609375
12430,423.48382568359375,-1007.0690307617188,515.07958984375,173.36306762695312
12431,434.6437072753906,-1005.3972778320312,517.5703735351561,178.0416717529297
12432,419.0370788574219,-1015.7418823242188,516.040771484375,173.2583465576172
12433,412.43243408203125,-1019.6949462890624,509.20794677734375,169.3651123046875
12434,425.10693359375,-1012.4171142578124,514.843994140625,175.8052215576172
12435,430.541015625,-1008.2134399414062,517.1066284179689,180.88026428222656
12436,413.004638671875,-1014.4254150390624,513.2058715820311,176.51205444335938
12437,413.3561706542969,-1016.4561767578124,513.3816528320311,163.4224090576172
12438,416.4490661621094,-1008.5874633789062,512.6823120117189,173.5051727294922
12439,421.42315673828125,-1009.0175170898438,509.8848571777344,176.2764434814453
12440,411.92755126953125,-1015.55859375,501.6795349121094,167.6597137451172
12441,409.6574096679688,-1021.1834106445312,498.294921875,159.96299743652344
12442,418.00860595703125,-1015.3828125,502.8127136230469,163.79640197753906
12443,422.12249755859375,-1004.6231689453124,507.98126220703125,171.4818878173828
12444,410.5475158691406,-1017.0919799804688,506.3057861328125,165.43821716308594
12445,406.0072937011719,-1017.5444946289062,502.9847412109375,162.8015899658203
12446,414.9830322265625,-1003.9425048828124,512.813232421875,175.8538360595703
12447,424.1420593261719,-1005.0794067382812,510.2214660644531,169.04721069335938
12448,411.1982727050781,-1014.5226440429688,507.356689453125,163.4298858642578
12449,411.1159973144531,-1019.12646484375,506.8705139160156,162.6594696044922
12450,423.0200805664063,-1006.3584594726562,511.9866943359375,171.41458129882812
12451,430.8514404296875,-1006.5379638671876,514.2979736328125,173.66600036621094
12452,420.8771362304688,-1016.0934448242188,511.07415771484375,169.664306640625
12453,410.5138549804688,-1016.0335693359376,502.6705932617188,169.46234130859375
12454,417.8328552246094,-1010.6705932617188,511.3583984375,171.29115295410156
12455,423.4913024902344,-1012.1740112304688,515.4535522460939,173.91656494140625
12456,413.9545593261719,-1013.445556640625,510.1092529296875,169.1444549560547
12457,406.2279357910156,-1016.366455078125,501.6271667480469,167.2034454345703
12458,414.5903625488281,-1008.5537719726562,504.7275390625,175.6705780029297
12459,416.714599609375,-1007.0316162109376,505.8869323730469,176.7514190673828
12460,403.1649475097656,-1015.7904663085938,501.253173828125,167.25955200195312
12461,399.3876647949219,-1020.7645263671876,495.77423095703125,160.96530151367188
12462,410.1604309082031,-1008.7482299804688,493.90240478515625,163.1232147216797
12463,418.4555358886719,-1006.5753784179688,495.8284606933594,161.41407775878906
12464,410.9906921386719,-1007.342041015625,494.392333984375,155.95382690429688
12465,407.4864196777344,-1008.9240112304688,492.3316650390625,157.08702087402344
12466,411.9181823730469,-1002.2221069335938,495.6115417480469,163.90859985351562
12467,423.24261474609375,-997.6370239257812,501.0755310058594,173.09005737304688
12468,413.9751281738281,-1010.3713989257812,498.8615112304688,168.79664611816406
12469,415.14947509765625,-1018.4383544921876,499.24298095703125,168.2992401123047
12470,425.1462097167969,-1007.0578002929688,506.4161071777344,180.6409149169922
12471,432.4913940429688,-1008.9165649414062,512.0072631835939,179.56007385253906
12472,422.7003173828125,-1016.3402709960938,511.9810791015625,179.8854522705078
12473,414.0274963378906,-1017.9110107421876,510.17095947265625,177.0393829345703
12474,424.0691223144531,-1008.63232421875,512.7066040039061,185.1287841796875
12475,431.4217834472656,-1001.0702514648438,517.8975830078125,188.5171356201172
12476,418.5490417480469,-1016.2318115234376,518.1818237304689,182.76890563964844
12477,414.4388732910156,-1019.549072265625,516.0575561523439,180.88400268554688
12478,424.8208312988281,-1014.500244140625,519.0158081054689,180.40155029296875
12479,436.9119567871094,-1009.6458129882812,520.9269409179689,178.41566467285156
12480,422.8536682128906,-1018.516845703125,515.4591674804689,164.7052001953125
12481,416.0545349121094,-1012.1702880859376,510.1485290527344,164.18161010742188
12482,423.35479736328125,-994.3908081054688,505.7616271972656,168.14590454101562
12483,423.9830932617188,-991.6681518554688,511.45001220703125,165.8084716796875
12484,419.5176696777344,-1002.0650634765624,508.91436767578125,155.72569274902344
12485,416.9371337890625,-1004.0958251953124,505.93365478515625,155.73316955566406
12486,423.87091064453125,-991.6494140625,497.6722412109375,163.37379455566406
12487,427.5621948242188,-989.7682495117188,503.6336364746094,170.7264404296875
12488,415.3738708496094,-1002.4539794921876,501.2513122558594,165.76731872558594
12489,409.80889892578125,-1006.7511596679688,500.29388427734375,168.9312744140625
12490,424.5104370117188,-995.0751953125,508.5889892578125,181.54969787597656
12491,430.9093933105469,-995.8680419921876,508.6750183105469,182.6754150390625
12492,411.0804443359375,-1002.6522216796876,506.74896240234375,176.72149658203125
12493,415.59075927734375,-1001.1001586914062,518.24169921875,180.81668090820312
12494,426.7057495117188,-1000.4606323242188,517.71435546875,183.42713928222656
12495,435.0008544921875,-1002.6409912109376,521.7384643554689,182.2041931152344
12496,422.0645446777344,-1011.1492919921876,513.9033813476561,167.08750915527344
12497,413.7544860839844,-1009.8814697265624,514.5130004882811,164.52194213867188
12498,432.8092651367188,-1008.737060546875,518.7278442382811,174.8253631591797
12499,446.6094970703125,-1007.6038208007812,522.6510009765625,177.54800415039062
12500,430.1427307128906,-1014.724609375,517.0785522460939,164.7912139892578
12501,416.9259033203125,-1011.2876586914062,515.9453735351561,173.0077667236328
12502,440.2329711914063,-1002.5736694335938,517.7106323242189,172.57020568847656
12503,446.4337158203125,-1008.2733154296876,512.1419067382811,166.28343200683594
12504,427.93243408203125,-1008.5014038085938,508.1476745605469,157.43856811523438
12505,423.2089538574219,-1002.9850463867188,503.4503784179688,162.55101013183594
12506,428.1531066894531,-989.8543090820312,500.9783020019531,172.5028839111328
12507,434.38751220703125,-982.9466552734376,502.0928039550781,173.95022583007812
12508,421.87005615234375,-996.5225219726562,504.33673095703125,178.40444946289062
12509,421.6568908691406,-998.3924560546876,506.4834289550781,176.54945373535156
12510,426.0138854980469,-981.66015625,505.3203125,178.12396240234375
12511,427.61456298828125,-977.5911254882812,504.87152099609375,185.61497497558597
