,T7,F8,Cz,P4
6000,401.4427185058594,-1035.567138671875,547.5942993164061,206.9473571777344
6001,404.9657287597656,-1038.5814208984377,548.0468139648439,210.7358856201172
6002,398.7986145019531,-1047.7591552734377,550.7470092773439,206.26670837402344
6003,398.5256042480469,-1041.8763427734377,552.57958984375,211.56988525390625
6004,399.348388671875,-1041.8089599609377,553.1405639648439,219.28155517578125
6005,403.1032409667969,-1043.091796875,547.216552734375,218.3690185546875
6006,389.6582946777344,-1050.5753173828123,542.9381103515625,210.78076171875
6007,395.37286376953125,-1049.9881591796877,542.0031127929689,210.6573486328125
6008,407.4078674316406,-1049.9993896484377,547.7700805664061,214.53561401367188
6009,407.1984252929688,-1049.9881591796877,543.3831787109375,209.4493560791016
6010,392.4595031738281,-1051.15869140625,544.0189208984375,203.97039794921875
6011,400.2534484863281,-1047.6395263671877,540.2528686523439,210.79571533203125
6012,406.297119140625,-1038.0877685546877,541.9171142578125,207.7664031982422
6013,405.43695068359375,-1041.3751220703123,545.3316650390625,206.0647430419922
6014,398.4021911621094,-1049.629150390625,543.0802001953125,196.8346710205078
6015,398.91455078125,-1045.4853515625,544.4752197265625,200.44741821289062
6016,402.5310363769531,-1034.1907958984377,544.2171630859375,191.6511688232422
6017,410.1080932617188,-1035.7391357421877,545.0586547851561,196.02685546875
6018,402.1458435058594,-1044.3072509765623,547.9533081054689,197.21987915039062
6019,401.8241882324219,-1036.344970703125,555.5228881835939,204.28456115722656
6020,405.94183349609375,-1029.9833984375,554.6776733398439,209.0005645751953
6021,412.9354553222656,-1033.7420654296877,553.6005859375,210.03277587890625
6022,402.5310363769531,-1033.2745361328123,553.4883422851561,209.0417022705078
6023,391.8125,-1032.05908203125,554.8085327148439,214.66651916503903
6024,401.01263427734375,-1032.201171875,546.711669921875,213.81007385253903
6025,399.5914916992188,-1030.308837890625,548.9107055664061,212.5011138916016
6026,394.2135009765625,-1037.8072509765623,544.3480224609375,213.0583648681641
6027,392.212646484375,-1033.917724609375,543.4542236328125,214.40472412109372
6028,400.3656311035156,-1030.6602783203123,544.8941040039061,215.2835998535156
6029,402.4039001464844,-1034.654541015625,541.5880126953125,212.5085906982422
6030,395.3149108886719,-1037.575439453125,540.8306884765625,212.70867919921875
6031,390.41937255859375,-1034.43017578125,540.5763549804689,207.59249877929688
6032,403.9540710449219,-1026.2734375,541.0700073242189,215.3602752685547
6033,401.9382629394531,-1026.916748046875,536.2156372070311,211.02572631835938
6034,399.3465270996094,-1032.9117431640623,532.9768676757811,202.69696044921875
6035,403.9092102050781,-1030.877197265625,537.6817016601561,206.28353881835938
6036,414.11163330078125,-1028.0947265625,544.7239379882811,210.1468505859375
6037,414.12286376953125,-1026.8680419921877,543.396240234375,212.2636260986328
6038,409.2759399414063,-1028.3902587890623,547.4390869140625,214.0849609375
6039,404.11114501953125,-1026.6324462890623,546.8145141601561,213.26593017578125
6040,406.6243591308594,-1020.6785278320312,547.4278564453125,211.2538604736328
6041,413.3150329589844,-1019.724853515625,549.4661254882811,215.5173492431641
6042,401.19775390625,-1031.6925048828123,551.3023681640625,201.53012084960938
6043,402.0130615234375,-1028.6258544921877,550.7863159179689,206.9305419921875
6044,404.2532653808594,-1028.8502197265623,547.5176391601561,211.25759887695312
6045,400.9322204589844,-1024.369873046875,546.8556518554689,206.85198974609372
6046,393.6394348144531,-1030.3125,544.0806274414061,199.73497009277344
6047,394.166748046875,-1028.4837646484377,537.6854248046875,199.39463806152344
6048,401.04443359375,-1026.980224609375,537.5732421875,201.2945098876953
6049,403.41552734375,-1026.9990234375,539.3085327148439,201.51515197753903
6050,388.51202392578125,-1036.060791015625,532.1242065429689,194.3345489501953
6051,391.0364685058594,-1029.912353515625,537.4759521484375,199.0617828369141
6052,390.1239318847656,-1027.586181640625,536.72802734375,200.2473297119141
6053,394.0209045410156,-1034.5909423828123,534.274658203125,193.8221893310547
6054,384.9104919433594,-1045.29833984375,531.6492309570311,190.14585876464844
6055,386.2718200683594,-1039.32568359375,537.9995727539061,188.60128784179688
6056,392.7306213378906,-1037.8521728515623,537.8162841796875,192.7525787353516
6057,394.8399353027344,-1036.8311767578123,536.8364868164061,185.60562133789062
6058,388.84112548828125,-1042.99072265625,533.4855346679689,180.28001403808597
6059,385.32562255859375,-1045.0477294921877,542.2630615234375,190.3104248046875
6060,393.94610595703125,-1036.322509765625,542.4351196289061,189.5399932861328
6061,398.08990478515625,-1037.870849609375,541.8965454101561,186.536865234375
6062,389.5517272949219,-1041.9586181640623,540.5651245117189,184.81651306152344
6063,390.0865173339844,-1040.279296875,542.868896484375,190.71432495117188
6064,397.9627685546875,-1034.2281494140623,546.7135620117189,193.23501586914062
6065,395.68890380859375,-1042.426025390625,539.7610473632811,192.99566650390625
6066,390.4866943359375,-1048.7801513671877,532.9619140625,188.062744140625
6067,385.7108459472656,-1046.82421875,534.1923217773439,191.9410095214844
6068,388.27642822265625,-1041.90625,530.60205078125,190.92376708984372
6069,388.60552978515625,-1042.9346923828123,528.8143920898439,191.0995330810547
6070,383.1041259765625,-1043.7313232421877,528.05517578125,186.42466735839844
6071,384.1849670410156,-1044.7822265625,532.6178588867189,195.5238342285156
6072,383.908203125,-1037.953125,528.0252685546875,195.1722869873047
6073,385.29571533203125,-1044.632568359375,528.9340209960939,190.24310302734372
6074,386.31671142578125,-1049.629150390625,532.572998046875,187.07167053222656
6075,375.78515625,-1052.1572265625,528.7283325195311,180.82603454589844
6076,381.56329345703125,-1045.477783203125,528.4104614257811,183.0662384033203
6077,383.7660827636719,-1049.45703125,529.3641357421875,186.77621459960938
6078,375.14935302734375,-1051.155029296875,528.4403686523439,182.9241180419922
6079,370.03692626953125,-1052.70703125,527.7672119140625,182.01158142089844
6080,383.2125854492188,-1046.3529052734377,532.3448486328125,186.6827087402344
6081,394.6529541015625,-1043.764892578125,531.5706787109375,191.81011962890625
6082,385.1797790527344,-1050.2462158203123,535.6882934570311,194.77212524414062
6083,385.9501953125,-1043.7313232421877,536.929931640625,202.4613494873047
6084,388.919677734375,-1036.322509765625,538.3174438476561,197.7602996826172
6085,391.36181640625,-1040.1072998046877,540.509033203125,201.02149963378903
6086,387.2629089355469,-1048.563232421875,538.0968017578125,191.99337768554688
6087,382.96575927734375,-1053.2193603515623,535.404052734375,191.5632781982422
6088,387.1843566894531,-1042.6953125,534.0315551757811,197.73411560058597
6089,393.3364868164063,-1044.3184814453123,535.9874877929689,200.5128631591797
6090,391.9901428222656,-1048.9185791015623,535.6583862304689,194.58139038085938
6091,391.81060791015625,-1046.730712890625,539.3533935546875,192.60671997070312
6092,391.4702758789063,-1046.248291015625,532.9282836914061,194.13259887695312
6093,401.1716003417969,-1046.26318359375,538.9868774414061,192.1429748535156
6094,387.81640625,-1054.068359375,535.8790283203125,186.361083984375
6095,391.53759765625,-1049.442138671875,538.0182495117189,186.9856414794922
6096,389.22259521484375,-1041.6182861328123,536.1034545898439,196.2007598876953
6097,390.9990539550781,-1043.7237548828123,534.8692626953125,192.8011932373047
6098,391.45159912109375,-1047.8638916015623,536.3914184570311,187.35215759277344
6099,392.8764953613281,-1044.370849609375,538.5081787109375,190.2318878173828
6100,398.1572265625,-1039.781982421875,537.3712768554689,198.50454711914062
6101,402.2075500488281,-1038.0877685546877,543.8375244140625,197.887451171875
6102,389.7424621582031,-1054.1693115234377,540.2771606445311,193.4668884277344
6103,394.847412109375,-1051.1885986328123,537.03466796875,196.3653106689453
6104,392.6595764160156,-1048.5333251953123,533.2461547851561,196.0362091064453
6105,391.98638916015625,-1047.5572509765623,533.6051635742189,197.92111206054688
6106,387.70794677734375,-1055.298828125,529.0200805664061,192.73013305664062
6107,393.3813781738281,-1049.595458984375,530.7852783203125,196.8814239501953
6108,393.4935607910156,-1044.9130859375,529.3903198242189,198.08567810058597
6109,393.1532287597656,-1042.5869140625,529.1023559570311,192.4571228027344
6110,391.32818603515625,-1044.4605712890623,528.2047729492189,190.96116638183597
6111,386.8477783203125,-1042.975830078125,534.7944946289061,193.21632385253903
6112,393.25048828125,-1039.781982421875,531.3911743164061,192.14671325683597
6113,397.6822509765625,-1041.954833984375,534.2821044921875,191.8811798095703
6114,389.9481506347656,-1049.453369140625,537.40869140625,191.0920562744141
6115,391.5002136230469,-1045.0028076171877,539.1626586914061,188.5451812744141
6116,396.3545837402344,-1042.3624267578123,536.8626098632811,190.4300994873047
6117,405.2331237792969,-1039.011474609375,545.109130859375,191.7166290283203
6118,393.5758666992188,-1047.2205810546877,547.7195434570311,188.23851013183597
6119,395.6440124511719,-1046.5736083984377,545.8458862304689,192.43841552734372
6120,406.9048461914063,-1035.7764892578123,554.6271362304689,201.40670776367188
6121,408.72991943359375,-1046.7568359375,553.6959228515625,198.7027587890625
6122,395.0419006347656,-1052.19091796875,548.688232421875,197.7416076660156
6123,394.1368408203125,-1045.9041748046877,546.6275024414061,200.3819732666016
6124,398.0450439453125,-1046.311767578125,540.9952392578125,197.87249755859372
6125,400.105712890625,-1043.248779296875,536.9000244140625,191.70166015625
6126,392.1734008789063,-1044.11279296875,538.8223266601561,193.9792633056641
6127,387.49102783203125,-1043.4058837890623,535.4901123046875,194.99652099609372
6128,392.2294921875,-1039.594970703125,534.6672973632811,196.94874572753903
6129,393.1120910644531,-1038.1700439453123,531.177978515625,193.661376953125
6130,389.4694519042969,-1039.45654296875,527.8943481445311,193.21632385253903
6131,386.4401245117188,-1040.2569580078123,529.5137329101561,194.083984375
6132,393.5833435058594,-1035.7615966796877,528.971435546875,197.56956481933597
6133,396.30224609375,-1033.6522216796877,528.23095703125,192.3449249267578
6134,387.37884521484375,-1041.03857421875,526.9780883789061,182.31451416015625
6135,391.6797180175781,-1040.6571044921877,534.2484741210939,185.14935302734372
6136,404.67962646484375,-1035.2379150390623,531.2303466796875,191.0359649658203
6137,401.8410339355469,-1029.66552734375,533.5191650390625,182.2060546875
6138,402.2486877441406,-1035.8101806640623,537.8836059570311,191.1519012451172
6139,404.002685546875,-1032.5003662109377,543.3775634765625,186.9856414794922
6140,406.1905212402344,-1026.299560546875,550.4235229492189,194.0054473876953
6141,405.4462890625,-1031.13525390625,551.3846435546875,196.94126892089844
6142,397.570068359375,-1032.8818359375,547.92529296875,193.8072204589844
6143,397.23345947265625,-1032.0926513671877,548.8976440429689,196.2044982910156
6144,403.26593017578125,-1030.559326171875,550.027099609375,204.62301635742188
6145,395.3597717285156,-1035.114501953125,550.7152099609375,202.59225463867188
6146,385.2283935546875,-1038.0167236328123,541.0662841796875,196.2830352783203
6147,387.909912109375,-1041.16943359375,544.5032348632811,199.7499237060547
6148,391.6759948730469,-1031.1876220703123,543.00732421875,205.32611083984372
6149,395.8609313964844,-1032.777099609375,534.4541625976561,203.5459289550781
6150,385.5425415039063,-1038.7908935546877,537.3189086914061,196.6645050048828
6151,381.8624877929688,-1035.5184326171877,538.0294799804689,197.61817932128903
6152,391.8143615722656,-1031.722412109375,536.6157836914061,202.55111694335938
6153,391.982666015625,-1037.7698974609377,539.2150268554689,196.7093811035156
6154,385.2770080566406,-1041.8201904296877,540.5875854492189,194.2672271728516
6155,390.4044189453125,-1043.8734130859377,538.5156860351561,195.44155883789062
6156,402.3384399414063,-1033.3568115234377,539.1102905273439,192.27386474609372
6157,412.159423828125,-1033.7457275390623,538.2127685546875,182.69598388671875
6158,403.9129333496094,-1039.935302734375,543.6917114257811,180.2949676513672
6159,404.6422119140625,-1034.8826904296877,546.799560546875,187.7261505126953
6160,408.8608093261719,-1027.331787109375,542.6033935546875,192.5207061767578
6161,399.3502502441406,-1028.08349609375,544.1890869140625,189.50259399414062
6162,389.69384765625,-1035.709228515625,540.5651245117189,188.4105529785156
6163,395.77490234375,-1033.644775390625,540.5875854492189,199.49935913085938
6164,395.692626953125,-1034.3665771484377,534.7982177734375,196.3204345703125
6165,393.156982421875,-1032.59765625,531.4808959960939,194.31211853027344
6166,389.177734375,-1034.12353515625,528.2496337890625,192.49452209472656
6167,390.6774291992188,-1036.3712158203123,530.9386596679689,197.7715148925781
6168,395.0830383300781,-1037.4295654296877,529.8092041015625,201.455322265625
6169,401.7886657714844,-1033.667236328125,543.5982055664061,199.52178955078125
6170,396.22369384765625,-1030.637939453125,537.5545043945311,199.09918212890625
6171,385.4976806640625,-1038.925537109375,542.12841796875,201.93402099609372
6172,389.4582214355469,-1027.82177734375,539.2412109375,201.18605041503903
6173,395.46075439453125,-1025.7984619140623,535.1160888671875,201.80686950683597
6174,387.5246887207031,-1035.114501953125,532.0045166015625,196.51116943359372
6175,389.6340026855469,-1032.6275634765623,535.9052124023439,197.9360809326172
6176,402.5067443847656,-1025.488037109375,539.6301879882811,198.3175506591797
6177,401.818603515625,-1024.2127685546877,535.3704223632811,191.8624725341797
6178,398.239501953125,-1033.03515625,540.2285766601561,189.15478515625
6179,392.3865661621094,-1029.171875,536.2193603515625,191.8026428222656
6180,395.0755615234375,-1021.0375366210938,538.336181640625,192.13548278808597
6181,393.1981201171875,-1024.1903076171877,536.2418212890625,191.454833984375
6182,386.7168884277344,-1037.661376953125,535.5873413085939,192.43841552734372
6183,384.495361328125,-1031.284912109375,534.9029541015625,193.08541870117188
6184,386.1184997558594,-1024.37353515625,539.6339111328125,201.6610107421875
6185,389.7162780761719,-1028.8839111328123,540.6698608398439,202.3416748046875
6186,381.7989196777344,-1035.712890625,536.2343139648439,198.6578826904297
6187,385.96514892578125,-1027.3056640625,537.36376953125,207.8879547119141
6188,388.4484558105469,-1028.0162353515623,544.1292724609375,207.8542938232422
6189,393.5982971191406,-1027.5338134765623,544.088134765625,203.8675537109375
6190,386.1035461425781,-1040.7841796875,543.5869750976561,195.49766540527344
6191,377.7298889160156,-1037.2911376953123,541.62353515625,195.75570678710938
6192,385.4826965332031,-1027.717041015625,543.4822387695311,192.77127075195312
6193,387.7042236328125,-1027.8553466796877,537.5171508789061,185.61685180664062
6194,380.9910888671875,-1032.5714111328123,536.8551635742189,183.20086669921875
6195,383.2200622558594,-1032.2684326171877,538.2501220703125,181.1065216064453
6196,394.271484375,-1021.7257080078124,538.9906616210939,185.2690277099609
6197,400.30767822265625,-1020.3793334960938,540.9017333984375,188.8855133056641
6198,393.650634765625,-1023.6592407226562,547.4278564453125,194.4542236328125
6199,389.764892578125,-1020.6187133789062,549.0285034179689,201.92654418945312
6200,396.80712890625,-1024.1341552734377,540.7521362304689,208.0674591064453
6201,395.10546875,-1022.4176025390624,541.8179931640625,204.78009033203125
6202,392.0611877441406,-1033.38671875,544.8323364257811,207.8131561279297
6203,388.9720458984375,-1031.98046875,541.376708984375,209.1221160888672
6204,396.6051635742188,-1026.299560546875,540.09765625,214.8965148925781
6205,392.2145385742188,-1030.8173828125,538.5642700195311,210.6554718017578
6206,381.2453918457031,-1033.9215087890623,535.7817993164061,202.5436248779297
6207,384.6188049316406,-1038.671142578125,537.9172973632811,208.33673095703125
6208,388.8860168457031,-1029.9049072265623,540.6923217773439,212.83956909179688
6209,393.47113037109375,-1029.3551025390623,535.7930297851561,205.8497009277344
6210,388.826171875,-1033.5849609375,532.46826171875,198.66162109375
6211,385.2396240234375,-1036.7713623046877,527.8607177734375,201.1112518310547
6212,389.0991821289063,-1033.3194580078123,530.826416015625,201.14865112304688
6213,391.3693237304688,-1032.0067138671877,522.680908203125,194.57015991210938
6214,380.03741455078125,-1038.1961669921877,518.454833984375,184.4350433349609
6215,381.3052368164063,-1031.636474609375,517.632080078125,184.64447021484372
6216,390.6774291992188,-1022.2418212890624,524.6967163085939,186.1591339111328
6217,399.3614807128906,-1015.4052734375,528.6049194335939,191.7166290283203
6218,395.034423828125,-1022.1969604492188,533.291015625,185.86741638183597
6219,399.0323791503906,-1024.654052734375,537.2179565429689,194.9254608154297
6220,407.3162536621094,-1019.7958984375,538.4633178710939,200.9953155517578
6221,410.0762939453125,-1027.1112060546877,537.0084838867189,200.80084228515625
6222,399.9449157714844,-1033.6185302734377,538.0968017578125,196.6420745849609
6223,398.34423828125,-1027.3468017578123,540.4566650390625,201.0738525390625
6224,404.0064392089844,-1025.58154296875,539.3272094726561,206.3209381103516
6225,402.91064453125,-1025.465576171875,539.4356689453125,203.59454345703125
6226,395.8385009765625,-1038.9927978515623,537.5844116210939,199.28244018554688
6227,397.4690856933594,-1029.2615966796877,540.7484130859375,201.0439300537109
6228,395.7001037597656,-1021.4302368164062,539.9255981445311,204.73521423339844
6229,397.2484436035156,-1021.6808471679688,534.6710815429689,202.7381134033203
6230,391.9976196289063,-1031.131591796875,537.5059204101561,194.5327606201172
6231,384.7926940917969,-1028.3939208984377,536.172607421875,194.14007568359372
6232,389.1683654785156,-1021.7406616210938,530.2747802734375,198.6578826904297
6233,392.48565673828125,-1023.4273681640624,530.3271484375,194.8805694580078
6234,385.92962646484375,-1037.2650146484377,527.7765502929689,182.3070373535156
6235,393.2934875488281,-1034.572265625,527.1856689453125,187.27362060546875
6236,396.648193359375,-1026.8194580078123,527.368896484375,192.47581481933597
6237,396.4537048339844,-1023.5844116210938,531.0339965820311,191.02099609375
6238,386.6888122558594,-1030.649169921875,526.8789672851561,188.32827758789062
6239,387.0216674804688,-1031.322265625,534.7252807617189,196.5822296142578
6240,392.1266479492188,-1021.3704223632812,539.66943359375,206.2124786376953
6241,395.111083984375,-1023.6255493164062,544.0039672851561,208.1572265625
6242,393.6001586914063,-1032.1824951171877,543.0166625976561,203.07095336914062
6243,393.6525268554688,-1028.210693359375,551.67822265625,210.6180725097656
6244,404.3149719238281,-1019.98291015625,547.029541015625,207.33444213867188
6245,403.3313903808594,-1021.7332153320312,548.918212890625,206.2124786376953
6246,396.10589599609375,-1032.93798828125,543.7908325195311,199.7686309814453
6247,398.48822021484375,-1029.16064453125,543.7833251953125,207.2746124267578
6248,403.5782165527344,-1025.6488037109377,537.5414428710939,209.02487182617188
6249,405.968017578125,-1024.7288818359377,540.8138427734375,206.23117065429688
6250,394.0302429199219,-1027.5599365234377,541.38232421875,201.74703979492188
6251,400.1861267089844,-1027.8516845703123,541.4159545898439,204.4547271728516
6252,402.8713684082031,-1018.3411254882812,541.6216430664061,211.46702575683597
6253,403.0209655761719,-1018.4046630859376,544.1311645507811,211.36605834960938
6254,395.0923767089844,-1020.6224365234376,537.5414428710939,200.6026306152344
6255,394.1349792480469,-1021.8341674804688,539.2842407226561,200.6512451171875
6256,400.8780212402344,-1021.7518920898438,530.03173828125,199.2899169921875
6257,400.7321472167969,-1017.6455078125,532.2494506835939,197.82388305664062
6258,393.5403137207031,-1017.4734497070312,530.760986328125,189.8391876220703
6259,388.69342041015625,-1016.5534057617188,525.4690551757811,188.96405029296875
6260,395.5673522949219,-1010.8126831054688,528.554443359375,190.9948272705078
6261,393.4543151855469,-1012.3721923828124,538.027587890625,196.63833618164062
6262,395.4626159667969,-1024.9420166015623,540.234130859375,197.0871124267578
6263,394.1499328613281,-1029.26904296875,537.62744140625,199.0393524169922
6264,402.0111999511719,-1027.739501953125,534.867431640625,203.01112365722656
6265,407.2470703125,-1031.569091796875,534.9646606445311,204.28268432617188
6266,397.1231384277344,-1033.3194580078123,535.0431518554689,204.3051300048828
6267,391.2552490234375,-1031.206298828125,529.9906005859375,206.77719116210938
6268,406.1737060546875,-1025.1177978515623,528.6591796875,207.7420959472656
6269,402.8003234863281,-1024.2725830078123,531.3369140625,205.8609161376953
6270,397.5868835449219,-1029.59814453125,538.4053344726561,207.3718414306641
6271,404.96197509765625,-1024.631591796875,544.10498046875,211.2837829589844
6272,409.4199523925781,-1022.7205200195312,539.16455078125,209.8925323486328
6273,404.9283142089844,-1023.0758056640624,538.33056640625,205.72254943847656
6274,399.3296813964844,-1029.2467041015623,535.9071044921875,198.4895782470703
6275,398.5779724121094,-1024.44091796875,538.072509765625,198.45965576171875
6276,403.1369018554688,-1015.4127807617188,543.21484375,193.6912841796875
6277,407.7108154296875,-1022.929931640625,544.4602661132811,195.28448486328125
6278,395.1784057617188,-1026.9990234375,539.5460205078125,190.84523010253903
6279,393.4543151855469,-1024.9195556640623,540.35009765625,201.4104461669922
6280,399.99163818359375,-1018.0792846679688,543.4168090820311,204.5856170654297
6281,397.8786010742188,-1015.2332153320312,541.9619750976561,198.63169860839844
6282,392.0406188964844,-1016.2991333007812,539.833984375,196.8739471435547
6283,394.254638671875,-1021.273193359375,542.9006958007811,205.0194396972656
6284,396.801513671875,-1010.8126831054688,541.8385620117189,212.1963195800781
6285,396.648193359375,-1012.7947998046876,548.1365966796875,209.9785461425781
6286,390.1407470703125,-1019.5191650390624,541.5281372070311,201.8330535888672
6287,393.86944580078125,-1023.5321044921876,544.0974731445311,205.76742553710938
6288,396.1694641113281,-1020.7533569335938,540.5819702148439,208.1011199951172
6289,399.2586364746094,-1021.6509399414062,532.1634521484375,206.88938903808597
6290,394.7071838378906,-1027.7880859375,538.6409912109375,200.4866943359375
6291,391.7489013671875,-1027.8778076171877,533.248046875,198.26144409179688
6292,398.35357666015625,-1021.6845703125,539.7703857421875,201.9751739501953
6293,404.6814880371094,-1026.026611328125,536.6550903320311,198.67657470703125
6294,391.9882507324219,-1034.3515625,534.6392822265625,194.8917999267578
6295,389.82659912109375,-1036.0570068359377,533.7791137695311,194.1699981689453
6296,399.7261047363281,-1024.8336181640623,534.9908447265625,199.5517120361328
6297,398.2974853515625,-1023.36376953125,536.6475830078125,196.56727600097656
6298,391.01214599609375,-1027.90771484375,533.0872192382811,190.01123046875
6299,391.5058288574219,-1021.8004760742188,540.4697875976561,196.9824066162109
6300,400.4105224609375,-1012.8995361328124,534.6168212890625,192.01580810546875
6301,400.4179992675781,-1015.6109619140624,543.4691772460939,199.85464477539062
6302,396.0871887207031,-1023.150634765625,541.5020141601561,196.0399475097656
6303,399.4942321777344,-1023.40869140625,549.7073364257811,200.8531951904297
6304,403.4585266113281,-1016.332763671875,548.16650390625,201.7021484375
6305,405.0704345703125,-1013.6475219726562,549.1089477539061,202.58477783203125
6306,398.9033508300781,-1022.1408081054688,540.0658569335939,193.74365234375
6307,399.2436828613281,-1018.352294921875,542.8857421875,198.77755737304688
6308,405.5566101074219,-1019.5678100585938,543.4579467773439,201.9676818847656
6309,404.93206787109375,-1019.593994140625,544.5126342773439,203.919921875
6310,393.83203125,-1028.0872802734377,539.8190307617189,204.1293487548828
6311,393.40570068359375,-1030.27880859375,545.2232055664061,206.5004425048828
6312,407.3554992675781,-1023.8724365234376,547.7177124023439,209.2530059814453
6313,410.8672790527344,-1025.7274169921877,545.5074462890625,209.48487854003903
6314,394.759521484375,-1031.4755859375,543.8955078125,204.02462768554688
6315,396.2367858886719,-1029.9796142578123,547.4783325195311,213.3706359863281
6316,404.4982299804688,-1022.8214721679688,545.4288940429689,211.0893096923828
6317,406.6935424804688,-1029.2017822265623,546.3787841796875,213.6997528076172
6318,391.6142883300781,-1032.919189453125,543.5402221679689,200.3109130859375
6319,393.6787109375,-1030.9371337890623,543.2896728515625,204.6903381347656
6320,392.8634033203125,-1015.981201171875,539.4263305664061,205.67393493652344
6321,396.7716064453125,-1014.5712890625,542.1265258789061,210.3974151611328
6322,391.109375,-1018.4420776367188,545.208251953125,202.2407073974609
6323,392.6165771484375,-1013.5615234375,544.6285400390625,205.6066131591797
6324,399.6288757324219,-1013.0341796875,546.7864379882811,204.73521423339844
6325,403.4286193847656,-1016.4935913085938,547.4297485351561,206.27978515625
6326,395.75433349609375,-1022.1931762695312,541.3673706054689,200.20245361328125
6327,395.3242492675781,-1025.1402587890623,541.6553344726561,207.7832336425781
6328,398.7238159179688,-1027.0325927734377,539.3777465820311,206.6687469482422
6329,398.7911376953125,-1031.2213134765623,538.5250244140625,205.4832000732422
6330,392.6950988769531,-1031.262451171875,536.9841918945311,207.11004638671875
6331,394.01153564453125,-1034.0972900390623,533.461181640625,205.93946838378903
6332,397.3101501464844,-1025.1962890625,536.1688842773439,205.04188537597656
6333,400.1748962402344,-1025.1065673828123,538.5137939453125,210.38619995117188
6334,386.7823181152344,-1034.2169189453123,533.3003540039061,202.54737854003903
6335,387.0067138671875,-1032.4442138671877,537.287109375,201.0514068603516
6336,394.441650390625,-1028.8240966796877,531.957763671875,203.5309600830078
6337,398.7013854980469,-1031.8458251953123,535.6453247070311,201.34312438964844
6338,389.3067626953125,-1041.932373046875,530.1925048828125,191.88491821289062
6339,398.3086853027344,-1037.859619140625,537.0440063476561,193.908203125
6340,397.93096923828125,-1034.774169921875,531.3369140625,195.1498565673828
6341,405.3471984863281,-1035.58203125,537.5077514648439,193.88949584960938
6342,390.30157470703125,-1041.7716064453123,530.6600341796875,180.45204162597656
6343,386.22882080078125,-1032.635009765625,540.31640625,188.9042205810547
6344,398.65277099609375,-1029.0521240234377,546.2927856445311,189.6895904541016
6345,394.4528503417969,-1025.6226806640623,546.4722900390625,197.6817626953125
6346,390.0622253417969,-1039.770751953125,540.4884643554689,191.3239288330078
6347,392.4071350097656,-1033.3006591796877,538.4652099609375,191.8250732421875
6348,405.0480041503906,-1030.8472900390623,541.3972778320311,200.4231109619141
6349,398.3760070800781,-1040.38037109375,539.3739624023439,191.795166015625
6350,392.8559265136719,-1047.8077392578123,540.6268310546875,192.99940490722656
6351,389.7218933105469,-1048.537109375,538.6222534179689,189.43528747558597
6352,399.5765075683594,-1037.3472900390623,537.0926513671875,200.84945678710938
6353,400.37310791015625,-1041.49853515625,536.875732421875,192.4683380126953
6354,395.3766174316406,-1045.25341796875,533.8052978515625,193.2499847412109
6355,400.27587890625,-1048.0284423828123,535.9482421875,194.05780029296875
6356,402.6170654296875,-1039.351806640625,542.0255737304689,202.3491516113281
6357,404.5094604492188,-1037.9942626953123,540.9223022460939,201.64979553222656
6358,388.843017578125,-1044.819580078125,535.5405883789061,196.1558837890625
6359,386.812255859375,-1046.2894287109377,533.5135498046875,195.36676025390625
6360,394.6996765136719,-1040.5635986328123,533.7865600585939,202.32672119140625
6361,392.7325134277344,-1046.6072998046877,532.6010131835939,203.68055725097656
6362,385.3536682128906,-1045.7283935546877,535.7462768554689,194.09146118164062
6363,384.0260314941406,-1037.0966796875,539.4076538085939,192.8011932373047
6364,395.0063781738281,-1031.13525390625,536.8270874023439,195.5350646972656
6365,396.2480163574219,-1030.933349609375,534.5794067382811,194.30462646484372
6366,390.2529602050781,-1039.0377197265623,539.1009521484375,186.00205993652344
6367,396.8912658691406,-1039.9876708984377,538.4464721679689,194.7982940673828
6368,399.44561767578125,-1036.8460693359377,542.440673828125,191.6081695556641
6369,397.5682067871094,-1032.54150390625,536.2511596679689,192.60671997070312
6370,389.2843017578125,-1043.86962890625,534.3438110351561,187.7074432373047
6371,391.109375,-1039.65478515625,535.5704956054689,193.9456024169922
6372,401.7980346679688,-1034.762939453125,536.512939453125,202.3454132080078
6373,402.0635681152344,-1038.8619384765623,537.5526733398439,204.63796997070312
6374,392.6390075683594,-1045.4442138671877,533.3452758789061,195.0563507080078
6375,390.4810791015625,-1043.084228515625,534.5345458984375,200.3146514892578
6376,402.1869812011719,-1037.48193359375,537.907958984375,204.73895263671875
6377,399.28106689453125,-1038.6600341796877,533.6930541992189,205.65896606445312
6378,393.76470947265625,-1042.9234619140623,538.9140014648439,200.5166015625
6379,396.4424743652344,-1041.5172119140623,541.86474609375,198.16421508789062
6380,407.2657470703125,-1030.6865234375,543.5477294921875,201.81060791015625
6381,407.9052734375,-1032.5714111328123,549.0453491210939,199.32357788085938
6382,397.2652587890625,-1039.5762939453123,540.0396728515625,195.2545623779297
6383,404.4907531738281,-1027.8741455078123,543.5252685546875,194.23731994628903
6384,401.730712890625,-1022.7803344726562,544.7781372070311,197.1320037841797
6385,404.0830993652344,-1023.962158203125,543.6561889648439,197.75282287597656
6386,396.48736572265625,-1031.88330078125,549.4044189453125,198.59429931640625
6387,403.70538330078125,-1033.1884765625,550.8106079101561,196.7168731689453
6388,408.9711608886719,-1031.142822265625,546.98095703125,203.9947204589844
6389,402.3777160644531,-1028.91748046875,543.5701293945311,200.96913146972656
6390,392.6801452636719,-1033.764404296875,543.155029296875,200.72604370117188
6391,391.6666259765625,-1030.794921875,541.2700805664061,205.6402740478516
6392,403.73529052734375,-1027.5225830078123,538.0164184570311,203.45242309570312
6393,402.0299072265625,-1027.1148681640623,536.3671264648439,199.4208221435547
6394,389.4937438964844,-1032.9490966796877,532.6795654296875,191.7166290283203
6395,386.3896484375,-1032.941650390625,532.4290161132811,189.72698974609372
6396,394.39300537109375,-1025.0953369140623,533.988525390625,193.05177307128903
6397,399.62139892578125,-1021.3517456054688,533.6557006835939,199.30113220214844
6398,389.1870727539063,-1034.4189453125,529.751220703125,190.5909118652344
6399,389.43389892578125,-1035.8101806640623,530.9554443359375,194.2859344482422
6400,402.5572204589844,-1025.334716796875,536.0679321289061,199.7499237060547
6401,399.7897033691406,-1027.6160888671877,534.2091674804689,198.0407867431641
6402,389.2731018066406,-1033.4166259765623,528.707763671875,189.30064392089844
6403,393.3121948242188,-1029.2242431640623,534.4298095703125,192.9021759033203
6404,393.1551208496094,-1024.280029296875,532.4439697265625,194.22982788085938
6405,407.1759948730469,-1025.959228515625,536.7747802734375,187.62142944335938
6406,394.3780517578125,-1036.8797607421877,537.45166015625,176.55506896972656
6407,390.4810791015625,-1028.30419921875,537.8107299804689,178.01736450195312
6408,402.4786987304688,-1020.9664916992188,540.7465209960939,186.72386169433597
6409,408.668212890625,-1025.0355224609377,541.5505981445311,186.2414093017578
6410,400.1075744628906,-1035.52587890625,540.70166015625,188.63494873046875
6411,398.3572998046875,-1031.6065673828123,537.1076049804689,191.7053985595703
6412,402.4300537109375,-1018.9469604492188,533.8389282226561,198.3512115478516
6413,398.8659362792969,-1020.1773681640624,539.9349365234375,196.16336059570312
6414,394.1387023925781,-1021.766845703125,537.2572021484375,196.7991485595703
6415,391.9022521972656,-1024.710205078125,541.595458984375,206.6911773681641
6416,399.0118103027344,-1018.3373413085938,541.3897705078125,207.02029418945312
6417,396.9585876464844,-1025.74609375,540.421142578125,205.12042236328125
6418,382.0550842285156,-1029.1456298828123,533.36767578125,197.8799743652344
6419,383.9661865234375,-1029.302734375,535.8248291015625,199.6751251220703
6420,390.7578430175781,-1021.4451904296876,531.8455810546875,199.5928497314453
6421,392.1827392578125,-1026.15380859375,532.7393798828125,192.2551727294922
6422,377.3091430664063,-1027.7806396484377,529.9681396484375,184.42007446289062
6423,388.1997375488281,-1019.32470703125,536.3858032226561,188.57884216308597
6424,398.6976318359375,-1015.6334228515624,538.7232666015625,188.7471466064453
6425,398.12542724609375,-1016.2355346679688,539.49365234375,186.78369140625
6426,387.4891662597656,-1024.24267578125,533.0684814453125,181.33465576171875
6427,385.4584045410156,-1026.696044921875,536.2586669921875,183.4028167724609
6428,400.0514831542969,-1020.1212768554688,539.6432495117189,189.88406372070312
6429,403.1181945800781,-1020.0203247070312,540.5632934570311,193.6875457763672
6430,395.4289855957031,-1026.6324462890623,538.753173828125,189.08372497558597
6431,386.72247314453125,-1021.7294311523438,536.1651611328125,193.79226684570312
6432,394.0938415527344,-1016.5927124023438,531.5687866210939,193.37527465820312
6433,394.935302734375,-1018.264404296875,529.1266479492189,195.5257110595703
6434,384.5346374511719,-1025.3814697265623,531.1199951171875,190.862060546875
6435,385.1517333984375,-1026.35009765625,536.4007568359375,191.2285614013672
6436,396.06475830078125,-1022.9916381835938,534.72900390625,195.604248046875
6437,391.9508666992188,-1027.935791015625,526.3516235351561,186.58360290527344
6438,380.8134460449219,-1036.399169921875,520.2930297851561,177.7574462890625
6439,383.6408081054688,-1033.0594482421877,521.3963012695311,181.7105255126953
6440,390.4586486816406,-1024.12109375,523.801025390625,190.0205841064453
6441,387.0815124511719,-1030.0787353515623,524.0142211914061,185.4055328369141
6442,374.0404968261719,-1032.1357421875,514.541015625,178.93177795410156
6443,373.6066589355469,-1040.42333984375,516.9083862304689,178.32965087890625
6444,384.1083068847656,-1025.377685546875,521.6356201171875,187.1071929931641
6445,381.9578552246094,-1029.155029296875,520.19580078125,188.2254180908203
6446,370.9288940429688,-1031.0623779296877,520.5697631835939,184.72488403320312
6447,378.5919494628906,-1024.7120361328123,522.1554565429689,190.5478973388672
6448,387.3956604003906,-1014.7863159179688,525.4989624023439,192.892822265625
6449,392.50811767578125,-1019.3527221679688,526.7630615234375,190.6451416015625
6450,384.9647216796875,-1028.7884521484377,531.0227661132811,189.04820251464844
6451,385.4023132324219,-1024.5623779296877,536.9505004882811,194.01104736328125
6452,397.0595703125,-1011.8168334960938,535.5704956054689,194.1269836425781
6453,396.24053955078125,-1019.03857421875,538.214599609375,198.1885223388672
6454,393.78717041015625,-1026.409912109375,536.8794555664061,193.8726806640625
6455,393.7160949707031,-1027.509521484375,539.3440551757811,205.06993103027344
6456,402.0971984863281,-1018.6234741210938,546.1282348632811,213.78016662597656
6457,393.5365905761719,-1017.6211547851562,549.774658203125,214.68521118164062
6458,389.0412292480469,-1028.3583984375,545.3241577148439,206.2255706787109
6459,387.1114196777344,-1023.1599731445312,544.1909790039061,209.95797729492188
6460,390.8251647949219,-1022.393310546875,538.6185302734375,206.77532958984372
6461,392.5043640136719,-1017.85302734375,536.7672729492189,203.24859619140625
6462,388.1548767089844,-1024.1734619140623,543.7047729492189,202.87461853027344
6463,382.986328125,-1028.508056640625,535.2862548828125,197.9903106689453
6464,389.3927612304688,-1023.0851440429688,533.2293090820311,204.4678039550781
6465,386.0455627441406,-1032.7901611328123,527.6793212890625,194.3813018798828
6466,378.4685363769531,-1039.552001953125,528.5208129882811,186.98751831054688
6467,383.5435791015625,-1041.0740966796877,527.6830444335939,188.33387756347656
6468,395.0699462890625,-1028.747314453125,531.052734375,186.98377990722656
6469,397.7028198242188,-1026.5146484375,529.0443725585939,181.5235290527344
6470,384.74407958984375,-1037.6595458984377,527.6232299804689,177.72752380371094
6471,385.37237548828125,-1034.2076416015623,529.2388305664061,184.29852294921875
6472,392.7923278808594,-1028.9268798828123,532.2794189453125,185.7234344482422
6473,390.1220397949219,-1032.7752685546877,525.5064086914061,178.46803283691406
6474,380.8545837402344,-1037.2369384765623,520.2032470703125,178.21371459960938
6475,383.8652038574219,-1032.984619140625,524.9192504882811,180.56236267089844
6476,396.7416687011719,-1023.896728515625,524.679931640625,192.3243560791016
6477,398.0693359375,-1032.2254638671877,533.625732421875,191.0041656494141
6478,396.31158447265625,-1041.0927734375,531.6585693359375,193.81283569335938
6479,386.0306091308594,-1043.08984375,528.3412475585939,192.75070190429688
6480,393.5253601074219,-1032.11328125,526.1796264648439,198.4989318847656
6481,394.078857421875,-1036.2608642578123,527.5783081054689,195.9371032714844
6482,382.6011047363281,-1046.104248046875,525.4840087890625,189.23146057128903
6483,382.4178466796875,-1041.3433837890623,527.8775024414061,192.5562286376953
6484,391.9359130859375,-1032.5770263671877,526.2506713867189,197.70980834960938
6485,388.7120971679688,-1031.77294921875,524.9828491210939,191.88677978515625
6486,378.5096740722656,-1035.1949462890623,526.1422119140625,187.94866943359372
6487,380.4618835449219,-1035.026611328125,528.9696044921875,189.98318481445312
6488,387.5602111816406,-1025.014892578125,531.3668823242189,188.84625244140625
6489,385.791259765625,-1028.747314453125,532.2532348632811,182.68663024902344
6490,386.954345703125,-1042.4541015625,537.545166015625,175.95108032226562
6491,384.3551330566406,-1034.5592041015623,535.8285522460939,179.10006713867188
6492,397.7589416503906,-1027.475830078125,537.3357543945311,182.94468688964844
6493,392.4744567871094,-1033.1529541015623,540.4622802734375,185.80197143554688
6494,386.43450927734375,-1031.4625244140623,541.8497924804689,185.0839080810547
6495,389.1534118652344,-1039.944580078125,543.1624755859375,184.0068206787109
6496,398.9631652832031,-1036.7470703125,543.2447509765625,191.83816528320312
6497,393.2224426269531,-1038.7666015625,537.60498046875,181.5160369873047
6498,388.9477233886719,-1037.0462646484377,538.4053344726561,178.84201049804688
6499,387.0291442871094,-1042.360595703125,530.71240234375,185.62245178222656
6500,398.996826171875,-1037.8128662109377,529.3248901367189,191.88677978515625
6501,395.3541870117188,-1037.1995849609377,529.0630493164061,186.85662841796875
6502,386.2550048828125,-1043.3330078125,522.6229858398439,185.932861328125
6503,385.4845886230469,-1041.6239013671877,523.3560180664061,186.13482666015625
6504,402.83770751953125,-1031.24560546875,525.5288696289061,195.49952697753903
6505,390.2940979003906,-1036.245849609375,524.5377807617189,192.1485748291016
6506,391.1393127441406,-1044.8251953125,527.4287109375,189.4782867431641
6507,391.1729736328125,-1040.3934326171877,526.9276123046875,197.1750030517578
6508,397.79632568359375,-1026.2154541015623,530.0167236328125,199.56854248046875
6509,392.5193176269531,-1032.6817626953123,536.7672729492189,195.780029296875
6510,395.8441162109375,-1036.724609375,538.9513549804689,199.47879028320312
6511,395.264404296875,-1037.607177734375,541.3635864257811,200.0958709716797
6512,408.9748840332031,-1022.853271484375,545.1184692382811,205.63092041015625
6513,410.6503601074219,-1027.7413330078123,550.2832641601561,202.6053466796875
6514,399.0978088378906,-1031.0062255859377,549.939208984375,200.2791290283203
6515,400.6611022949219,-1027.4495849609377,547.2240600585939,199.52740478515625
6516,407.0899658203125,-1024.4501953125,543.5850830078125,200.02854919433597
6517,406.95159912109375,-1029.1737060546877,542.3733520507811,203.409423828125
6518,395.6234436035156,-1035.2398681640623,542.74365234375,197.9229888916016
6519,394.1648864746094,-1034.67138671875,537.8668212890625,195.4022979736328
6520,398.6191101074219,-1028.0704345703123,531.2022705078125,198.491455078125
6521,396.9286804199219,-1034.8919677734377,532.0848999023439,198.56625366210938
6522,397.6280212402344,-1040.8385009765623,531.935302734375,198.1772918701172
6523,400.2684020996094,-1041.6650390625,533.5845947265625,201.93589782714844
6524,405.7585754394531,-1035.5950927734377,534.5682373046875,203.58518981933597
6525,404.7899475097656,-1039.177978515625,531.5202026367189,200.1444854736328
6526,397.6803894042969,-1041.3658447265623,528.1766967773439,205.53741455078125
6527,400.1636962890625,-1039.944580078125,535.2002563476561,210.3618927001953
6528,405.0704345703125,-1031.010009765625,542.0068969726561,211.27069091796875
6529,400.7994689941406,-1036.2010498046877,537.9229125976561,206.67808532714844
6530,396.5097961425781,-1043.2208251953123,539.7666625976561,202.0032196044922
6531,398.9631652832031,-1039.2452392578123,541.1953125,196.8459014892578
6532,405.2948303222656,-1034.0543212890623,544.2994384765625,201.202880859375
6533,407.2283630371094,-1034.8284912109377,546.2254638671875,192.387939453125
6534,398.93701171875,-1037.7867431640623,548.1104125976561,191.61376953125
6535,398.2900085449219,-1028.56787109375,549.1388549804689,199.2132568359375
6536,410.2801208496094,-1017.1424560546876,550.71337890625,203.24485778808597
6537,410.194091796875,-1028.803466796875,549.0565795898439,208.5966644287109
6538,401.05377197265625,-1041.08154296875,548.5965576171875,201.9957427978516
6539,403.9596862792969,-1046.7999267578123,545.1895141601561,211.884033203125
6540,412.5278015136719,-1032.9921875,544.6434936523439,218.24560546875
6541,412.0677795410156,-1037.652099609375,541.3972778320311,215.17514038085938
6542,405.52294921875,-1045.775146484375,539.1271362304689,209.52789306640625
6543,405.0816650390625,-1042.8580322265623,540.245361328125,211.2108459472656
6544,407.74072265625,-1033.908447265625,540.432373046875,218.44381713867188
6545,403.5931701660156,-1043.3067626953123,539.130859375,213.7876434326172
6546,402.82275390625,-1044.567138671875,536.853271484375,209.2137451171875
6547,399.16888427734375,-1047.057861328125,540.4360961914061,202.90452575683597
6548,413.55999755859375,-1037.4912109375,550.3767700195311,205.2531890869141
6549,409.689208984375,-1039.2452392578123,543.2522583007811,201.25523376464844
6550,398.6752014160156,-1045.128173828125,542.9493408203125,191.12759399414062
6551,400.0664367675781,-1040.62158203125,543.3943481445311,194.2317047119141
6552,402.6133117675781,-1031.22314453125,545.4774780273439,201.7638702392578
6553,401.5736389160156,-1034.753662109375,540.9896240234375,197.10394287109372
6554,393.5515441894531,-1038.66552734375,545.0586547851561,198.5363311767578
6555,395.6720581054688,-1039.780029296875,549.8793334960939,200.43994140625
6556,413.91156005859375,-1034.016845703125,553.6155395507811,212.0897216796875
6557,413.6722106933594,-1032.4722900390623,558.0809326171875,214.24017333984372
6558,405.5079956054688,-1047.36083984375,557.2731323242189,214.5169219970703
6559,408.6869201660156,-1042.1998291015623,555.1301879882811,219.6705017089844
6560,410.0370178222656,-1036.7320556640623,550.5338134765625,215.9156494140625
6561,410.38482666015625,-1046.3548583984377,548.1328125,217.0151672363281
6562,406.6187438964844,-1049.4365234375,547.5493774414061,213.03591918945312
6563,405.1265258789063,-1047.73486328125,537.3132934570311,208.0281982421875
6564,411.719970703125,-1040.0306396484377,540.4735107421875,214.28504943847656
6565,412.6923522949219,-1042.4840087890623,536.711181640625,211.80923461914062
6566,400.1898498535156,-1046.68017578125,539.3814697265625,203.1887664794922
6567,400.1300354003906,-1044.3502197265623,537.2496948242189,209.512939453125
6568,402.9237365722656,-1039.23779296875,539.3777465820311,203.2299041748047
6569,413.7769165039063,-1039.0283203125,541.4496459960939,206.29661560058597
6570,399.9131164550781,-1048.673583984375,545.3241577148439,205.8665313720703
6571,405.7174377441406,-1039.3350830078123,549.281005859375,205.3429412841797
6572,409.0347290039063,-1034.4095458984377,544.3966674804689,207.72152709960938
6573,406.4093322753906,-1037.8802490234377,547.4783325195311,207.6953430175781
6574,398.25634765625,-1044.85888671875,540.948486328125,208.7126007080078
6575,400.3469543457031,-1036.49267578125,543.2373046875,210.7059631347656
6576,411.66387939453125,-1030.340576171875,544.4789428710939,207.9085235595703
6577,411.0430603027344,-1037.9774169921877,544.7930908203125,209.7896881103516
6578,405.4107666015625,-1040.22509765625,544.318115234375,205.8852386474609
6579,406.4093322753906,-1039.121826171875,551.3828125,206.2741851806641
6580,412.1014404296875,-1034.260009765625,546.2741088867189,208.9930877685547
6581,405.4182434082031,-1039.2490234375,545.455078125,204.5538330078125
6582,401.8989868164063,-1041.6761474609377,543.1924438476561,204.9839172363281
6583,397.3961486816406,-1044.3988037109377,545.3316650390625,206.1245880126953
6584,407.5163269042969,-1035.247314453125,543.4990844726561,208.25259399414062
6585,406.2185974121094,-1036.31689453125,539.7142944335939,204.8642425537109
6586,400.39556884765625,-1049.9488525390623,535.162841796875,199.336669921875
6587,399.6288757324219,-1043.1123046875,541.1803588867189,210.26840209960938
6588,405.8446044921875,-1039.8885498046877,540.937255859375,207.41485595703125
6589,407.42657470703125,-1050.1619873046877,540.2042236328125,204.254638671875
6590,402.8863220214844,-1056.6395263671877,537.3319702148439,199.1496734619141
6591,402.3664855957031,-1041.4742431640623,538.9476318359375,199.160888671875
6592,414.6408386230469,-1040.7935791015623,543.2223510742189,207.1680145263672
6593,406.7945251464844,-1046.575439453125,546.30029296875,203.7834014892578
6594,397.0558166503906,-1044.37646484375,541.2252197265625,197.70606994628903
6595,394.1050415039063,-1047.4244384765623,540.3388671875,195.57058715820312
6596,400.8293762207031,-1037.992431640625,537.6536254882811,199.42642211914062
6597,399.1950378417969,-1041.23486328125,537.556396484375,199.4376373291016
6598,394.359375,-1049.7843017578123,538.3492431640625,197.4255828857422
6599,394.3219604492188,-1046.19775390625,536.0604248046875,199.9537506103516
6600,406.1549987792969,-1038.1083984375,547.1080932617189,209.64756774902344
6601,395.7393798828125,-1042.3531494140623,537.9453125,204.87545776367188
6602,391.8498840332031,-1050.4874267578123,534.6392822265625,204.6435852050781
6603,395.7954711914063,-1049.3392333984377,540.31640625,208.18527221679688
6604,402.1233825683594,-1044.5970458984377,535.1478881835939,207.11566162109372
6605,403.0097351074219,-1046.841064453125,538.9439086914061,202.75868225097656
6606,395.6945190429688,-1052.4844970703123,535.3872680664061,200.3202667236328
6607,393.7198486328125,-1050.1171875,536.4344482421875,190.6451416015625
6608,407.7594299316406,-1035.2958984375,539.9573974609375,198.58120727539062
6609,402.2991638183594,-1043.3067626953123,537.7545776367189,198.0800628662109
6610,394.3855285644531,-1045.9359130859377,542.0255737304689,196.5018310546875
6611,403.2977294921875,-1044.720458984375,545.526123046875,195.3985595703125
6612,410.1342468261719,-1035.1800537109377,547.5194702148439,200.24920654296875
6613,410.05572509765625,-1039.626708984375,545.0997924804689,198.62982177734372
6614,401.4090576171875,-1043.5985107421877,548.3235473632811,201.1617431640625
6615,403.0583801269531,-1042.0838623046877,548.1515502929689,206.8688201904297
6616,406.07647705078125,-1039.6641845703123,549.36328125,211.17344665527344
6617,408.98236083984375,-1045.8760986328123,548.8209838867189,213.2827606201172
6618,400.7545776367188,-1053.1988525390623,545.1221923828125,208.151611328125
6619,397.1455993652344,-1043.4788818359377,547.3661499023439,210.1150665283203
6620,406.67486572265625,-1041.818359375,548.6900634765625,215.3209991455078
6621,406.5140380859375,-1045.0682373046877,548.2076416015625,212.1869659423828
6622,400.2684020996094,-1049.7843017578123,540.2117309570311,197.88185119628903
6623,398.1703186035156,-1048.39306640625,540.87744140625,205.2382354736328
6624,412.049072265625,-1041.242431640625,542.5753173828125,207.48216247558597
6625,410.298828125,-1044.4774169921877,540.009765625,203.83203125
6626,398.0431518554688,-1053.5989990234377,535.9818725585939,193.93251037597656
6627,398.3199157714844,-1049.6683349609377,537.1412353515625,198.3081970214844
6628,403.52960205078125,-1046.070556640625,539.3777465820311,195.3985595703125
6629,397.07452392578125,-1050.63330078125,535.8472290039061,192.0887451171875
6630,394.92034912109375,-1046.4407958984377,540.1182250976561,195.6079864501953
6631,401.96630859375,-1046.5118408203123,542.3995361328125,196.6027984619141
6632,405.6950073242188,-1040.3037109375,544.8903198242189,199.23568725585938
6633,399.0604248046875,-1039.8193359375,540.80078125,191.68109130859372
6634,394.1947937011719,-1044.94677734375,538.336181640625,192.79183959960938
6635,394.40423583984375,-1047.60205078125,533.5752563476561,195.15919494628903
6636,398.0319519042969,-1040.1297607421877,535.9351196289061,205.6197052001953
6637,406.1849365234375,-1045.1075439453123,539.675048828125,203.84698486328125
6638,394.841796875,-1049.2252197265623,537.6854248046875,206.7304534912109
6639,402.1271362304688,-1045.6947021484377,539.0317993164061,206.99598693847656
6640,406.2185974121094,-1038.7198486328123,538.7811889648439,216.5102844238281
6641,407.97259521484375,-1042.306396484375,541.9713134765625,210.77328491210938
6642,399.0940856933594,-1051.132568359375,541.6871337890625,216.6710968017578
6643,403.6044006347656,-1041.405029296875,544.4733276367189,220.10433959960938
6644,405.0666809082031,-1031.471923828125,551.0405883789061,225.6094665527344
6645,405.87451171875,-1035.451171875,550.4197998046875,218.26055908203125
6646,397.0184326171875,-1044.9766845703123,550.8760375976561,219.7191162109375
6647,403.4772338867188,-1035.136962890625,550.7638549804689,215.8296203613281
6648,404.2700805664063,-1026.8455810546877,549.5072631835939,213.21917724609372
6649,405.0666809082031,-1035.664306640625,551.0929565429689,212.9499053955078
6650,406.2447509765625,-1041.427490234375,551.9157104492189,203.4505615234375
6651,407.669677734375,-1037.9456787109377,548.2730712890625,203.58518981933597
6652,413.1000061035156,-1033.162353515625,547.4989013671875,209.8383026123047
6653,416.5855712890625,-1036.8685302734377,550.0083618164061,208.832275390625
6654,409.0496826171875,-1046.12109375,545.120361328125,204.77447509765625
6655,412.9728393554688,-1038.443115234375,545.6925659179689,213.9222717285156
6656,416.7052612304688,-1035.279052734375,545.3372802734375,210.4778289794922
6657,411.9518432617188,-1042.130615234375,545.2923583984375,208.21519470214844
6658,404.5730285644531,-1051.40185546875,541.7544555664061,200.13327026367188
6659,399.3184814453125,-1051.405517578125,538.0706176757811,203.5664978027344
6660,402.1869812011719,-1047.168212890625,537.7826538085939,207.45599365234372
6661,402.9274597167969,-1057.1986083984377,540.322021484375,200.5184783935547
6662,391.5058288574219,-1060.9759521484377,532.9357299804689,200.7054748535156
6663,397.6504821777344,-1060.6207275390623,532.9357299804689,198.04640197753903
6664,398.7911376953125,-1050.923095703125,531.1854858398439,198.57373046875
6665,397.0296630859375,-1049.150390625,535.7406616210939,201.21783447265625
6666,395.3429565429688,-1054.43115234375,534.1736450195311,199.77423095703125
6667,390.9934387207031,-1055.25390625,533.9642333984375,196.85711669921875
6668,404.38604736328125,-1053.88134765625,534.0913696289061,201.71897888183597
6669,399.0155334472656,-1050.747314453125,529.4464111328125,193.5660095214844
6670,391.3300476074219,-1053.7691650390623,533.1638793945311,184.09283447265625
6671,396.4537048339844,-1052.415283203125,533.0965576171875,178.07533264160156
6672,400.6872863769531,-1051.697265625,534.6112060546875,187.4774475097656
6673,393.6375732421875,-1053.42138671875,530.9760131835939,176.9496307373047
6674,388.5662536621094,-1059.43505859375,527.9317626953125,179.07388305664062
6675,386.9468688964844,-1056.4432373046877,530.0335693359375,189.11178588867188
6676,389.5162048339844,-1051.5850830078123,526.2039184570311,192.6646881103516
6677,386.1577453613281,-1060.5758056640623,526.2525634765625,186.4901123046875
6678,382.5973815917969,-1057.755859375,526.529296875,188.0159912109375
6679,387.71728515625,-1050.4256591796877,529.2332153320311,200.4586334228516
6680,396.1732177734375,-1052.5836181640623,534.9552612304689,208.05812072753903
6681,395.4588928222656,-1057.610107421875,532.9918212890625,201.8199615478516
6682,389.3852844238281,-1058.5675048828123,533.80712890625,206.9698028564453
6683,397.6766662597656,-1053.2867431640623,538.9083862304689,212.059814453125
6684,402.8078002929688,-1049.890869140625,538.4745483398439,204.99139404296875
6685,409.9846496582031,-1054.3563232421877,540.3033447265625,200.5035095214844
6686,398.3722839355469,-1056.9443359375,539.7610473632811,199.9462738037109
6687,398.2226867675781,-1058.283203125,539.005615234375,197.03663635253903
6688,404.38604736328125,-1052.6434326171877,543.594482421875,197.02914428710938
6689,401.6259765625,-1050.72119140625,539.6488647460939,195.4247283935547
6690,395.369140625,-1047.31787109375,535.2769165039061,188.16932678222656
6691,392.1004638671875,-1046.10986328125,539.2673950195311,195.01333618164062
6692,406.9590759277344,-1039.6697998046877,538.2314453125,203.2111968994141
6693,408.7093505859375,-1038.738525390625,543.16064453125,204.9128570556641
6694,405.87451171875,-1038.4991455078123,548.478759765625,209.92807006835938
6695,409.95849609375,-1033.72705078125,548.512451171875,213.7465057373047
6696,426.7618408203125,-1028.255615234375,556.8935546875,222.6586761474609
6697,422.1916809082031,-1032.403076171875,553.5313720703125,224.431396484375
6698,421.2941284179688,-1030.3162841796877,560.4501953125,233.9344787597656
6699,421.71673583984375,-1031.6439208984377,559.7620239257811,227.060546875
6700,438.1797790527344,-1025.0093994140623,562.9671630859375,233.05186462402344
6701,443.6774291992188,-1025.9443359375,564.2462158203125,233.0630798339844
6702,434.60443115234375,-1030.85107421875,567.118408203125,231.7728271484375
6703,438.2657775878906,-1021.0263671875,569.0631713867188,235.0527191162109
6704,442.1178894042969,-1019.2760620117188,570.1439819335938,228.85943603515625
6705,442.9780578613281,-1020.3531494140624,576.1390380859375,228.13015747070312
6706,435.7525634765625,-1024.69140625,576.4569702148438,222.53152465820312
6707,441.71771240234375,-1017.3799438476562,582.0256958007812,234.1289520263672
6708,444.1748352050781,-1012.6564331054688,573.8203125,236.24948120117188
6709,446.1981201171875,-1015.0537109375,572.9003295898438,236.39907836914062
6710,433.1495971679688,-1019.1414184570312,573.2182006835938,239.37229919433597
6711,436.5155029296875,-1013.37451171875,572.2682495117188,245.52816772460938
6712,451.2731628417969,-1008.4378662109376,574.0036010742188,249.4401092529297
6713,453.9696350097656,-1007.8245239257812,581.9434204101562,248.6846466064453
6714,451.8042297363281,-1011.0932006835938,582.294921875,250.61444091796875
6715,464.4974365234375,-1000.3372192382812,589.0342407226562,260.29330444335943
6716,466.8909912109375,-993.7063598632812,593.8961181640625,264.98687744140625
6717,467.5491943359375,-993.6577758789062,594.6104125976562,266.50900268554693
6718,461.85333251953125,-1005.0869140625,592.4412841796875,264.4183959960937
6719,463.77191162109375,-997.3004150390624,598.5560302734375,264.3211669921875
6720,473.7574462890625,-995.8007202148438,599.0908203125,263.80133056640625
6721,470.6907043457031,-999.1180419921876,607.3896484375,259.8145751953125
6722,470.72064208984375,-998.2241821289062,604.1808471679688,253.4118804931641
6723,480.1302185058594,-985.0671997070312,606.3237915039062,260.0053100585937
6724,484.65924072265625,-981.0318603515624,602.2174072265625,265.89193725585943
6725,491.5294494628906,-980.50830078125,607.845947265625,270.735107421875
6726,488.6422424316406,-981.2749633789062,614.9741821289062,280.55233764648443
6727,501.6458740234375,-973.6605224609376,619.4695434570312,290.2386779785156
6728,511.3509216308594,-962.1902465820312,623.8751220703125,295.1155090332031
6729,511.5005187988281,-962.246337890625,627.4280395507812,300.9422607421875
6730,502.0049133300781,-965.1784057617188,626.9157104492188,302.46441650390625
6731,501.9862060546875,-968.75,624.5184326171875,309.0391540527344
6732,502.9772644042969,-964.5987548828124,628.8492431640625,311.9300842285156
6733,492.3035888671875,-969.2810668945312,622.4988403320312,297.4080505371094
6734,486.2823486328125,-975.6950073242188,617.177001953125,284.1763000488281
6735,483.294189453125,-979.2254638671876,618.1605834960938,282.16796875
6736,490.4112243652344,-974.4346923828124,610.6171875,277.08920288085943
6737,486.0243225097656,-985.2728881835938,610.6695556640625,265.33468627929693
6738,478.5706787109375,-995.980224609375,614.136474609375,256.90869140625
6739,471.53594970703125,-994.40576171875,608.4255981445312,258.670166015625
6740,477.7030334472656,-991.107177734375,600.239013671875,254.11497497558597
6741,474.0079956054688,-994.4281616210938,597.7108154296875,250.5508575439453
6742,458.3303527832031,-1002.0202026367188,596.4242553710938,248.4452972412109
6743,463.2894592285156,-993.9083251953124,601.3534545898438,255.1135406494141
6744,467.0892028808594,-993.6390380859376,596.7346801757812,264.7587280273437
6745,462.3656921386719,-998.9945678710938,597.482666015625,258.47195434570307
6746,453.5096130371094,-1002.0762939453124,594.01953125,256.60202026367193
6747,445.2294921875,-998.3662719726562,592.927490234375,257.2938842773437
6748,449.2573547363281,-995.3294677734376,581.9471435546875,256.59454345703125
6749,436.1490173339844,-1000.251220703125,580.8775024414062,252.0094146728516
6750,428.3887023925781,-1006.3248291015624,575.0245971679688,245.86102294921875
6751,427.9287109375,-1004.7503051757812,573.3603515625,247.1026763916016
6752,429.3087158203125,-1006.003173828125,566.0824584960938,245.4010162353516
6753,426.78802490234375,-1015.8092041015624,561.4337768554689,235.6361389160156
6754,419.12872314453125,-1028.2967529296877,555.203125,227.78982543945312
6755,410.6241760253906,-1029.4859619140623,550.3486938476561,220.33621215820312
6756,412.916748046875,-1027.047607421875,552.12890625,218.52235412597656
6757,410.5568542480469,-1037.904541015625,547.1922607421875,206.0049133300781
6758,406.6037902832031,-1046.1285400390623,540.2883911132811,198.0576171875
6759,401.66339111328125,-1047.07470703125,537.3375854492189,189.9532623291016
6760,405.3172607421875,-1047.7890625,539.2262573242189,201.0757141113281
6761,396.8688354492188,-1054.0272216796877,538.5867309570311,205.1970977783203
6762,387.2311096191406,-1063.2423095703123,539.4431762695311,206.15451049804688
6763,383.51739501953125,-1057.673583984375,539.2973022460939,207.1904602050781
6764,387.2423400878906,-1050.616455078125,533.7884521484375,210.358154296875
6765,390.1744079589844,-1047.837646484375,538.4708251953125,210.2347412109375
6766,391.6778564453125,-1054.3525390625,538.2351684570311,205.7431182861328
6767,392.15283203125,-1052.011474609375,542.6744384765625,208.62657165527344
6768,397.5083618164063,-1053.68310546875,539.60400390625,216.121337890625
6769,400.60498046875,-1051.229736328125,537.0084838867189,207.4634704589844
6770,396.625732421875,-1054.2291259765623,538.0070190429689,202.39964294433597
6771,389.4638366699219,-1056.1029052734377,532.9656372070311,195.9371032714844
6772,395.2457275390625,-1052.591064453125,536.3689575195311,196.0717315673828
6773,393.0765686035156,-1066.50732421875,530.6581420898439,187.14833068847656
6774,384.8749694824219,-1062.9918212890623,529.2930908203125,181.21685791015625
6775,382.0401306152344,-1067.236572265625,529.169677734375,180.2108154296875
6776,382.70208740234375,-1060.0596923828123,532.1615600585939,179.93032836914062
6777,376.7519226074219,-1062.438232421875,524.745361328125,181.93116760253903
6778,367.3236389160156,-1067.8648681640623,523.6009521484375,178.1763153076172
6779,369.0252685546875,-1069.8021240234377,525.096923828125,178.75599670410156
6780,376.1871948242188,-1066.6119384765623,520.8858032226561,181.6918182373047
6781,372.4323120117188,-1070.220947265625,520.706298828125,179.6236572265625
6782,367.2712707519531,-1077.1361083984377,518.9335327148439,174.2868194580078
6783,370.4576721191406,-1077.4539794921877,511.35650634765625,184.04795837402344
6784,375.2970886230469,-1069.738525390625,513.185302734375,183.5655059814453
6785,375.2035827636719,-1079.222900390625,510.0138854980469,175.7191925048828
6786,365.37139892578125,-1077.00146484375,514.0903930664061,176.34002685546875
6787,365.40130615234375,-1084.24560546875,512.4186401367189,170.52073669433594
6788,373.7861633300781,-1075.3409423828123,511.4126281738281,177.1328887939453
6789,368.4044494628906,-1081.1527099609377,504.2694091796875,166.70977783203125
6790,362.4093933105469,-1089.8330078125,502.43310546875,159.49925231933594
6791,359.9148864746094,-1082.5888671875,506.25531005859375,164.31997680664062
6792,364.70196533203125,-1076.05517578125,511.7529602050781,168.5647735595703
6793,358.3628234863281,-1081.7286376953123,504.1796569824219,157.116943359375
6794,346.5260314941406,-1086.5830078125,501.2438354492188,152.9095458984375
6795,353.407470703125,-1083.2769775390623,507.104248046875,158.78492736816406
6796,364.4513854980469,-1084.05859375,506.6255493164063,167.09498596191406
6797,362.30841064453125,-1082.110107421875,505.5970764160156,166.1338348388672
6798,352.5472717285156,-1086.9046630859377,502.8033752441406,161.40660095214844
6799,356.5489807128906,-1089.1224365234377,505.00244140625,164.03575134277344
6800,357.39044189453125,-1088.7933349609377,506.34130859375,162.47247314453125
6801,363.4490966796875,-1092.5594482421877,506.434814453125,157.29270935058594
6802,352.30419921875,-1095.4354248046877,507.280029296875,148.94898986816406
6803,350.20611572265625,-1097.9560546875,504.8004760742188,154.36436462402344
6804,354.9632568359375,-1095.480224609375,500.6940612792969,152.95068359375
6805,345.32177734375,-1107.522705078125,494.20159912109375,142.98385620117188
6806,329.2663879394531,-1110.6119384765623,487.5632629394531,131.73423767089844
6807,322.2578430175781,-1106.853271484375,478.2135314941406,129.95404052734378
6808,328.24542236328125,-1112.6015625,480.0946960449219,135.17120361328122
6809,317.609130859375,-1117.250244140625,475.4497375488281,124.98371887207031
6810,309.568359375,-1122.684326171875,470.2662353515625,114.12678527832031
6811,310.4247741699219,-1115.5560302734377,473.2431945800781,121.30365753173828
6812,324.1165466308594,-1113.4093017578123,475.3712158203125,120.88105010986328
6813,318.3234558105469,-1120.9228515625,471.9230041503906,116.02291870117188
6814,311.32611083984375,-1127.38916015625,472.8617248535156,113.8201141357422
6815,317.4034423828125,-1123.9296875,471.7995910644531,116.1089324951172
6816,326.2408142089844,-1109.89013671875,474.0323181152344,123.22970581054688
6817,328.4361572265625,-1111.7188720703123,475.0533142089844,126.51333618164062
6818,326.0912170410156,-1120.2982177734377,477.71612548828125,123.37555694580078
6819,333.2007751464844,-1105.9407958984377,487.8325500488281,135.6199951171875
6820,341.342529296875,-1100.4581298828123,490.27471923828125,144.48355102539062
6821,339.46136474609375,-1097.9261474609377,492.7093811035156,146.77236938476562
6822,339.5997314453125,-1089.4029541015623,500.12933349609375,152.25132751464844
6823,350.0826721191406,-1081.6875,509.8530883789063,154.7794952392578
6824,366.5158081054688,-1069.057861328125,517.8153076171875,166.2759552001953
6825,374.3658447265625,-1065.8377685546877,521.1101684570311,164.24143981933594
6826,376.06378173828125,-1065.983642578125,521.6038208007811,171.33229064941406
6827,387.5228271484375,-1054.3189697265623,530.8638305664061,173.22842407226562
6828,403.1481323242188,-1042.7252197265623,533.1676025390625,180.9700164794922
6829,405.792236328125,-1036.82373046875,533.4967041015625,188.1917724609375
6830,413.4178771972656,-1029.69921875,543.0147705078125,201.00091552734372
6831,425.2023010253906,-1012.072998046875,558.161376953125,225.98719787597656
6832,447.8810729980469,-998.8936157226562,568.513427734375,243.09349060058597
6833,442.76861572265625,-1006.5940551757812,564.6388549804688,241.7359161376953
6834,444.8554992675781,-1002.3193969726562,572.9115600585938,250.0796356201172
6835,450.48028564453125,-993.1790771484376,580.4773559570312,261.78176879882807
6836,461.0230712890625,-982.905517578125,583.7235717773438,268.94741821289057
6837,467.0555419921875,-974.6029663085938,592.4412841796875,277.683837890625
6838,464.5946960449219,-968.9519653320312,600.1566772460938,275.70169067382807
6839,469.056396484375,-961.7938232421876,602.9990234375,283.3423156738281
6840,476.9400939941406,-948.8799438476562,609.4615478515625,284.9429626464844
6841,478.96337890625,-962.4968872070312,605.2354736328125,275.58575439453125
6842,473.6040954589844,-972.2393798828124,606.5032958984375,266.72592163085943
6843,470.2643737792969,-980.0482788085938,596.0427856445312,261.75186157226557
6844,472.4671630859375,-984.4688110351562,587.164306640625,259.02920532226557
6845,463.24456787109375,-992.9321899414062,580.8214111328125,239.1665954589844
6846,444.9527282714844,-1008.4004516601562,571.7821044921875,227.6664123535156
6847,436.661376953125,-1008.879150390625,569.0332641601562,226.03955078125
6848,437.0241394042969,-1002.0986938476562,564.8408203125,222.5203094482422
6849,426.6085205078125,-1011.063232421875,564.089111328125,214.7675018310547
6850,414.453857421875,-1024.081787109375,563.5281372070312,214.853515625
6851,412.5838928222656,-1021.4938354492188,562.3201293945311,216.4579315185547
6852,411.67510986328125,-1017.30517578125,558.06787109375,222.8868103027344
6853,407.4602355957031,-1024.72509765625,555.0460205078125,213.14064025878903
6854,404.1803283691406,-1030.5743408203123,551.9344482421875,215.68377685546875
6855,403.65673828125,-1029.6468505859377,548.8153686523439,219.28155517578125
6856,411.9593200683594,-1026.509033203125,548.5947265625,219.8163604736328
6857,406.0353393554688,-1029.6767578125,547.8355102539061,209.14642333984372
6858,394.6548156738281,-1040.8665771484377,544.5406494140625,197.3545227050781
6859,390.64190673828125,-1043.73876953125,540.4903564453125,195.6416473388672
6860,393.78717041015625,-1046.0313720703123,532.8422241210939,184.0255126953125
6861,389.1309814453125,-1060.2017822265623,525.66162109375,174.21949768066406
6862,373.4832458496094,-1073.5008544921877,513.0057983398439,169.9148712158203
6863,370.8129577636719,-1075.1053466796877,514.7897338867189,166.56765747070312
6864,373.3186950683594,-1070.9876708984377,513.0057983398439,166.19741821289062
6865,357.9252624511719,-1082.00537109375,504.920166015625,158.8036346435547
6866,357.95892333984375,-1089.0738525390623,502.0142517089844,155.6322021484375
6867,352.5996398925781,-1082.921630859375,500.18170166015625,151.07325744628906
6868,361.2163696289063,-1084.41015625,498.7605285644531,151.4210662841797
6869,358.3478698730469,-1085.064697265625,493.3638610839844,146.20016479492188
6870,346.32781982421875,-1087.6788330078123,496.58392333984375,140.42950439453122
6871,344.58502197265625,-1077.08740234375,492.6308288574219,142.46774291992188
6872,350.8979797363281,-1075.3782958984377,493.042236328125,147.69613647460938
6873,350.31829833984375,-1077.106201171875,497.0401916503906,146.40213012695312
6874,346.09222412109375,-1081.418212890625,492.5747375488281,143.10353088378906
6875,344.56634521484375,-1074.95947265625,493.9435424804688,147.7335205078125
6876,358.54608154296875,-1071.3878173828123,503.2147521972656,148.3468780517578
6877,357.3455810546875,-1077.005126953125,501.5579833984375,152.11668395996094
6878,350.9802551269531,-1082.0615234375,494.9308776855469,146.48814392089844
6879,347.6255798339844,-1078.246826171875,493.7415771484375,156.52976989746094
6880,365.2442321777344,-1071.6683349609377,502.2573547363281,163.5981903076172
6881,356.7284851074219,-1077.3155517578123,499.815185546875,158.69143676757812
6882,354.0581970214844,-1083.26953125,500.0470581054688,152.3261260986328
6883,355.5541687011719,-1078.179443359375,503.7271118164063,155.31430053710938
6884,361.30987548828125,-1072.4088134765623,499.8712768554688,157.2029571533203
6885,360.5955505371094,-1073.57568359375,510.34674072265625,154.8318634033203
6886,354.7014465332031,-1075.830810546875,507.609130859375,148.9265594482422
6887,356.5901184082031,-1077.6334228515623,504.8341369628906,146.66390991210938
6888,359.7540588378906,-1069.3197021484377,506.5769348144531,152.16531372070312
6889,358.2917785644531,-1071.7056884765623,509.7109680175781,140.08543395996094
6890,352.99981689453125,-1073.328857421875,509.39306640625,129.41175842285156
6891,352.868896484375,-1060.889892578125,513.7089233398439,132.29522705078122
6892,357.39044189453125,-1057.08642578125,510.2944030761719,144.29281616210938
6893,348.384765625,-1059.782958984375,511.10595703125,146.5592041015625
6894,346.9598693847656,-1061.48828125,515.5526733398439,152.62158203125
6895,351.518798828125,-1062.2923583984377,511.79034423828125,156.02488708496094
6896,360.6366882324219,-1053.7354736328123,507.11920166015625,167.51759338378906
6897,361.3696899414063,-1063.8818359375,508.0018310546875,169.2342071533203
6898,352.95867919921875,-1068.033203125,513.63037109375,171.6165313720703
6899,359.2529296875,-1063.10400390625,512.010986328125,173.45655822753906
6900,369.2048034667969,-1062.591552734375,511.528564453125,174.51495361328125
6901,371.5833740234375,-1062.5205078125,510.6422119140625,170.98074340820312
6902,357.37176513671875,-1068.3135986328123,508.5665588378906,164.59674072265625
6903,364.0325012207031,-1060.5870361328123,510.1372985839844,170.95455932617188
6904,372.1630554199219,-1048.85498046875,505.3539733886719,166.11514282226562
6905,371.50482177734375,-1051.8056640625,509.1088562011719,158.91209411621094
6906,360.0570068359375,-1059.4500732421877,508.2711181640625,152.11294555664062
6907,366.0034484863281,-1048.1444091796877,516.3904418945311,145.97203063964844
6908,365.16943359375,-1047.224365234375,509.74835205078125,151.507080078125
6909,361.9194641113281,-1051.0802001953123,513.406005859375,156.57838439941406
6910,357.1660461425781,-1051.6187744140623,518.7278442382811,158.22769165039062
6911,356.5003662109375,-1051.46533203125,517.6358032226561,155.27316284179688
6912,370.14349365234375,-1041.1021728515623,520.3995971679689,159.87698364257812
6913,369.1412048339844,-1046.981201171875,522.3667602539061,157.86117553710938
6914,363.2658386230469,-1053.339111328125,520.837158203125,157.23287963867188
6915,365.4723815917969,-1050.6837158203123,519.0980834960939,162.0199432373047
6916,369.8742370605469,-1045.2122802734377,519.146728515625,176.37368774414062
6917,368.7223510742188,-1050.5789794921877,517.291748046875,176.3512420654297
6918,365.1657104492188,-1063.9715576171877,515.6199951171875,174.2681121826172
6919,374.4743041992188,-1067.0234375,517.044921875,181.4001007080078
6920,387.71728515625,-1060.1494140625,518.8512573242189,185.51025390625
6921,381.1799621582031,-1065.044921875,512.1007690429689,177.2488250732422
6922,368.7672119140625,-1073.1904296875,505.86260986328125,168.2057342529297
6923,366.2240905761719,-1066.312744140625,502.7584838867188,172.19247436523438
6924,366.3475036621094,-1059.98486328125,508.6600646972656,171.6988067626953
6925,364.9562683105469,-1056.4656982421877,505.4886169433594,175.23675537109375
6926,365.4910583496094,-1064.394287109375,503.0202941894531,174.0212860107422
6927,365.2778930664063,-1066.0958251953123,512.186767578125,177.4956512451172
6928,366.9346618652344,-1054.03466796875,510.5487060546875,181.6357269287109
6929,370.1397705078125,-1055.8673095703123,516.293212890625,179.47779846191406
6930,367.6153259277344,-1062.04931640625,518.0958251953125,182.6604461669922
6931,368.6213684082031,-1056.6190185546877,518.3201904296875,180.4314727783203
6932,379.6952209472656,-1041.4200439453123,528.0813598632811,184.5453643798828
6933,384.16064453125,-1040.638427734375,529.7830200195311,190.9293670654297
6934,382.2159118652344,-1048.518310546875,528.5338745117189,179.93406677246094
6935,381.1275939941406,-1048.9708251953123,531.8661499023439,181.38140869140625
6936,396.3153381347656,-1043.1478271484377,535.931396484375,189.41098022460938
6937,399.8233642578125,-1047.366455078125,541.694580078125,177.98558044433594
6938,388.843017578125,-1054.0833740234377,537.9397583007811,178.40444946289062
6939,387.6649475097656,-1050.5155029296877,540.4118041992189,179.1449432373047
6940,402.3777160644531,-1048.2303466796877,538.7587890625,189.7961883544922
6941,398.57421875,-1057.01171875,536.1221313476561,185.8655548095703
6942,385.2676696777344,-1069.0167236328123,531.61181640625,181.72174072265625
6943,389.0748901367188,-1061.5145263671877,529.0537109375,188.4984436035156
6944,391.24029541015625,-1055.841064453125,530.0335693359375,187.14085388183597
6945,386.25872802734375,-1060.29150390625,525.1343383789061,188.7228240966797
6946,378.7677307128906,-1073.6617431640623,523.537353515625,185.18115234375
6947,368.7859191894531,-1075.46435546875,522.9090576171875,186.8678436279297
6948,374.9567565917969,-1063.283447265625,524.9510498046875,192.8068084716797
6949,376.1797180175781,-1065.5386962890623,531.552001953125,190.9742584228516
6950,368.9093322753906,-1076.6910400390623,522.351806640625,187.37646484375
6951,377.06231689453125,-1070.5277099609377,527.7484741210939,190.35716247558597
6952,380.0953674316406,-1066.9598388671877,527.0902709960939,189.3436584472656
6953,377.3428039550781,-1066.181884765625,522.7221069335939,182.40240478515625
6954,363.1050109863281,-1073.9122314453123,517.1608276367189,175.12081909179688
6955,371.0784912109375,-1078.0560302734377,519.9882202148439,174.46258544921875
6956,377.6008605957031,-1064.42041015625,521.0989379882811,178.7373046875
6957,376.2245788574219,-1076.6798095703123,518.1332397460939,173.61363220214844
6958,368.59893798828125,-1085.053466796875,508.794677734375,159.0167999267578
6959,367.30865478515625,-1078.5347900390623,506.0982360839844,168.81907653808594
6960,370.8914794921875,-1068.9307861328123,507.6802062988281,175.09837341308594
6961,368.0080261230469,-1070.6884765625,507.20147705078125,171.8222198486328
6962,352.25555419921875,-1076.84814453125,503.64111328125,168.3815155029297
6963,353.1194763183594,-1070.9427490234377,506.1468505859375,169.79519653320312
6964,366.5494689941406,-1061.9969482421877,508.8246154785156,177.04312133789062
6965,363.3481140136719,-1072.165771484375,505.2193603515625,171.14529418945312
6966,352.1620788574219,-1069.551513671875,505.3390197753906,170.2103271484375
6967,352.4612731933594,-1069.301025390625,506.3861999511719,173.59120178222656
6968,364.5523681640625,-1061.6566162109377,510.0587768554688,173.5463104248047
6969,366.93841552734375,-1059.2855224609377,516.412841796875,167.15109252929688
6970,367.40216064453125,-1069.4281005859377,515.6461791992189,162.00498962402344
6971,366.5531921386719,-1064.678466796875,510.3130798339844,172.94793701171875
6972,384.7964477539063,-1055.9869384765623,522.9501953125,176.26148986816406
6973,383.913818359375,-1061.9259033203123,524.6630859375,177.08425903320312
6974,375.7271728515625,-1071.9488525390623,517.1533813476561,173.7781982421875
6975,374.85577392578125,-1070.464111328125,521.1438598632811,178.0977783203125
6976,383.9624328613281,-1058.455322265625,522.96142578125,186.6172637939453
6977,376.1235961914063,-1059.4051513671877,519.2626953125,189.57553100585938
6978,370.603515625,-1060.265380859375,515.8369140625,181.66189575195312
6979,370.4202575683594,-1056.6451416015623,514.2960815429689,191.11636352539062
6980,384.78521728515625,-1042.2652587890623,524.405029296875,195.23773193359372
6981,382.0663146972656,-1041.0833740234377,518.5408935546875,197.03663635253903
6982,378.995849609375,-1044.722412109375,517.9649047851561,194.83383178710938
6983,388.5138854980469,-1045.9976806640623,532.0381469726561,199.34788513183597
6984,396.988525390625,-1036.4346923828123,531.002197265625,206.7491455078125
6985,399.2586364746094,-1033.2259521484377,531.5856323242189,197.1675262451172
6986,392.83349609375,-1041.3115234375,533.8034057617189,194.7515563964844
6987,403.0845336914063,-1036.674072265625,538.1080322265625,206.98475646972656
6988,416.6304626464844,-1028.4725341796877,542.7604370117189,212.19818115234372
6989,418.60137939453125,-1025.9891357421877,544.3760986328125,213.2752685546875
6990,408.0586242675781,-1038.573974609375,545.9019775390625,211.8802947998047
6991,409.6181640625,-1034.9986572265623,545.8795166015625,215.2611541748047
6992,421.1819152832031,-1028.0648193359377,554.0437622070311,223.81431579589844
6993,417.8945617675781,-1035.1893310546877,551.5903930664061,219.45358276367188
6994,410.3474426269531,-1036.7152099609377,549.5558471679689,216.2185821533203
6995,407.0301513671875,-1037.597900390625,548.852783203125,213.82504272460938
6996,421.1033935546875,-1023.4535522460938,556.1007080078125,222.46046447753903
6997,416.8885192871094,-1029.9833984375,552.1326293945311,217.93145751953125
6998,400.39556884765625,-1042.141845703125,547.4652709960939,212.07476806640625
6999,400.31329345703125,-1033.4727783203123,543.5346069335939,214.8497772216797
7000,414.1247253417969,-1022.37646484375,545.9580688476561,217.4041290283203
7001,411.7012634277344,-1032.1937255859377,543.8936767578125,205.36538696289062
7002,404.8273315429688,-1030.6004638671877,546.859375,204.9614715576172
7003,403.5782165527344,-1027.8890380859377,545.4569091796875,210.5301818847656
7004,414.2743225097656,-1021.6434326171876,547.3642578125,219.57701110839844
7005,416.7052612304688,-1027.5262451171877,550.5057983398439,219.2591094970703
7006,407.318115234375,-1031.142822265625,549.0584716796875,210.9453125
7007,414.3715515136719,-1025.12158203125,549.8775024414061,211.59979248046875
7008,426.05126953125,-1021.4901123046876,549.312744140625,211.56988525390625
7009,425.8119201660156,-1021.1422729492188,556.0221557617189,219.38253784179688
7010,412.8082885742188,-1034.44140625,553.1199951171875,213.67544555664062
7011,410.2427062988281,-1028.7904052734377,546.16748046875,213.35006713867188
7012,420.5685729980469,-1020.4990234375,551.5791625976561,216.37191772460938
7013,419.4129638671875,-1031.0679931640623,547.9102783203125,213.7951202392578
7014,409.1656188964844,-1037.927001953125,542.0648193359375,207.87486267089844
7015,406.5776062011719,-1034.2020263671877,534.7196655273439,206.13954162597656
7016,414.5884704589844,-1026.213623046875,538.3884887695311,210.1412353515625
7017,405.61273193359375,-1024.773681640625,537.1094970703125,206.0722198486328
7018,398.17779541015625,-1038.49169921875,532.8235473632811,195.4172515869141
7019,398.9033508300781,-1032.0777587890623,532.2849731445311,201.5282440185547
7020,408.76171875,-1020.383056640625,533.8034057617189,208.88462829589844
7021,403.9447326660156,-1029.714111328125,533.2686157226561,201.4721527099609
7022,398.1890258789063,-1028.47998046875,533.8370361328125,201.8910217285156
7023,405.0255432128906,-1026.8643798828123,537.797607421875,202.2163848876953
7024,415.1681518554688,-1020.0277709960938,539.1514282226561,208.46202087402344
7025,409.3152160644531,-1023.0084838867188,538.2314453125,205.66831970214844
7026,409.0646362304688,-1030.34619140625,539.9368286132811,203.5103912353516
7027,409.55084228515625,-1030.54443359375,540.168701171875,207.32508850097656
7028,418.3769836425781,-1013.2959594726562,547.4428100585939,211.6035461425781
7029,415.2691345214844,-1015.5286865234376,547.4989013671875,209.1015472412109
7030,409.6705017089844,-1022.4213256835938,551.717529296875,205.57107543945312
7031,420.6471252441406,-1019.466796875,552.6712036132811,214.0830993652344
7032,435.4945068359375,-1009.208251953125,560.13232421875,218.06234741210938
7033,424.3720703125,-1009.79541015625,548.489990234375,216.7458953857422
7034,421.91119384765625,-1013.0977783203124,551.9606323242189,215.16766357421875
7035,423.8035888671875,-1009.0792236328124,552.9273681640625,222.1444549560547
7036,432.1959228515625,-996.4832763671876,562.4117431640625,222.7577972412109
7037,439.84027099609375,-1003.7162475585938,566.6827392578125,226.0077667236328
7038,433.5647277832031,-1013.8251953125,558.8065185546875,221.044921875
7039,429.6677551269531,-1007.4000244140624,562.639892578125,225.0129547119141
7040,438.9613952636719,-1002.9495239257812,562.580078125,227.33917236328125
7041,436.5416870117188,-1005.6123657226562,558.3053588867189,227.1783599853516
7042,420.80792236328125,-1017.135009765625,549.5390014648439,221.8377685546875
7043,423.9718933105469,-1009.3896484375,552.3140258789061,221.972412109375
7044,429.7687377929688,-1008.0358276367188,558.1931762695311,226.10125732421875
7045,421.2941284179688,-1013.7354125976562,556.0390014648439,217.02078247070312
7046,410.1866149902344,-1018.5823364257812,548.3684692382811,211.3398742675781
7047,412.1762390136719,-1019.823974609375,552.7590942382811,218.09413146972656
7048,422.9583740234375,-1016.9928588867188,549.8494262695311,215.6519775390625
7049,425.4342041015625,-1026.0546875,548.918212890625,210.53579711914062
7050,406.6299743652344,-1038.51220703125,539.8526611328125,199.05430603027344
7051,403.5669860839844,-1031.8291015625,535.4994506835939,197.0384979248047
7052,419.4914855957031,-1026.267822265625,539.9948120117189,209.0735015869141
7053,413.8218078613281,-1029.1923828125,535.6265869140625,202.35289001464844
7054,398.6864318847656,-1040.1466064453123,539.5796508789061,197.77525329589844
7055,405.6688232421875,-1038.5272216796877,538.5923461914061,202.78672790527344
7056,411.8508605957031,-1030.8978271484377,542.7623291015625,206.94923400878903
7057,407.7145385742188,-1035.0753173828123,546.4049682617189,200.3894500732422
7058,404.8460388183594,-1033.579345703125,546.7303466796875,201.18605041503903
7059,404.4458618164063,-1024.9962158203123,547.0145874023439,203.6394195556641
7060,419.32318115234375,-1020.6878662109376,552.8712768554689,208.5611267089844
7061,418.7135925292969,-1024.214599609375,554.4682006835939,207.83932495117188
7062,412.65869140625,-1030.108642578125,556.7495727539061,210.17303466796875
7063,415.0073547363281,-1027.1953125,554.3897094726561,216.00352478027344
7064,433.6731872558594,-1020.0446166992188,556.910400390625,228.5022735595703
7065,432.9364318847656,-1020.7813720703124,557.9986572265625,227.5673065185547
7066,430.5915222167969,-1028.9268798828123,561.817138671875,226.06011962890625
7067,432.577392578125,-1026.81005859375,555.3471069335939,229.2016448974609
7068,435.88720703125,-1019.3751831054688,554.5692138671875,233.674560546875
7069,433.7966003417969,-1030.965087890625,547.9608154296875,223.9770050048828
7070,425.5912780761719,-1035.049072265625,546.9996337890625,222.03973388671875
7071,422.1019287109375,-1032.8238525390623,545.4251098632811,213.2584381103516
7072,430.6625671386719,-1035.3145751953123,543.143798828125,215.59588623046875
7073,421.7092590332031,-1043.3143310546877,538.3717041015625,203.8638153076172
7074,409.6667785644531,-1042.83935546875,534.6542358398439,198.3325042724609
7075,403.9933471679688,-1040.131591796875,525.3530883789061,201.18231201171875
7076,410.5493774414063,-1028.32470703125,529.6278076171875,196.2830352783203
7077,408.9038391113281,-1037.1322021484377,536.7897338867189,197.10955810546875
7078,398.4396057128906,-1043.2244873046877,530.7572631835939,186.8061370849609
7079,409.0422058105469,-1035.8270263671877,536.0043334960939,191.46604919433597
7080,420.4601135253906,-1028.3958740234377,540.9859008789061,202.95127868652344
7081,411.4394836425781,-1038.934814453125,539.7778930664061,198.6204833984375
7082,403.69415283203125,-1046.2164306640623,539.751708984375,197.32647705078125
7083,401.7643737792969,-1039.9483642578123,538.48388671875,203.2691650390625
7084,410.8111877441406,-1035.30712890625,540.2266845703125,207.6635589599609
7085,410.3474426269531,-1038.3140869140623,541.3262329101561,203.990966796875
7086,405.6463928222656,-1040.1129150390623,536.6027221679689,200.1538391113281
7087,403.9858703613281,-1046.1715087890623,533.1881713867189,198.3661651611328
7088,412.1725158691406,-1041.6986083984377,532.9862060546875,211.6166229248047
7089,408.4999084472656,-1046.9906005859377,533.23681640625,207.16241455078125
7090,400.0664367675781,-1054.7845458984377,529.4445190429689,191.6231231689453
7091,400.2347412109375,-1047.7908935546877,530.1326904296875,197.90989685058597
7092,410.6017456054688,-1043.1048583984377,531.6959838867189,196.7916717529297
7093,418.1226806640625,-1039.3985595703123,532.9376220703125,195.2994384765625
7094,403.85498046875,-1048.5426025390623,530.7310791015625,190.83399963378903
7095,402.6806335449219,-1042.255859375,529.3959350585939,183.17843627929688
7096,410.1978454589844,-1033.44091796875,536.13525390625,194.57015991210938
7097,417.483154296875,-1033.77001953125,533.5958251953125,190.598388671875
7098,403.5931701660156,-1039.4659423828123,531.946533203125,184.01991271972656
7099,406.0802001953125,-1030.4302978515623,526.6358642578125,185.28399658203125
7100,411.7910461425781,-1026.6866455078123,531.8455810546875,186.60043334960938
7101,406.6000671386719,-1030.0863037109377,535.4769897460939,186.6565399169922
7102,399.7822265625,-1038.8974609375,534.8075561523439,185.0521240234375
7103,399.7036743164063,-1036.937744140625,534.2279052734375,197.86502075195312
7104,406.4018249511719,-1032.2816162109377,534.7439575195311,203.12332153320312
7105,408.0062561035156,-1037.135986328125,534.6280517578125,203.4823455810547
7106,398.6714782714844,-1044.885009765625,533.2069091796875,201.26458740234372
7107,399.1015625,-1038.05224609375,535.1067504882811,202.67453002929688
7108,410.8373718261719,-1033.4447021484377,539.2131958007811,210.58441162109372
7109,407.8267517089844,-1039.9483642578123,534.3924560546875,208.50503540039062
7110,394.9390563964844,-1042.6710205078123,535.327392578125,203.5908050537109
7111,394.2359313964844,-1038.4449462890623,534.4186401367189,203.3701477050781
7112,408.64202880859375,-1035.4268798828123,536.0753784179689,205.20643615722656
7113,409.2853088378906,-1032.184326171875,540.0584106445311,204.0096740722656
7114,403.8138427734375,-1039.8062744140623,540.9859008789061,203.9498291015625
7115,395.7281494140625,-1037.1434326171877,534.9346923828125,202.3566436767578
7116,412.3632507324219,-1031.32421875,540.3576049804689,207.4429016113281
7117,413.7133483886719,-1035.6998291015623,543.989013671875,199.37966918945312
7118,408.30169677734375,-1037.2257080078123,543.7384643554689,193.3247833251953
7119,402.6918640136719,-1040.647705078125,541.0681762695311,190.84896850585938
7120,410.7251586914063,-1027.232666015625,544.8305053710939,201.7507781982422
7121,407.6397399902344,-1033.08935546875,542.6950073242189,201.05889892578125
7122,394.01153564453125,-1043.370361328125,539.7965698242189,195.89035034179688
7123,399.0566711425781,-1042.7982177734377,530.2747802734375,195.06382751464844
7124,412.1163940429688,-1036.5936279296877,533.7865600585939,201.85923767089844
7125,410.87103271484375,-1041.5228271484377,535.2900390625,199.5816345214844
7126,394.6473388671875,-1049.458984375,523.7786254882811,192.2476806640625
7127,396.1246032714844,-1045.707763671875,523.1764526367189,191.795166015625
7128,402.49737548828125,-1030.4639892578123,531.3930053710939,200.9803466796875
7129,403.0583801269531,-1031.55224609375,533.341552734375,195.7744140625
7130,390.67181396484375,-1037.431396484375,535.0693359375,196.2942657470703
7131,390.49603271484375,-1027.3935546875,531.1312255859375,200.23611450195312
7132,398.1029968261719,-1016.3720703125,531.935302734375,202.28558349609372
7133,395.4327087402344,-1017.0751342773438,535.7724609375,200.6026306152344
7134,391.2253112792969,-1019.4799194335938,534.9421997070311,197.9248504638672
7135,395.604736328125,-1022.2511596679688,537.8294067382811,194.8768310546875
7136,409.5919799804688,-1014.5955810546876,542.56787109375,201.7881774902344
7137,404.8011474609375,-1010.0029907226562,543.4130859375,198.42225646972656
7138,399.0230102539063,-1015.8035888671876,539.3029174804689,191.69418334960938
7139,407.9950256347656,-1011.3755493164062,536.453125,199.39463806152344
7140,415.2541809082031,-1012.5723266601562,543.07275390625,203.13079833984372
7141,406.966552734375,-1019.1507568359376,537.2235107421875,201.0775909423828
7142,393.7422790527344,-1020.328857421875,533.0086669921875,193.6239776611328
7143,396.9548645019531,-1020.43359375,532.2494506835939,199.55545043945312
7144,403.9335021972656,-1003.1739501953124,539.269287109375,206.3545837402344
7145,400.5563659667969,-1012.7293701171876,536.8270874023439,204.06202697753903
7146,395.451416015625,-1025.0411376953123,537.5825805664061,200.38571166992188
7147,394.86798095703125,-1023.919189453125,529.5230712890625,204.6043243408203
7148,403.7951354980469,-1013.1033935546876,533.56591796875,212.86949157714844
7149,395.3466796875,-1016.9292602539062,531.1911010742189,201.6685028076172
7150,387.904296875,-1017.6137084960938,529.6614379882811,194.6674041748047
7151,393.34210205078125,-1011.7158813476562,525.9103393554689,195.0077362060547
7152,408.0885314941406,-1001.9921264648438,529.938232421875,200.96913146972656
7153,406.1587524414063,-1009.812255859375,531.6548461914061,198.1866455078125
7154,403.7091064453125,-1005.9489135742188,540.2977294921875,196.42889404296875
7155,415.4150085449219,-1010.2797241210938,541.7861938476561,189.78309631347656
7156,423.2276611328125,-1004.5277709960938,537.1375122070311,189.37918090820312
7157,418.8220520019531,-1008.9595336914062,543.484130859375,191.58946228027344
7158,411.41705322265625,-1017.3855590820312,540.02099609375,185.91976928710938
7159,404.9133605957031,-1012.60595703125,535.8622436523439,189.8728485107422
7160,412.6399841308594,-1004.4230346679688,535.9781494140625,201.9003753662109
7161,403.1219482421875,-1010.986572265625,536.217529296875,204.82122802734372
7162,393.1214599609375,-1011.7196044921876,537.1749267578125,207.31948852539062
7163,397.1231384277344,-1011.4727783203124,533.3751831054689,211.09678649902344
7164,412.8830871582031,-1003.3759155273438,542.7735595703125,219.67611694335938
7165,411.0841979980469,-1016.8843994140624,537.7733154296875,209.73545837402344
7166,405.111572265625,-1028.6912841796877,539.0299072265625,206.1601104736328
7167,409.55084228515625,-1017.2808227539062,540.6867065429689,208.9650421142578
7168,416.9184265136719,-1016.3907470703124,541.2476806640625,215.21815490722656
7169,417.8982849121094,-1016.5440673828124,540.9223022460939,213.4005584716797
7170,408.1670837402344,-1020.7664184570312,545.163330078125,204.20040893554688
7171,411.8919982910156,-1025.082275390625,547.5531616210939,205.1727752685547
7172,427.2405700683594,-1006.2817993164062,559.2515258789061,208.2170562744141
7173,415.8600463867188,-1011.4652709960938,551.8689575195311,200.1837615966797
7174,414.0611572265625,-1018.1185913085938,557.0188598632811,201.6086578369141
7175,413.6422729492188,-1022.2324829101562,558.8551025390625,194.3794250488281
7176,423.4295959472656,-1007.8973999023438,555.384521484375,192.81988525390625
7177,421.2679443359375,-1019.846435546875,546.184326171875,189.47642517089844
7178,410.2240295410156,-1033.601806640625,538.0051879882811,185.12692260742188
7179,404.2252197265625,-1033.74755859375,542.2349853515625,191.279052734375
7180,417.1577758789063,-1020.212890625,540.619384765625,202.4276885986328
7181,403.31640625,-1035.8157958984377,530.585205078125,196.5784912109375
7182,384.5196838378906,-1037.7044677734377,525.9813842773439,186.0132751464844
7183,389.78173828125,-1035.68115234375,528.1505126953125,193.2724151611328
7184,395.8515930175781,-1024.510009765625,522.428466796875,202.5997314453125
7185,390.64190673828125,-1022.3521118164062,525.2109985351561,207.96649169921875
7186,384.0409851074219,-1031.37646484375,523.7786254882811,196.8253173828125
7187,386.05303955078125,-1028.86328125,522.884765625,200.82701110839844
7188,396.0198669433594,-1018.2569580078124,524.9529418945311,203.41128540039062
7189,399.9205932617188,-1026.312744140625,531.9390869140625,205.4383087158203
7190,393.6787109375,-1032.479736328125,534.470947265625,197.0796356201172
7191,401.91021728515625,-1033.35498046875,536.4082641601561,195.14236450195312
7192,410.0220642089844,-1027.0869140625,542.5042724609375,197.1806182861328
7193,409.0272521972656,-1033.68408203125,539.587158203125,186.525634765625
7194,397.9571533203125,-1041.833251953125,536.4494018554689,181.05416870117188
7195,392.5043640136719,-1034.69384765625,535.5405883789061,181.5403594970703
7196,403.0321960449219,-1023.0589599609376,539.0747680664061,185.8487243652344
7197,404.9021301269531,-1025.2841796875,538.708251953125,182.3743438720703
7198,391.8349304199219,-1033.8822021484377,538.30810546875,179.80130004882812
7199,396.6070556640625,-1027.617919921875,535.2413940429689,187.62890625
7200,400.7770385742188,-1024.4652099609377,537.6461181640625,194.61505126953125
7201,399.4643249511719,-1029.9852294921877,535.4732666015625,197.9285888671875
7202,385.005859375,-1036.86669921875,528.6778564453125,194.26348876953125
7203,386.2886657714844,-1034.510498046875,527.555908203125,192.7824859619141
7204,400.8256530761719,-1029.0316162109377,525.4054565429689,206.2049865722656
7205,400.8293762207031,-1035.269775390625,535.4508056640625,210.58067321777344
7206,390.5783081054688,-1042.2034912109377,526.45263671875,199.39089965820312
7207,390.5895385742188,-1036.268310546875,525.1212158203125,202.2893218994141
7208,408.7280578613281,-1026.7877197265623,529.9606323242189,209.73171997070312
7209,408.4326171875,-1030.9464111328123,538.5175170898439,205.80856323242188
7210,405.6463928222656,-1039.9820556640623,542.39208984375,202.1172790527344
7211,405.6950073242188,-1045.1468505859377,535.43212890625,195.4004211425781
7212,421.6793212890625,-1038.20556640625,542.0966186523439,207.6560821533203
7213,414.9961242675781,-1038.6094970703123,540.1929931640625,201.02149963378903
7214,404.3187255859375,-1044.5484619140623,545.0474243164061,196.1932830810547
7215,407.9239807128906,-1041.2723388671877,541.0232543945311,198.50454711914062
7216,423.7961120605469,-1024.928955078125,545.5635375976561,208.79673767089844
7217,416.7501525878906,-1032.9622802734377,547.052001953125,203.63568115234372
7218,404.442138671875,-1039.1705322265623,543.8693237304689,198.11932373046875
7219,398.2039794921875,-1035.50537109375,541.6964721679689,204.4098358154297
7220,411.35345458984375,-1025.127197265625,548.8583374023439,223.92837524414062
7221,397.26153564453125,-1033.83740234375,544.1199340820311,215.09100341796875
7222,393.31591796875,-1041.526611328125,537.462890625,209.39886474609372
7223,390.4436950683594,-1031.9075927734377,544.6060791015625,214.7843170166016
7224,409.9435119628906,-1022.77099609375,541.4496459960939,217.3835601806641
7225,408.8739013671875,-1031.0623779296877,546.5059814453125,218.13153076171875
7226,401.0612487792969,-1038.8525390625,544.6322631835939,211.4034576416016
7227,402.4375305175781,-1029.989013671875,543.9478759765625,205.71881103515625
7228,413.4814758300781,-1019.319091796875,546.898681640625,210.857421875
7229,409.5994567871094,-1031.6607666015623,548.4656982421875,205.41587829589844
7230,400.7882385253906,-1043.097412109375,543.8506469726561,202.19955444335938
7231,405.90069580078125,-1036.8255615234377,535.4246215820311,198.4521789550781
7232,413.8853759765625,-1025.77783203125,535.9108276367189,205.1503448486328
7233,407.7145385742188,-1033.908447265625,538.5848388671875,203.4412078857422
7234,393.5141296386719,-1038.6805419921877,536.2025756835939,202.3828125
7235,392.00323486328125,-1033.2838134765623,537.32080078125,200.8943328857422
7236,400.204833984375,-1024.63720703125,535.5611572265625,199.7555389404297
7237,397.49713134765625,-1032.711669921875,528.642333984375,196.69630432128903
7238,385.4322204589844,-1038.321533203125,525.3138427734375,188.56201171875
7239,385.6640930175781,-1041.1002197265623,523.9487915039061,193.64828491210938
7240,402.7778625488281,-1027.584228515625,531.0733032226561,196.34100341796875
7241,406.8805541992188,-1036.7882080078123,532.045654296875,198.7794189453125
7242,392.3772277832031,-1048.288330078125,525.6578979492189,192.458984375
7243,391.5133056640625,-1046.7437744140623,521.6375122070311,185.49530029296875
7244,401.40533447265625,-1030.08251953125,524.7154541015625,190.9031982421875
7245,402.5160827636719,-1038.759033203125,527.0753173828125,192.62355041503903
7246,396.3639526367188,-1053.954345703125,520.1153564453125,184.71739196777344
7247,403.7801818847656,-1051.1082763671877,527.7111206054689,192.45150756835938
7248,414.1097717285156,-1042.8018798828123,531.8287353515625,200.4062805175781
7249,408.7430114746094,-1041.0927734375,529.7942504882811,193.0124969482422
7250,395.5299377441406,-1050.6893310546877,527.57275390625,191.88677978515625
7251,391.0981750488281,-1042.4990234375,523.8964233398439,187.34654235839844
7252,404.442138671875,-1033.194091796875,528.631103515625,202.4744415283203
7253,395.0923767089844,-1039.8548583984377,527.5802001953125,192.8367156982422
7254,383.83154296875,-1043.79296875,520.7100219726561,182.552001953125
7255,389.10107421875,-1039.9969482421877,521.5552368164061,188.7490081787109
7256,403.1294250488281,-1027.2589111328123,527.6961669921875,190.03927612304688
7257,398.8622131347656,-1035.2996826171877,528.1187744140625,189.4221954345703
7258,387.5938720703125,-1042.74951171875,531.189208984375,185.2447204589844
7259,395.1036071777344,-1041.2611083984377,532.9581909179689,189.7026824951172
7260,402.20941162109375,-1032.6593017578123,539.95556640625,195.2527008056641
7261,393.6525268554688,-1038.497314453125,535.2806396484375,200.1183013916016
7262,395.2382507324219,-1044.039794921875,533.16015625,190.3010711669922
7263,386.9244384765625,-1042.8841552734377,532.7300415039061,198.64105224609372
7264,405.39581298828125,-1034.0916748046877,538.4520874023439,206.5097961425781
7265,401.4389953613281,-1035.479248046875,536.623291015625,204.419189453125
7266,397.4784240722656,-1042.4129638671877,541.5936279296875,204.19479370117188
7267,398.832275390625,-1045.67041015625,539.0018310546875,208.03941345214844
7268,408.69439697265625,-1032.1058349609377,538.5904541015625,213.3874664306641
7269,409.52838134765625,-1045.3563232421877,538.5680541992189,213.21543884277344
7270,400.8106994628906,-1050.233154296875,539.1925659179689,211.18841552734372
7271,399.6026916503906,-1044.94482421875,540.78955078125,215.56784057617188
7272,418.66497802734375,-1039.4248046875,540.6174926757811,212.4076232910156
7273,410.9084167480469,-1039.87353515625,535.3292846679689,202.05931091308597
7274,407.2956848144531,-1043.8453369140623,542.12841796875,191.13507080078125
7275,407.6135559082031,-1041.7884521484377,545.2063598632811,195.75384521484372
7276,423.6315612792969,-1028.7099609375,551.519287109375,207.212890625
7277,415.2691345214844,-1033.99072265625,544.2003173828125,202.8820953369141
7278,402.6881103515625,-1041.14892578125,542.4874267578125,194.4261779785156
7279,402.9125061035156,-1032.7191162109377,543.654296875,203.5515289306641
7280,416.5257568359375,-1027.7862548828123,541.9788208007811,212.8863220214844
7281,407.4901428222656,-1036.1785888671877,539.4319458007811,213.234130859375
7282,393.9292602539063,-1044.7840576171877,534.4204711914061,210.14871215820312
7283,406.5738830566406,-1037.9886474609377,540.9877319335939,216.2559814453125
7284,420.7368774414063,-1029.3045654296877,546.6873779296875,222.29591369628903
7285,416.44720458984375,-1044.776611328125,545.9244384765625,218.26055908203125
7286,403.00225830078125,-1043.766845703125,543.5009765625,214.6141662597656
7287,401.1547546386719,-1043.35546875,537.0272216796875,211.89524841308597
7288,413.9826049804688,-1028.89697265625,542.7529907226561,219.53961181640625
7289,407.1498107910156,-1037.487548828125,539.4544067382811,210.38807678222656
7290,402.6918640136719,-1043.273193359375,538.3286743164061,208.9594268798828
7291,401.7680969238281,-1040.045654296875,540.0602416992189,206.8463897705078
7292,419.009033203125,-1031.481201171875,548.220703125,211.0313415527344
7293,417.0119323730469,-1037.244384765625,549.873779296875,207.5831451416016
7294,406.4916076660156,-1048.5762939453123,543.6356201171875,203.8769073486328
7295,405.111572265625,-1043.5050048828123,544.4620971679689,204.65106201171875
7296,417.0381164550781,-1033.4783935546877,544.5107421875,211.0425567626953
7297,410.9346008300781,-1042.263427734375,544.4321899414061,213.0321807861328
7298,401.6708679199219,-1047.82080078125,531.5594482421875,202.2089080810547
7299,399.348388671875,-1044.4549560546877,536.7092895507811,204.87545776367188
7300,413.421630859375,-1033.7625732421877,537.4871826171875,212.14956665039062
7301,409.6031799316406,-1042.921630859375,538.4857788085939,211.6222381591797
7302,399.8719787597656,-1050.6033935546877,537.6255493164061,207.27647399902344
7303,394.6435852050781,-1047.99658203125,531.9222412109375,204.99513244628903
7304,411.0916748046875,-1038.605712890625,532.7188110351561,211.9700469970703
7305,409.4535827636719,-1041.0740966796877,536.634521484375,210.9602813720703
7306,396.3489990234375,-1041.1002197265623,534.4017944335939,207.08200073242188
7307,402.5422668457031,-1040.4083251953123,540.2697143554689,211.2445068359375
7308,421.3838806152344,-1027.5169677734377,545.2362670898439,212.893798828125
7309,412.5053405761719,-1032.864990234375,536.9822998046875,205.7169342041016
7310,411.4245300292969,-1041.855712890625,542.693115234375,207.0072021484375
7311,406.7533874511719,-1036.5413818359377,534.6710815429689,203.62632751464844
7312,418.84075927734375,-1028.7548828125,543.84130859375,216.8805389404297
7313,410.1978454589844,-1032.4012451171877,541.4178466796875,210.7022247314453
7314,404.0718688964844,-1047.2412109375,537.4198608398439,202.294921875
7315,407.2096557617188,-1040.902099609375,533.758544921875,203.6338195800781
7316,420.3741149902344,-1024.0426025390623,543.3513793945311,207.3512725830078
7317,414.431396484375,-1029.768310546875,530.3851318359375,201.83865356445312
7318,398.2974853515625,-1038.4375,526.2974243164061,196.30734252929688
7319,399.5914916992188,-1037.334228515625,526.6676635742189,191.96533203125
7320,414.70068359375,-1025.7330322265623,530.5646362304689,198.7008819580078
7321,406.1811828613281,-1026.6492919921877,530.2953491210939,196.3858795166016
7322,398.5181274414063,-1034.753662109375,528.6460571289061,194.3663330078125
7323,398.6490173339844,-1034.7349853515623,525.4671630859375,195.7837677001953
7324,405.2985534667969,-1019.625732421875,530.4337768554689,205.97125244140625
7325,398.3834838867188,-1025.598388671875,531.1967163085939,201.0719757080078
7326,391.6853332519531,-1035.7708740234377,527.116455078125,191.26222229003903
7327,390.0771789550781,-1024.588623046875,525.7289428710939,196.93939208984372
7328,404.6029357910156,-1022.3109741210938,534.3307495117189,205.29432678222656
7329,402.6394958496094,-1029.263427734375,532.13916015625,205.04376220703125
7330,389.0262756347656,-1038.452392578125,530.1868896484375,197.9117584228516
7331,392.2425842285156,-1031.9786376953123,526.1814575195311,201.17669677734372
7332,405.0218200683594,-1018.0325317382812,536.8776245117189,214.3336639404297
7333,398.7537536621094,-1019.9287109375,535.9389038085939,208.23388671875
7334,393.0765686035156,-1029.2447509765623,532.5991821289061,196.0493011474609
7335,392.5305480957031,-1021.6004028320312,530.4337768554689,198.8616943359375
7336,411.7648620605469,-1009.483154296875,536.9262084960939,212.63201904296875
7337,404.4122009277344,-1020.4971313476562,535.0712280273439,207.6242828369141
7338,395.5785827636719,-1032.62939453125,533.560302734375,196.14279174804688
7339,391.47216796875,-1027.4832763671877,530.61328125,204.924072265625
7340,414.7081604003906,-1010.6387939453124,537.3787231445311,211.22955322265625
7341,412.3819274902344,-1020.4410400390624,538.7101440429689,204.98765563964844
7342,394.6249084472656,-1030.3367919921877,534.9253540039061,198.34933471679688
7343,400.0066223144531,-1020.9010620117188,535.965087890625,200.3426971435547
7344,410.9794616699219,-1001.91357421875,541.036376953125,211.77183532714844
7345,406.0989074707031,-1007.4860229492188,541.705810546875,209.7560272216797
7346,397.5120849609375,-1020.7252807617188,541.8853149414061,207.635498046875
7347,400.0252990722656,-1020.9309692382812,541.3206176757811,217.9464111328125
7348,413.3356018066406,-1015.822265625,544.8585205078125,224.91758728027344
7349,407.9688415527344,-1017.5426025390624,541.0513305664061,213.5894317626953
7350,394.8343200683594,-1018.791748046875,538.5830078125,205.6982421875
7351,396.5359802246094,-1019.4088134765624,534.8692626953125,199.95001220703125
7352,416.5743713378906,-1008.8286743164062,541.1223754882811,214.90213012695312
7353,410.2277526855469,-1016.0130004882812,538.6278686523439,205.73190307617188
7354,394.6435852050781,-1020.7963256835938,538.4446411132811,195.62669372558597
7355,400.7284240722656,-1012.2880859375,541.189697265625,200.62319946289062
7356,416.79876708984375,-1002.94580078125,547.0314331054689,211.28564453125
7357,418.4443054199219,-1008.0657348632812,547.7906494140625,214.05691528320312
7358,400.1562194824219,-1014.1804809570312,540.4791259765625,206.1619873046875
7359,400.2010803222656,-1007.1307373046876,538.7512817382811,209.31846618652344
7360,401.2744445800781,-998.3382568359376,544.4097290039061,210.0776672363281
7361,405.6650695800781,-1003.2300415039062,542.5061645507811,201.3599548339844
7362,390.6007690429688,-1014.072021484375,541.2158813476561,193.4425811767578
7363,394.9988708496094,-1010.76220703125,542.1359252929689,196.4868621826172
7364,408.6607360839844,-991.8906860351562,549.5895385742189,207.2615203857422
7365,407.8529052734375,-998.3831176757812,550.2702026367189,208.2750244140625
7366,399.49798583984375,-1009.8683471679688,545.0380859375,204.0526885986328
7367,401.5137939453125,-1010.2273559570312,544.3386840820311,212.6843719482422
7368,420.39654541015625,-1006.4500732421876,551.541748046875,228.98284912109372
7369,412.90179443359375,-1012.6620483398438,546.305908203125,227.44949340820312
7370,399.8794555664063,-1030.1947021484377,538.0818481445311,216.48785400390625
7371,402.2954406738281,-1023.0028686523438,535.8865356445311,211.46142578125
7372,419.1249694824219,-1015.1192016601562,537.4946899414061,217.0076904296875
7373,406.6860656738281,-1023.6423950195312,530.8675537109375,206.9286651611328
7374,393.914306640625,-1027.0345458984377,525.8486328125,199.1197509765625
7375,396.78656005859375,-1023.8181762695312,528.5712890625,196.3671875
7376,412.0640563964844,-1010.294677734375,540.44921875,201.81622314453125
7377,403.6343078613281,-1021.45458984375,540.1948852539061,195.79498291015625
7378,391.0345764160156,-1029.11767578125,534.4092407226561,194.4037322998047
7379,388.338134765625,-1024.63720703125,534.6074829101561,192.39915466308597
7380,394.1574096679688,-1005.0438842773438,536.8027954101561,196.2437744140625
7381,388.9364929199219,-1012.7481079101562,532.8983154296875,189.87472534179688
7382,377.9224853515625,-1027.1168212890623,534.5252075195311,188.67794799804688
7383,385.87353515625,-1025.774169921875,536.0809936523439,191.1537628173828
7384,406.461669921875,-1016.1701049804688,539.7984619140625,199.4900054931641
7385,401.1510314941406,-1022.13525390625,534.7271728515625,187.35777282714844
7386,388.62982177734375,-1031.9637451171877,533.8108520507811,187.9673767089844
7387,387.46673583984375,-1021.6602783203124,533.2985229492189,199.2955322265625
7388,406.6150207519531,-1010.8369750976562,544.2901000976561,209.98416137695312
7389,396.71923828125,-1019.2554931640624,541.3729858398439,202.0518341064453
7390,382.4515075683594,-1037.162109375,532.7899169921875,190.63766479492188
7391,382.1149291992188,-1040.154052734375,521.9367065429689,192.3318328857422
7392,394.8866882324219,-1031.1072998046877,525.9047241210939,198.1099853515625
7393,396.3265380859375,-1041.7061767578123,521.716064453125,195.0843963623047
7394,379.511962890625,-1047.5291748046877,512.8113403320311,185.5850524902344
7395,376.4751586914063,-1037.562255859375,509.98773193359375,180.10610961914062
7396,394.4640808105469,-1022.1389770507812,514.4082641601561,186.0899353027344
7397,380.5666198730469,-1033.41845703125,511.4462890625,174.571044921875
7398,368.95794677734375,-1039.5855712890623,506.9434509277344,172.85443115234375
7399,370.79425048828125,-1041.4630126953123,502.72857666015625,176.3998565673828
7400,383.7081298828125,-1021.8397827148438,513.9894409179689,187.87387084960938
7401,370.9101867675781,-1033.1754150390623,512.560791015625,185.3494415283203
7402,369.8069152832031,-1044.4063720703123,512.6842041015625,184.43316650390625
7403,382.02142333984375,-1042.536376953125,518.9522705078125,187.6382598876953
7404,404.8273315429688,-1029.9478759765623,528.9564819335939,202.98306274414062
7405,395.70947265625,-1035.2659912109377,531.6080932617189,201.2477569580078
7406,387.6537170410156,-1038.3251953125,529.2220458984375,191.90548706054688
7407,387.12640380859375,-1036.9451904296877,528.0215454101561,190.6900177001953
7408,402.4188537597656,-1024.543701171875,534.6822509765625,199.14593505859372
7409,396.8239440917969,-1036.6273193359377,528.3805541992189,195.01708984375
7410,381.5689086914063,-1045.3001708984377,524.9547729492189,188.984619140625
7411,381.2921447753906,-1043.486328125,519.6067504882811,187.41012573242188
7412,391.6180114746094,-1034.7274169921877,523.1746215820311,191.77833557128903
7413,388.5513000488281,-1046.4295654296877,514.6177368164061,183.3747711181641
7414,377.1483459472656,-1047.5029296875,511.6519775390625,179.6199188232422
7415,376.5088195800781,-1041.6275634765623,510.30560302734375,177.38719177246094
7416,392.4183654785156,-1028.1077880859377,514.3634033203125,189.57553100585938
7417,387.0665588378906,-1034.14404296875,515.9603271484375,181.05978393554688
7418,372.4360656738281,-1040.13916015625,506.0346374511719,176.81124877929688
7419,368.3932495117188,-1036.2645263671877,502.3134460449219,183.75997924804688
7420,388.7158508300781,-1022.8308715820312,522.63232421875,200.03228759765625
7421,393.88812255859375,-1033.8934326171877,527.056640625,199.06365966796875
7422,384.5047302246094,-1039.869873046875,525.3811645507811,197.9678649902344
7423,396.5845947265625,-1035.78955078125,533.2012939453125,195.1405029296875
7424,413.4552917480469,-1027.416015625,541.2907104492189,209.7747344970703
7425,408.5074157714844,-1037.408935546875,538.4035034179689,206.0310821533203
7426,395.6122131347656,-1041.376953125,529.0462646484375,193.2705535888672
7427,401.7868041992188,-1038.6805419921877,529.8092041015625,195.9258728027344
7428,403.9596862792969,-1021.8098754882812,535.4526977539061,203.8955993652344
7429,400.522705078125,-1030.856689453125,527.5091552734375,191.8007659912109
7430,384.6580505371094,-1031.2381591796877,532.8609619140625,188.04217529296875
7431,391.3038635253906,-1032.47607421875,527.3820190429689,183.0194854736328
7432,407.43780517578125,-1016.8507690429688,529.6596069335939,195.0544891357422
7433,405.1452331542969,-1029.768310546875,532.1279296875,188.5582733154297
7434,396.4312744140625,-1037.6258544921877,530.919921875,187.69061279296875
7435,397.3363342285156,-1026.2603759765623,526.7499389648439,188.6929168701172
7436,402.4188537597656,-1020.691650390625,529.1322631835939,198.656005859375
7437,397.570068359375,-1024.609130859375,530.9797973632811,198.46714782714844
7438,383.6277160644531,-1042.4783935546877,520.7174682617189,187.1688995361328
7439,380.92376708984375,-1031.68505859375,516.7083129882811,191.5969390869141
7440,393.3739013671875,-1029.968505859375,524.3040771484375,198.96080017089844
7441,384.2223510742188,-1035.4287109375,522.737060546875,195.02642822265625
7442,376.3199462890625,-1041.614501953125,519.9133911132811,191.0995330810547
7443,375.5757141113281,-1045.6461181640623,525.00341796875,193.4294891357422
7444,399.8401794433594,-1032.964111328125,525.6691284179689,200.7821350097656
7445,399.8139953613281,-1038.62255859375,529.9700317382811,190.97238159179688
7446,390.2622985839844,-1053.1109619140623,525.7588500976561,189.33804321289062
7447,398.6022644042969,-1039.6697998046877,523.5299072265625,190.62831115722656
7448,408.2213134765625,-1025.630126953125,528.4141845703125,200.07530212402344
7449,404.4140930175781,-1037.5491943359377,524.8575439453125,200.9279937744141
7450,391.6871948242188,-1044.77099609375,525.1231079101561,189.10617065429688
7451,395.9244995117188,-1035.555908203125,524.1956176757811,198.13055419921875
7452,406.58697509765625,-1025.3309326171877,529.5511474609375,205.8609161376953
7453,404.21588134765625,-1034.1422119140623,524.393798828125,200.64002990722656
7454,390.9803466796875,-1039.374267578125,524.3190307617189,193.9942169189453
7455,394.1592712402344,-1040.967529296875,519.1280517578125,196.43637084960938
7456,411.79290771484375,-1022.0398559570312,528.4104614257811,207.92161560058597
7457,405.81280517578125,-1034.8453369140623,522.8230590820311,205.4383087158203
7458,389.5479736328125,-1045.1524658203123,521.95166015625,205.58416748046875
7459,397.8019409179688,-1038.5814208984377,519.9358520507811,207.59249877929688
7460,413.28887939453125,-1025.630126953125,528.5563354492189,218.21006774902344
7461,402.2075500488281,-1037.2911376953123,525.4297485351561,216.74777221679688
7462,400.3488159179688,-1046.26318359375,527.3857421875,212.87322998046875
7463,397.5364074707031,-1041.0048828125,524.9136352539061,203.1644592285156
7464,413.7039794921875,-1030.5107421875,527.0192260742189,210.24034118652344
7465,406.9796447753906,-1036.707763671875,518.3912963867189,205.04188537597656
7466,394.8175048828125,-1043.634033203125,521.3831787109375,193.6651153564453
7467,401.7886657714844,-1035.817626953125,522.0302124023439,199.6676483154297
7468,412.5296630859375,-1028.726806640625,533.066650390625,209.6943206787109
7469,409.8892822265625,-1035.1668701171877,526.7200317382811,205.5729522705078
7470,400.98834228515625,-1041.449951171875,520.0181274414061,205.0157012939453
7471,404.5487060546875,-1038.11767578125,516.457763671875,204.4210662841797
7472,413.82366943359375,-1027.5262451171877,527.610107421875,209.88131713867188
7473,406.302734375,-1038.211181640625,528.4216918945311,208.83413696289062
7474,399.8514099121094,-1050.7099609375,524.32275390625,203.0933990478516
7475,400.46099853515625,-1040.066162109375,524.943603515625,204.49212646484372
7476,415.31964111328125,-1030.4957275390623,533.724853515625,218.21006774902344
7477,409.9902648925781,-1039.419189453125,532.6776733398439,212.02801513671875
7478,391.5937194824219,-1048.3388671875,529.5286865234375,202.5997314453125
7479,400.2066955566406,-1038.3197021484377,532.0718383789061,203.4786071777344
7480,413.1056213378906,-1034.0748291015623,534.7009887695311,208.3591766357422
7481,407.570556640625,-1038.869384765625,535.0300903320311,204.1443023681641
7482,400.76019287109375,-1049.3223876953123,529.3080444335939,202.3416748046875
7483,403.00787353515625,-1045.9228515625,529.5025024414061,206.45556640625
7484,414.0742492675781,-1034.864013671875,534.9889526367189,212.1963195800781
7485,412.2342224121094,-1045.290771484375,535.460205078125,210.07579040527344
7486,400.1655578613281,-1049.9207763671877,529.3978271484375,204.86984252929688
7487,398.52374267578125,-1044.093994140625,531.2378540039061,207.2259826660156
7488,410.6858825683594,-1032.08154296875,534.383056640625,214.4365081787109
7489,403.5613708496094,-1040.548583984375,530.57958984375,207.95152282714844
7490,396.7173767089844,-1053.013671875,526.9257202148439,199.64520263671875
7491,399.7915649414063,-1044.6588134765623,526.9369506835939,206.8407745361328
7492,415.0690612792969,-1033.7120361328123,539.0430297851561,210.4946594238281
7493,399.589599609375,-1046.016357421875,527.6362915039061,212.1738739013672
7494,391.1785888671875,-1047.6170654296877,523.7280883789061,201.94151306152344
7495,397.0053405761719,-1043.469482421875,524.6630859375,205.63653564453125
7496,404.1410827636719,-1035.5521240234377,529.0313110351561,213.0377960205078
7497,397.6897277832031,-1042.9832763671877,526.1515502929689,206.50791931152344
7498,392.3828125,-1047.1981201171877,521.6487426757811,201.9976043701172
7499,395.023193359375,-1046.719482421875,525.70654296875,204.0433349609375
7500,404.0288696289063,-1036.3861083984377,528.1337280273439,206.96792602539062
7501,398.6134948730469,-1047.531005859375,522.2022094726561,201.52638244628903
7502,389.73870849609375,-1057.4642333984377,522.3779907226561,195.74822998046875
7503,396.7472839355469,-1052.56494140625,524.756591796875,203.38136291503903
7504,417.0586853027344,-1043.177734375,531.9596557617189,208.4638977050781
7505,410.7083435058594,-1045.6722412109377,537.1543579101561,206.34710693359372
7506,402.79095458984375,-1054.535888671875,534.4092407226561,209.03610229492188
7507,402.9966735839844,-1047.422607421875,535.3778686523439,208.21331787109372
7508,418.921142578125,-1041.898681640625,543.8038940429689,214.8666076660156
7509,407.2863159179688,-1051.802001953125,540.8792724609375,209.9897766113281
7510,398.4078063964844,-1055.8709716796877,534.1848754882811,205.7973480224609
7511,402.40576171875,-1054.610595703125,537.9584350585939,203.7404022216797
7512,410.0164489746094,-1046.652099609375,544.9707641601561,210.7452392578125
7513,406.7851867675781,-1051.263427734375,539.8059692382811,204.92221069335938
7514,397.7682800292969,-1058.50390625,542.6295776367189,205.8758850097656
7515,396.9941101074219,-1046.521240234375,540.4828491210939,206.7098846435547
7516,408.9244079589844,-1040.84033203125,543.4448852539061,217.88470458984372
7517,402.7947082519531,-1046.5960693359377,543.7103881835939,204.03585815429688
7518,392.2220153808594,-1047.246826171875,542.9699096679689,207.3045196533203
7519,396.3508605957031,-1049.4010009765623,539.8919677734375,205.3485565185547
7520,413.2813720703125,-1037.7698974609377,544.944580078125,210.3488006591797
7521,406.7477722167969,-1048.2640380859377,539.4207153320311,203.21307373046875
7522,393.321533203125,-1050.5865478515623,539.4356689453125,201.0701141357422
7523,390.774658203125,-1043.1702880859377,539.8433227539061,203.01486206054688
7524,409.3881530761719,-1038.7646484375,542.9661254882811,210.86117553710938
7525,405.3153991699219,-1054.984619140625,536.5671997070311,204.11065673828125
7526,400.6405334472656,-1061.110595703125,536.2119140625,207.3793182373047
7527,396.5976867675781,-1055.6129150390623,538.4035034179689,202.33045959472656
7528,408.52423095703125,-1051.6187744140623,538.160400390625,209.2530059814453
7529,406.3812561035156,-1055.99072265625,535.9014892578125,206.5827178955078
7530,394.271484375,-1061.9483642578123,533.16015625,199.8509063720703
7531,404.5375061035156,-1060.6207275390623,532.0867919921875,202.56607055664062
7532,415.2897033691406,-1045.732177734375,535.84912109375,211.9270477294922
7533,408.2026062011719,-1056.828369140625,532.9207763671875,204.64920043945312
7534,399.9972534179688,-1057.071533203125,528.4216918945311,202.32298278808597
7535,398.91644287109375,-1050.6014404296877,529.9251098632811,209.09593200683597
7536,408.4943237304688,-1040.630859375,536.4026489257811,218.0193328857422
7537,399.88507080078125,-1048.5782470703123,532.363525390625,212.312255859375
7538,390.5614929199219,-1057.520263671875,526.589111328125,205.21017456054688
7539,397.1250305175781,-1050.89697265625,526.5592041015625,207.8468170166016
7540,408.1876525878906,-1040.4215087890623,534.7421264648439,217.06565856933597
