,T7,F8,Cz,P4
6000,365.5752258300781,-1054.4423828125,518.3426513671875,202.640869140625
6001,368.0098876953125,-1044.9654541015623,518.9971313476561,205.58042907714844
6002,389.2525329589844,-1028.771728515625,526.9070434570311,227.08859252929688
6003,371.7460632324219,-1046.334228515625,523.1072998046875,210.8536834716797
6004,359.669921875,-1055.5792236328123,517.3366088867189,205.7375030517578
6005,373.8927612304688,-1042.5008544921877,520.0293579101561,215.21815490722656
6006,384.0054626464844,-1035.3875732421877,525.20166015625,227.36160278320312
6007,365.14886474609375,-1046.41650390625,521.8282470703125,214.9264373779297
6008,365.362060546875,-1050.968017578125,516.9888305664061,211.65402221679688
6009,372.0826416015625,-1045.3282470703123,514.0717163085939,212.1327362060547
6010,386.2942810058594,-1032.4517822265623,522.8155517578125,223.3636474609375
6011,372.6735534667969,-1044.4979248046877,522.7594604492189,213.21730041503903
6012,363.2078552246094,-1049.0643310546877,519.487060546875,213.72967529296875
6013,371.3421325683594,-1042.108154296875,522.8716430664061,217.2115173339844
6014,383.5753479003906,-1029.844970703125,529.1098022460939,225.31588745117188
6015,371.8956604003906,-1049.5543212890623,526.2076416015625,211.4034576416016
6016,368.3390197753906,-1048.279052734375,528.2758178710939,206.96044921875
6017,385.3705139160156,-1041.4573974609377,534.1437377929689,206.78094482421875
6018,389.6377258300781,-1032.904296875,534.7159423828125,212.84706115722656
6019,381.8624877929688,-1044.3109130859377,536.6681518554689,203.2355194091797
6020,377.6438903808594,-1046.79052734375,530.1420288085939,200.71856689453125
6021,385.68841552734375,-1038.880615234375,532.5018920898439,208.75933837890625
6022,394.0396118164063,-1031.9842529296877,536.5148315429689,218.6850433349609
6023,380.5086364746094,-1048.9447021484377,532.5991821289061,207.8430633544922
6024,370.3735046386719,-1052.6658935546877,525.6953125,208.63592529296875
6025,376.22271728515625,-1048.8026123046877,520.2275390625,215.6893768310547
6026,388.7775573730469,-1034.609619140625,526.7723999023439,224.91944885253903
6027,373.8591003417969,-1042.164306640625,521.5851440429689,213.1986083984375
6028,366.5139465332031,-1050.291015625,519.3300170898439,202.2593994140625
6029,378.4629211425781,-1041.6929931640623,520.3023681640625,214.0101623535156
6030,386.6719970703125,-1035.0341796875,529.0125732421875,222.8325958251953
6031,370.20147705078125,-1048.7969970703123,526.1441040039061,215.37522888183597
6032,362.73663330078125,-1048.2247314453123,526.01318359375,213.8306427001953
6033,372.5987548828125,-1034.2525634765623,527.5465698242189,219.0178985595703
6034,379.72698974609375,-1029.4803466796877,525.4970703125,219.79953002929688
6035,374.4649658203125,-1039.5819091796877,529.1173095703125,212.6002197265625
6036,368.391357421875,-1046.388427734375,530.7852783203125,207.6523284912109
6037,381.9410095214844,-1042.6597900390623,532.6403198242189,212.48802185058597
6038,404.7693786621094,-1032.6031494140623,539.4955444335939,217.96324157714844
6039,384.8880615234375,-1045.072021484375,543.3999633789061,210.47970581054688
6040,381.9073486328125,-1050.6744384765623,533.2386474609375,208.09364318847656
6041,389.7611389160156,-1041.1937255859377,533.47802734375,209.5933380126953
6042,397.8356018066406,-1034.345947265625,543.79638671875,228.3003234863281
6043,379.1211242675781,-1046.9083251953123,539.4132690429689,216.044677734375
6044,370.3473205566406,-1052.757568359375,530.8226928710939,217.5144500732422
6045,375.3027038574219,-1046.137939453125,531.4884033203125,223.22154235839844
6046,385.3555603027344,-1035.598876953125,534.68603515625,234.4786376953125
6047,374.6930847167969,-1048.1387939453123,527.1837768554689,224.71749877929688
6048,370.1940002441406,-1053.8831787109377,520.2986450195311,216.3924865722656
6049,373.0625,-1048.841796875,520.1826782226561,223.157958984375
6050,391.4627990722656,-1032.4423828125,530.0934448242189,234.1345672607422
6051,374.76788330078125,-1043.0823974609377,525.9346313476561,221.0561370849609
6052,367.4002990722656,-1048.968994140625,520.3359985351561,205.0194396972656
6053,372.1649169921875,-1038.168212890625,519.4534301757811,211.5380859375
6054,384.7272338867188,-1028.5977783203123,525.5942993164061,215.49864196777344
6055,376.29376220703125,-1041.6126708984377,527.6512451171875,206.1189727783203
6056,368.0959167480469,-1049.309326171875,520.695068359375,199.18893432617188
6057,369.4534912109375,-1038.1307373046877,524.3713989257811,199.424560546875
6058,385.45654296875,-1028.672607421875,528.20849609375,204.5669250488281
6059,377.1015930175781,-1038.310302734375,525.7700805664061,189.64471435546875
6060,373.1485290527344,-1049.365478515625,526.0991821289061,194.8955383300781
6061,376.5032043457031,-1042.15869140625,526.2225952148439,203.42999267578125
6062,391.5114135742188,-1035.808349609375,529.9251098632811,212.8246154785156
6063,382.0457458496094,-1047.5927734375,531.2901611328125,206.8258209228516
6064,375.7440185546875,-1052.6229248046877,534.3606567382811,214.37667846679688
6065,380.71807861328125,-1042.491455078125,533.1526489257811,225.7010955810547
6066,386.3915100097656,-1036.1561279296877,538.8148803710939,238.3120422363281
6067,367.2918395996094,-1046.0069580078123,536.22314453125,222.02476501464844
6068,363.06201171875,-1053.6064453125,534.5139770507811,223.22154235839844
6069,370.515625,-1041.1788330078123,531.5819091796875,224.0555419921875
6070,377.67755126953125,-1031.2867431640623,528.302001953125,235.9297180175781
6071,366.876708984375,-1045.71533203125,525.964599609375,220.1436004638672
6072,360.6310729980469,-1043.5050048828123,522.0825805664061,216.35134887695312
6073,369.34130859375,-1036.2047119140623,524.2329711914061,219.4442443847656
6074,383.9306640625,-1025.8377685546877,532.6477661132811,224.6763610839844
6075,377.62890625,-1033.0594482421877,528.653564453125,214.73944091796875
6076,366.607421875,-1039.1256103515623,529.1734008789061,198.35494995117188
6077,380.8003540039063,-1039.2340087890623,522.2471313476561,198.16421508789062
6078,392.3902893066406,-1026.4473876953123,527.6288452148439,209.3726959228516
6079,383.1265563964844,-1040.868408203125,522.1237182617189,196.42889404296875
6080,380.24310302734375,-1046.1229248046877,519.7264404296875,193.5903167724609
6081,387.0198059082031,-1040.0792236328123,517.6657104492189,194.0764923095703
6082,395.6178283691406,-1026.574462890625,519.3898315429689,211.59793090820312
6083,380.2319030761719,-1044.81396484375,516.1959228515625,207.5363922119141
6084,368.9224243164063,-1042.958984375,516.88037109375,203.84886169433597
6085,375.5682373046875,-1032.558349609375,517.2393798828125,212.82835388183597
6086,388.3063354492188,-1027.1204833984377,521.6860961914061,225.6599578857422
6087,376.0656433105469,-1041.141357421875,520.8558959960939,218.4120330810547
6088,364.7038269042969,-1046.949462890625,517.258056640625,211.68768310546875
6089,373.7431640625,-1032.2628173828123,515.1488037109375,217.6378631591797
6090,381.8138732910156,-1021.031982421875,522.09375,224.87831115722656
6091,372.57257080078125,-1032.2965087890623,520.1116333007811,218.44943237304688
6092,373.1223449707031,-1039.884765625,524.8313598632811,221.4488220214844
6093,371.7086486816406,-1027.816162109375,529.4464111328125,225.77215576171875
6094,386.3653259277344,-1020.8038330078124,535.8640747070311,230.19271850585938
6095,379.9214782714844,-1034.880859375,531.10693359375,218.67007446289062
6096,377.9991760253906,-1035.984130859375,536.8289794921875,213.0340576171875
6097,378.7994995117188,-1033.874755859375,531.5819091796875,213.2434844970703
6098,398.4900817871094,-1022.0006103515624,534.229736328125,229.83367919921875
6099,385.2246398925781,-1039.518310546875,530.4225463867189,212.50299072265625
6100,376.2563781738281,-1043.194580078125,525.272705078125,205.5093688964844
6101,385.7257995605469,-1036.1673583984377,528.0850830078125,213.67730712890625
6102,395.4121398925781,-1026.2154541015623,536.963623046875,229.62799072265625
6103,384.2373352050781,-1040.29248046875,531.0283813476561,217.79119873046875
6104,374.0124206542969,-1047.2113037109377,528.2645874023439,217.6790008544922
6105,382.8198852539063,-1039.013427734375,530.1831665039061,229.80001831054688
6106,388.5830993652344,-1027.31494140625,536.02490234375,237.6650390625
6107,375.5345764160156,-1040.9693603515623,532.1017456054689,227.59347534179688
6108,371.4992370605469,-1041.2236328125,527.6849365234375,218.6588592529297
6109,376.95947265625,-1039.4248046875,529.2556762695311,229.0258636474609
6110,384.8768310546875,-1029.5513916015623,533.9754638671875,241.1880187988281
6111,372.7259216308594,-1043.183349609375,526.1403198242189,229.3512420654297
6112,369.8648986816406,-1048.0377197265623,522.9464721679689,218.7598419189453
6113,366.2446594238281,-1038.190673828125,525.732666015625,220.83921813964844
6114,389.24505615234375,-1021.58544921875,536.4736938476561,231.890625
6115,371.2149963378906,-1038.5870361328123,534.1138305664061,223.0382843017578
6116,366.8991394042969,-1039.7276611328123,527.4642944335939,216.0297088623047
6117,378.0814514160156,-1036.455322265625,534.383056640625,210.8536834716797
6118,387.65185546875,-1023.3132934570312,535.0001831054689,217.75379943847656
6119,371.2149963378906,-1035.7484130859377,533.1452026367189,200.6587219238281
6120,367.96875,-1044.0772705078123,529.9625244140625,202.9624938964844
6121,377.5242004394531,-1042.5775146484377,530.7590942382811,217.5481109619141
6122,389.2076416015625,-1032.745361328125,532.011962890625,227.3242034912109
6123,378.2833862304688,-1049.0662841796877,527.655029296875,214.7693634033203
6124,364.87213134765625,-1054.7733154296877,527.4605102539061,214.8030242919922
6125,370.8484802246094,-1044.095947265625,527.7223510742189,225.9142608642578
6126,388.3624267578125,-1033.0557861328123,532.8160400390625,236.36729431152344
6127,376.4172058105469,-1048.419189453125,534.0203247070311,224.79229736328125
6128,370.6689758300781,-1056.01123046875,528.7732543945311,220.04635620117188
6129,380.25433349609375,-1045.05712890625,532.8983154296875,225.0653076171875
6130,391.78070068359375,-1033.919677734375,537.8948364257811,238.28585815429688
6131,374.3752136230469,-1048.2322998046877,532.3448486328125,228.2965850830078
6132,373.75439453125,-1048.0340576171877,536.3914184570311,220.52133178710938
6133,380.8489685058594,-1037.7755126953123,533.3321533203125,226.0489044189453
6134,396.9342956542969,-1026.06591796875,538.5867309570311,232.72088623046875
6135,388.1193237304688,-1038.156982421875,540.5127563476561,217.46209716796875
6136,375.48968505859375,-1044.83642578125,533.2985229492189,210.1318817138672
6137,385.9539489746094,-1041.60888671875,532.1316528320311,213.9652862548828
6138,397.8655090332031,-1031.054931640625,536.2268676757811,230.73873901367188
6139,383.145263671875,-1047.794677734375,529.7531127929689,218.82716369628903
6140,373.3168029785156,-1052.30126953125,528.06640625,210.9322204589844
6141,384.7983093261719,-1045.3262939453123,528.1561279296875,220.7831268310547
6142,388.2951049804688,-1033.4447021484377,525.4821166992189,223.2701568603516
6143,376.3274230957031,-1044.9560546875,527.4156494140625,216.0297088623047
6144,369.423583984375,-1052.3424072265623,520.94189453125,212.87322998046875
6145,372.66607666015625,-1047.8021240234377,525.6279907226561,219.0029296875
6146,391.3917541503906,-1035.7447509765623,537.8798828125,228.2143096923828
6147,369.4572448730469,-1047.7236328125,528.9378051757811,213.0938873291016
6148,370.9419860839844,-1050.9361572265623,523.5635375976561,207.52891540527344
6149,370.25384521484375,-1042.3868408203123,517.0486450195311,216.18304443359372
6150,384.2896728515625,-1030.3779296875,527.972900390625,226.3443603515625
6151,373.2457580566406,-1043.49755859375,532.0419311523439,208.34796142578125
6152,363.68658447265625,-1049.672119140625,526.3684692382811,207.8468170166016
6153,376.8472900390625,-1040.988037109375,531.78759765625,215.60336303710938
6154,392.0275268554688,-1027.6217041015623,539.9181518554689,220.37921142578125
6155,374.65570068359375,-1047.40576171875,531.9446411132811,215.25555419921875
6156,365.8033447265625,-1044.697998046875,531.1967163085939,213.1462554931641
6157,376.0020751953125,-1040.9244384765623,529.8802490234375,222.0172882080078
6158,391.5862121582031,-1027.0457763671877,532.1952514648439,227.0025787353516
6159,376.3685607910156,-1044.6531982421877,533.2686157226561,218.0118560791016
6160,363.8286743164063,-1051.07080078125,527.0790405273439,214.3841552734375
6161,372.8343811035156,-1041.6500244140623,527.3296508789061,221.78167724609372
6162,388.72894287109375,-1036.387939453125,532.1802978515625,231.49794006347656
6163,378.0103759765625,-1048.1275634765623,528.2571411132811,219.085205078125
6164,364.0082092285156,-1053.086669921875,527.2435913085939,219.7209930419922
6165,369.86114501953125,-1041.384521484375,527.2062377929689,218.1689300537109
6166,386.3765563964844,-1029.790771484375,534.405517578125,225.8245086669922
6167,367.8453369140625,-1046.5455322265623,527.3370971679689,206.96044921875
6168,364.7486877441406,-1046.728759765625,529.1771240234375,210.80133056640625
6169,374.15081787109375,-1042.7607421875,528.7732543945311,213.8007354736328
6170,380.5684814453125,-1025.467529296875,531.6417236328125,215.6819000244141
6171,371.6600341796875,-1041.339599609375,530.60205078125,211.65028381347656
6172,364.341064453125,-1046.927001953125,532.3897094726561,214.6422119140625
6173,366.98516845703125,-1037.8876953125,528.07763671875,218.14276123046875
6174,388.5382080078125,-1027.7786865234377,539.3533935546875,231.03793334960938
6175,375.9309997558594,-1040.2437744140623,530.848876953125,223.7600860595703
6176,363.0283508300781,-1048.9727783203123,521.1326293945311,211.74752807617188
6177,373.5748596191406,-1038.4561767578123,524.0460205078125,215.8576812744141
6178,387.70794677734375,-1034.435791015625,524.416259765625,231.22866821289062
6179,370.0481262207031,-1047.82080078125,522.4714965820311,214.518798828125
6180,366.4353942871094,-1055.2333984375,521.495361328125,211.06686401367188
6181,369.6741638183594,-1046.8521728515623,522.033935546875,218.68878173828125
6182,386.2606201171875,-1031.174560546875,525.0220947265625,227.70941162109372
6183,385.0002746582031,-1042.656005859375,528.1224975585939,221.4936981201172
6184,365.5079040527344,-1041.4854736328123,520.7474365234375,210.2740020751953
6185,382.3598937988281,-1029.79833984375,523.3541259765625,220.04635620117188
6186,396.18255615234375,-1021.9931030273438,531.3500366210939,224.9007568359375
6187,380.5348205566406,-1043.1309814453123,531.0209350585939,211.7138671875
6188,374.53228759765625,-1046.04443359375,532.5131225585939,212.16639709472656
6189,379.9775695800781,-1036.634765625,533.2461547851561,215.7080841064453
6190,391.95648193359375,-1025.871337890625,538.87841796875,232.7096710205078
6191,375.8898620605469,-1037.9437255859377,534.7421264648439,227.14096069335938
6192,373.2345275878906,-1047.244873046875,534.9552612304689,224.21261596679688
6193,381.2603759765625,-1039.847412109375,535.0300903320311,233.2930908203125
6194,392.7119445800781,-1027.3636474609377,542.233154296875,240.365234375
6195,388.650390625,-1043.897705078125,538.39599609375,232.71714782714844
6196,378.5190124511719,-1050.5023193359377,538.0182495117189,219.69854736328125
6197,391.1075134277344,-1041.4481201171877,539.8994140625,226.7295684814453
6198,403.1163330078125,-1031.0997314453123,537.0458984375,235.2789764404297
6199,383.4519348144531,-1045.0458984375,531.7913208007811,219.11886596679688
6200,374.8763427734375,-1050.1732177734377,530.2318115234375,207.6448516845703
6201,383.0667419433594,-1041.25732421875,529.55859375,219.97531127929688
6202,395.38970947265625,-1025.306640625,539.7685546875,226.49020385742188
6203,376.6528015136719,-1041.6837158203123,533.1452026367189,224.47067260742188
6204,371.6712646484375,-1047.9630126953123,533.27978515625,220.2445831298828
6205,374.08349609375,-1041.4742431640623,534.263427734375,215.9810943603516
6206,394.16302490234375,-1028.9866943359377,539.5479125976561,231.03793334960938
6207,370.2239074707031,-1040.7486572265623,537.3936767578125,215.54351806640625
6208,367.3217468261719,-1043.62841796875,530.9124755859375,213.86056518554688
6209,380.0,-1031.5299072265623,532.7225952148439,221.72183227539062
6210,392.4538879394531,-1017.4080200195312,545.2998657226561,231.6924133300781
6211,384.9740905761719,-1035.740966796875,543.1307373046875,222.0172882080078
6212,377.6850280761719,-1039.8660888671877,537.3787231445311,216.7515106201172
6213,381.1070251464844,-1033.227783203125,534.1474609375,220.77191162109372
6214,396.6351013183594,-1028.69873046875,537.4124145507811,230.7948303222656
6215,388.4110412597656,-1034.2861328125,540.404296875,220.45774841308597
6216,378.8555908203125,-1037.771728515625,531.8885498046875,215.09848022460938
6217,382.72265625,-1031.5784912109377,524.81640625,216.14938354492188
6218,393.31781005859375,-1020.0745239257812,529.7942504882811,231.52037048339844
6219,376.1479187011719,-1038.5533447265623,527.1875,218.580322265625
6220,371.71612548828125,-1035.6885986328123,526.3086547851561,220.80555725097656
6221,366.4503479003906,-1027.8759765625,524.7902221679689,224.1078948974609
6222,380.5871887207031,-1014.027099609375,529.7605590820311,228.73040771484372
6223,373.08868408203125,-1022.4905395507812,518.9260864257811,214.6908264160156
6224,366.607421875,-1024.356689453125,523.5261840820311,213.7857666015625
6225,372.37060546875,-1015.9008178710938,518.8101196289061,209.5970764160156
6226,382.50201416015625,-1001.7789306640624,531.2340698242189,214.9451446533203
6227,371.4206848144531,-1018.9750366210938,525.8897705078125,202.1846008300781
6228,367.310546875,-1022.935546875,527.9653930664061,198.50079345703125
6229,374.8838195800781,-1022.5092163085938,528.6909790039061,207.8767242431641
6230,394.5931091308594,-1012.4077758789062,542.9773559570311,221.69940185546875
6231,372.2976989746094,-1026.4735107421877,536.7205200195311,213.4547882080078
6232,369.7134094238281,-1030.2508544921877,533.3658447265625,207.8561553955078
6233,375.0091247558594,-1022.3970336914062,521.6076049804689,210.6461181640625
6234,388.9103393554688,-1016.8582153320312,525.5980834960939,220.6540985107422
6235,376.0039367675781,-1037.99609375,520.365966796875,216.5813446044922
6236,371.5497131347656,-1041.0067138671877,519.4346923828125,215.75482177734372
6237,381.6848449707031,-1030.0899658203123,516.8130493164061,222.9503936767578
6238,393.38323974609375,-1021.0281982421876,523.7767333984375,231.7578582763672
6239,379.500732421875,-1035.0640869140623,520.6165161132811,221.3347625732422
6240,368.3857421875,-1047.5404052734377,508.96673583984375,212.35525512695312
6241,374.4256896972656,-1039.4884033203123,514.064208984375,222.6923370361328
6242,383.3229064941406,-1019.2069091796876,524.5284423828125,225.3701171875
6243,376.25823974609375,-1032.2628173828123,524.6668090820311,218.5111389160156
6244,371.72174072265625,-1036.7545166015623,528.4702758789061,211.95509338378903
6245,377.1894836425781,-1027.464599609375,525.3998413085939,214.32244873046875
6246,390.2267761230469,-1011.876708984375,534.383056640625,218.8701629638672
6247,379.3885498046875,-1029.2672119140623,535.8640747070311,212.306640625
6248,369.6311340332031,-1037.9774169921877,530.871337890625,209.40447998046875
6249,374.2312316894531,-1032.1917724609377,532.5841674804689,212.19444274902344
6250,392.1752624511719,-1020.6878662109376,534.0726928710939,229.9365234375
6251,377.3652648925781,-1038.452392578125,533.6500854492189,220.32498168945312
6252,363.1311950683594,-1048.2098388671877,532.056884765625,221.2524871826172
6253,376.5050659179688,-1035.46044921875,534.2110595703125,234.267333984375
6254,384.4822998046875,-1028.06298828125,530.8040161132811,234.4393615722656
6255,371.72174072265625,-1038.2579345703123,526.5368041992189,216.9702911376953
6256,371.4936218261719,-1048.531494140625,526.1740112304689,219.1693572998047
6257,378.315185546875,-1041.5565185546877,527.3109130859375,224.11724853515625
6258,391.883544921875,-1025.3814697265623,533.5453491210939,235.04522705078125
6259,381.542724609375,-1040.516845703125,534.3606567382811,223.60113525390625
6260,375.5588684082031,-1048.7783203125,533.5902099609375,216.83192443847656
6261,379.3847961425781,-1038.1046142578123,531.6492309570311,223.16357421875
6262,399.9430236816406,-1033.052001953125,542.012451171875,229.1474151611328
6263,379.6391296386719,-1042.607421875,533.1788330078125,212.62452697753903
6264,376.108642578125,-1043.5274658203123,534.65234375,210.08514404296875
6265,384.3887939453125,-1036.6796875,536.4063720703125,204.9165954589844
6266,389.78173828125,-1017.265869140625,546.5863647460939,217.1834716796875
6267,378.3077087402344,-1037.652099609375,542.6370239257811,208.0281982421875
6268,372.9334716796875,-1040.011962890625,539.181396484375,203.0765686035156
6269,382.7843627929688,-1037.2967529296877,540.8980102539061,217.74072265625
6270,391.8199768066406,-1027.4683837890623,547.2857666015625,232.8461761474609
6271,377.4064025878906,-1044.8326416015623,540.1387939453125,220.029541015625
6272,372.9596557617188,-1059.0218505859377,531.671630859375,218.3652801513672
6273,377.6419982910156,-1048.7333984375,529.663330078125,227.2288360595703
6274,397.2091674804688,-1034.51806640625,537.3002319335939,236.9264068603516
6275,389.2955322265625,-1046.302490234375,535.0450439453125,218.02120971679688
6276,371.1719665527344,-1051.77392578125,529.510009765625,221.1739501953125
6277,376.3592224121094,-1046.9755859375,528.5712890625,231.12582397460938
6278,392.1902160644531,-1033.6802978515623,530.2766723632811,237.18820190429688
6279,384.594482421875,-1051.657958984375,524.9248657226561,221.6676177978516
6280,371.4038696289063,-1052.4583740234377,522.9090576171875,221.884521484375
6281,386.10540771484375,-1044.567138671875,525.3287963867189,225.85255432128903
6282,399.9280700683594,-1035.5166015625,534.13623046875,227.90576171875
6283,377.3241271972656,-1045.939697265625,531.12939453125,217.2470550537109
6284,372.7651672363281,-1045.4609375,533.8445434570311,205.49627685546875
6285,381.1724853515625,-1040.75244140625,530.2803955078125,214.39724731445312
6286,390.2005920410156,-1029.869384765625,531.96337890625,225.58328247070312
6287,374.67999267578125,-1048.2359619140623,530.1046142578125,215.111572265625
6288,368.7223510742188,-1051.6318359375,531.5631713867189,220.99069213867188
6289,382.7881164550781,-1037.0499267578123,540.4754028320311,229.9851531982422
6290,391.8872985839844,-1033.0108642578123,541.8441772460939,233.2500762939453
6291,381.9840393066406,-1050.823974609375,541.9788208007811,229.4840087890625
6292,372.7689208984375,-1055.35302734375,538.994384765625,223.21592712402344
6293,376.295654296875,-1048.7296142578123,536.5746459960939,226.2751617431641
6294,390.9485778808594,-1034.71630859375,540.344482421875,234.9554748535156
6295,381.55767822265625,-1053.19140625,530.42626953125,221.77232360839844
6296,366.3213195800781,-1054.1337890625,526.0543212890625,213.6866607666016
6297,378.6629943847656,-1042.3643798828123,528.7470703125,218.1483612060547
6298,393.409423828125,-1035.763427734375,534.5962524414061,224.74180603027344
6299,382.0962219238281,-1046.0556640625,532.4383544921875,215.4369354248047
6300,370.2482299804688,-1048.72216796875,530.4674072265625,209.37081909179688
6301,379.06689453125,-1038.1307373046877,531.5856323242189,218.51487731933597
6302,389.1122741699219,-1029.1624755859377,537.5208740234375,227.5242919921875
6303,373.4832458496094,-1046.8035888671877,538.2763061523439,210.9976806640625
6304,362.7609558105469,-1045.8387451171877,536.0173950195311,202.3360748291016
6305,373.04193115234375,-1037.749267578125,535.8154907226561,210.81442260742188
6306,387.6724243164063,-1022.3259887695312,539.60400390625,222.33331298828125
6307,380.3833618164063,-1039.974609375,534.828125,214.9395294189453
6308,375.8992004394531,-1051.4598388671877,529.39404296875,207.2652587890625
6309,376.9875183105469,-1046.7550048828123,533.0816040039061,218.63829040527344
6310,398.3648071289063,-1032.6331787109377,543.594482421875,226.36866760253903
6311,385.5818176269531,-1048.28466796875,534.8729858398439,220.94955444335938
6312,374.17138671875,-1058.5693359375,531.095703125,215.4444122314453
6313,390.50726318359375,-1045.457275390625,533.7847290039061,221.8321685791016
6314,396.15826416015625,-1039.473388671875,540.1986083984375,232.15054321289062
6315,381.82696533203125,-1052.5330810546877,538.6091918945311,217.5761566162109
6316,369.6274108886719,-1060.1588134765623,531.8212280273439,212.79656982421875
6317,375.1213073730469,-1052.794921875,534.592529296875,213.81756591796875
6318,393.3608093261719,-1040.505615234375,542.4201049804689,224.0200042724609
6319,382.3355712890625,-1053.19140625,535.8640747070311,214.87594604492188
6320,372.4472961425781,-1054.4068603515623,534.8880004882811,202.49688720703125
6321,377.9262390136719,-1049.8665771484377,540.96533203125,213.66796875
6322,396.988525390625,-1029.4991455078123,546.5826416015625,223.66098022460938
6323,382.86663818359375,-1048.146240234375,543.2840576171875,210.4815673828125
6324,373.5318603515625,-1051.1343994140623,536.9337158203125,201.59930419921875
6325,379.2950439453125,-1038.9984130859377,542.562255859375,210.2310028076172
6326,396.6593933105469,-1032.6966552734377,541.2083740234375,215.75482177734372
6327,381.5950927734375,-1051.7626953125,537.0234375,205.3242492675781
6328,376.3442687988281,-1053.3447265625,532.5841674804689,202.17898559570312
6329,385.41351318359375,-1053.2437744140623,535.19091796875,207.44102478027344
6330,403.3912048339844,-1036.750732421875,545.0343017578125,223.7918701171875
6331,384.3962707519531,-1047.4132080078123,537.857421875,214.82733154296875
6332,373.05316162109375,-1053.3671875,533.9305419921875,205.23074340820312
6333,372.6529846191406,-1051.8001708984377,529.2482299804689,218.9449615478516
6334,392.6315307617188,-1039.7725830078123,535.7406616210939,222.0415954589844
6335,376.36669921875,-1053.501708984375,534.4953002929689,210.5376739501953
6336,369.75830078125,-1052.877197265625,530.1383056640625,209.06788635253903
6337,372.7203063964844,-1045.479736328125,529.6334228515625,209.62887573242188
6338,386.55792236328125,-1033.381103515625,538.8859252929689,217.96136474609372
6339,375.2559509277344,-1047.7236328125,536.1445922851561,214.87594604492188
6340,374.0180358886719,-1045.8387451171877,539.2449340820311,208.54803466796875
6341,373.2663269042969,-1035.632568359375,549.1407470703125,213.64552307128903
6342,387.9529113769531,-1021.8921508789062,548.3778076171875,225.20928955078125
6343,371.0036926269531,-1037.9661865234377,538.1454467773439,207.3437957763672
6344,362.49542236328125,-1043.9462890625,529.2220458984375,200.2192840576172
6345,369.4927673339844,-1030.811767578125,535.9052124023439,200.89620971679688
6346,392.8409729003906,-1022.2324829101562,538.9345703125,207.79632568359372
6347,378.3899841308594,-1035.8531494140623,536.8963012695311,193.0162353515625
6348,372.2528076171875,-1043.2918701171877,527.35205078125,189.86349487304688
6349,382.5113525390625,-1038.42626953125,525.1829223632811,195.6491241455078
6350,398.7013854980469,-1029.932861328125,530.40380859375,210.93409729003903
6351,384.0447082519531,-1044.799072265625,523.9599609375,206.3826446533203
6352,375.0091247558594,-1052.0693359375,524.1544799804689,209.45309448242188
6353,379.8896789550781,-1044.802734375,520.06298828125,215.1826171875
6354,393.8245544433594,-1034.9854736328123,526.2974243164061,233.30992126464844
6355,383.68194580078125,-1051.4261474609377,524.4199829101561,219.3002471923828
6356,377.2156677246094,-1060.4505615234377,520.8408813476561,215.3621368408203
6357,387.2610168457031,-1048.3033447265623,527.1201782226561,227.41583251953125
6358,395.2307434082031,-1036.9564208984377,535.1123657226561,233.9307403564453
6359,383.4575500488281,-1047.8695068359377,533.7958984375,221.4207763671875
6360,375.955322265625,-1053.0828857421877,529.6446533203125,213.76893615722656
6361,378.09454345703125,-1049.451416015625,524.6369018554689,212.0224151611328
6362,397.8000793457031,-1037.8016357421877,533.934326171875,216.49533081054688
6363,380.3048095703125,-1054.16748046875,527.2623291015625,203.37576293945312
6364,370.3117980957031,-1055.491455078125,521.787109375,201.51329040527344
6365,376.8341979980469,-1040.5953369140623,520.7399291992189,200.88497924804688
6366,384.7366027832031,-1031.4139404296877,527.17626953125,205.9001922607422
6367,376.976318359375,-1040.8758544921877,523.9076538085939,197.61257934570312
6368,368.1688537597656,-1042.9439697265623,526.8659057617189,201.05328369140625
6369,382.047607421875,-1035.0640869140623,523.3279418945311,204.1312255859375
6370,397.5008850097656,-1025.564697265625,531.6080932617189,206.13580322265625
6371,381.1500244140625,-1030.119873046875,526.2225952148439,210.08888244628903
6372,370.68206787109375,-1035.456787109375,525.3773803710939,204.99139404296875
6373,377.1333923339844,-1030.9688720703123,526.8322143554689,214.33740234375
6374,388.8916320800781,-1015.9194946289062,530.3888549804689,226.7613525390625
6375,374.5640563964844,-1027.2177734375,528.2608642578125,218.2007293701172
6376,370.6371765136719,-1031.8477783203123,529.322998046875,215.37710571289062
6377,370.36041259765625,-1023.0477905273438,524.9136352539061,219.03846740722656
6378,381.5950927734375,-1011.3045043945312,532.7525024414061,228.39569091796875
6379,368.4007263183594,-1025.52734375,528.9378051757811,213.76519775390625
6380,365.8688049316406,-1032.6256103515623,534.2110595703125,206.15077209472656
6381,375.8319091796875,-1024.0911865234377,532.6514892578125,220.25018310546875
6382,381.4454956054688,-1019.2891845703124,538.57177734375,229.1025238037109
6383,368.7896728515625,-1032.524658203125,540.3931274414061,210.7059631347656
6384,356.777099609375,-1031.571044921875,532.0905151367189,202.79232788085938
6385,364.7056884765625,-1024.6409912109377,531.5819091796875,212.6133117675781
6386,379.7550659179688,-1007.1793823242188,541.283203125,222.70730590820312
6387,362.4318237304688,-1028.354736328125,539.7124633789061,206.71548461914062
6388,352.9100646972656,-1032.6143798828123,533.1339721679689,202.78485107421875
6389,362.962890625,-1017.8829345703124,540.5389404296875,206.6182556152344
6390,375.6785583496094,-1016.48046875,541.4141235351561,214.34487915039062
6391,370.8802795410156,-1027.913330078125,538.0032958984375,201.22157287597656
6392,358.8714599609375,-1033.897216796875,532.3672485351561,192.2046813964844
6393,375.7309265136719,-1020.3662719726562,537.5956420898439,201.37864685058597
6394,390.6344299316406,-1010.1002197265624,544.1068115234375,218.73179626464844
6395,378.8387756347656,-1031.2119140625,539.5441284179689,215.9829559326172
6396,373.3448486328125,-1043.9500732421877,538.90087890625,211.10614013671875
6397,385.75384521484375,-1037.65576171875,536.6644287109375,216.31207275390625
6398,391.5806274414063,-1024.8914794921877,542.551025390625,229.6971740722656
6399,382.8068237304688,-1043.9761962890623,536.6046142578125,218.9674072265625
6400,380.2674255371094,-1049.0887451171877,535.4788818359375,220.4932861328125
6401,385.6229553222656,-1038.946044921875,539.9368286132811,221.9293975830078
6402,397.8748779296875,-1025.0748291015623,546.05908203125,223.8891143798828
6403,385.72393798828125,-1044.8514404296877,535.8865356445311,223.6647186279297
6404,377.9112854003906,-1057.982177734375,538.9083862304689,223.38047790527344
6405,385.4584045410156,-1053.1165771484377,539.0018310546875,223.44406127929688
6406,388.98138427734375,-1037.02001953125,543.66552734375,232.2328338623047
6407,371.0859680175781,-1049.9263916015623,538.3773193359375,215.75108337402344
6408,359.90740966796875,-1059.672607421875,535.9463500976561,210.4965362548828
6409,370.7269287109375,-1044.731689453125,532.5131225585939,211.1584930419922
6410,375.76458740234375,-1035.6474609375,531.8623657226561,218.0922698974609
6411,361.29864501953125,-1050.91748046875,523.021240234375,199.60220336914062
6412,351.6160583496094,-1047.9554443359377,518.2341918945311,187.52606201171875
6413,363.0227355957031,-1037.8876953125,516.4764404296875,192.4253387451172
6414,379.3324279785156,-1030.0863037109377,528.0925903320311,198.0277099609375
6415,371.7254943847656,-1045.5806884765623,525.5419311523439,194.0858459472656
6416,373.5991821289063,-1056.6395263671877,523.0885620117189,191.09393310546875
6417,390.1295471191406,-1048.486572265625,526.0917358398439,207.44851684570312
6418,398.4059448242188,-1038.957275390625,534.3157958984375,215.7099456787109
6419,392.6203002929688,-1054.788330078125,536.4400024414061,208.7163391113281
6420,385.6902770996094,-1060.9591064453123,534.4653930664061,214.68521118164062
6421,394.73333740234375,-1055.2633056640623,536.7242431640625,215.69873046875
6422,403.5931701660156,-1048.486572265625,537.7789306640625,228.421875
6423,389.37408447265625,-1058.8685302734377,537.18798828125,226.4210205078125
6424,375.955322265625,-1063.218017578125,531.2453002929689,214.3673248291016
6425,389.82659912109375,-1052.1292724609377,536.7915649414061,227.5766448974609
6426,393.1999816894531,-1038.8338623046877,541.58984375,237.1395721435547
6427,376.70703125,-1051.24658203125,540.1986083984375,221.3871154785156
6428,367.7387390136719,-1056.388916015625,535.1348266601561,210.49278259277344
6429,368.1277160644531,-1043.1983642578123,536.5447387695311,219.70042419433597
6430,377.1632995605469,-1030.0899658203123,545.8309326171875,224.28927612304688
6431,363.2770385742188,-1046.564208984375,536.8439331054689,212.8676300048828
6432,357.7326354980469,-1055.5025634765623,535.7743530273439,209.1576385498047
6433,361.8166198730469,-1046.6241455078123,525.9271850585939,204.6435852050781
6434,378.1001586914063,-1035.718505859375,528.7283325195311,210.60498046875
6435,377.5054931640625,-1058.2215576171877,525.3400268554689,197.8893280029297
6436,373.4552001953125,-1064.1978759765623,522.97265625,193.00875854492188
6437,375.9309997558594,-1059.859619140625,522.93896484375,203.82455444335938
6438,391.631103515625,-1042.81689453125,534.7832641601561,214.52066040039062
6439,382.135498046875,-1058.2813720703123,530.1233520507811,213.4585266113281
6440,371.2935180664063,-1058.4384765625,530.1083984375,208.7686920166016
6441,380.598388671875,-1051.0035400390623,529.7306518554689,217.40786743164062
6442,395.8310241699219,-1043.392822265625,531.0882568359375,228.7808990478516
6443,383.7474060058594,-1055.0089111328123,528.7059326171875,219.1768341064453
6444,375.9459533691406,-1065.86962890625,529.0088500976561,216.461669921875
6445,381.6829833984375,-1054.720947265625,532.0007934570311,222.17623901367188
6446,393.4898376464844,-1041.98291015625,537.2890014648439,232.2777099609375
6447,380.19073486328125,-1053.262451171875,534.4953002929689,224.37155151367188
6448,370.2650451660156,-1058.2252197265623,537.3076782226561,224.45758056640625
6449,370.8222961425781,-1057.6007080078123,537.73779296875,227.7075500488281
6450,388.9271545410156,-1040.9619140625,538.3623657226561,238.81504821777344
6451,378.7621154785156,-1056.9349365234377,534.042724609375,231.0098876953125
6452,373.1372985839844,-1055.7794189453123,535.8603515625,224.6333465576172
6453,374.7566833496094,-1047.8470458984377,536.6083374023439,222.91673278808597
6454,392.0499572753906,-1036.993896484375,542.7941284179689,231.31655883789062
6455,377.36712646484375,-1053.284912109375,537.8051147460939,219.1618804931641
6456,375.702880859375,-1062.0286865234377,540.1387939453125,215.74734497070312
6457,386.3989868164063,-1057.8961181640623,536.6607055664061,218.72804260253903
6458,400.5806884765625,-1045.9434814453123,539.8807373046875,224.6744842529297
6459,386.279296875,-1066.4305419921877,535.3367309570311,212.5422515869141
6460,375.9048156738281,-1066.5390625,533.5266723632811,213.7390289306641
6461,384.6487121582031,-1063.87255859375,529.5474243164061,219.99588012695312
6462,395.8272705078125,-1050.78662109375,535.800537109375,229.03147888183597
6463,385.83050537109375,-1059.287353515625,535.250732421875,221.27865600585938
6464,380.2468566894531,-1070.308837890625,530.93115234375,214.4982147216797
6465,386.877685546875,-1058.4234619140623,539.0280151367189,225.8376007080078
6466,402.9592590332031,-1048.2921142578123,543.7627563476561,230.76678466796875
6467,378.2085876464844,-1062.230712890625,542.913818359375,216.15499877929688
6468,370.3548278808594,-1063.0572509765623,537.2403564453125,209.3558654785156
6469,373.6870727539063,-1054.82568359375,534.9141235351561,216.26345825195312
6470,388.1380310058594,-1044.062255859375,538.137939453125,228.1077117919922
6471,368.81396484375,-1049.5823974609377,534.7159423828125,213.5295867919922
6472,364.6103210449219,-1052.2264404296877,531.4959106445311,207.6093292236328
6473,372.8381042480469,-1045.225341796875,534.8505859375,212.59461975097656
6474,384.3644714355469,-1036.302001953125,535.4302368164061,214.2962646484375
6475,374.3340759277344,-1046.3436279296877,530.8114624023439,209.61764526367188
6476,368.2043762207031,-1056.18701171875,527.70361328125,201.61801147460938
6477,370.422119140625,-1044.3502197265623,532.2401123046875,205.4364471435547
6478,390.9130554199219,-1035.3221435546877,541.5786743164061,224.5922088623047
6479,377.0754089355469,-1058.1728515625,535.6509399414061,211.2594757080078
6480,373.40283203125,-1059.870849609375,533.6388549804689,212.3777008056641
6481,383.5155334472656,-1050.7716064453123,537.150634765625,216.626220703125
6482,398.4302368164063,-1041.58642578125,542.3116455078125,228.77716064453125
6483,385.2059631347656,-1057.6231689453123,534.8505859375,219.3862762451172
6484,374.77911376953125,-1060.199951171875,527.9915771484375,215.2237701416016
6485,377.01556396484375,-1054.859375,527.0865478515625,214.16163635253903
6486,387.7677917480469,-1038.9871826171877,532.1092529296875,229.8505096435547
6487,383.496826171875,-1053.4569091796877,532.6290893554689,213.5632476806641
6488,368.8027648925781,-1063.7042236328123,529.322998046875,207.53453063964844
6489,381.5296325683594,-1052.1104736328123,526.7723999023439,217.8267364501953
6490,383.45941162109375,-1039.4771728515623,528.3057250976561,223.2944641113281
6491,374.0760192871094,-1057.0284423828123,521.5364990234375,212.1794891357422
6492,368.15948486328125,-1057.6231689453123,518.103271484375,202.7362365722656
6493,379.6335144042969,-1049.9339599609377,522.9352416992189,205.83660888671875
6494,390.2062072753906,-1034.9593505859377,526.001953125,212.8414459228516
6495,376.5181579589844,-1047.8807373046877,522.9053344726561,197.4255828857422
6496,371.5964660644531,-1051.736572265625,521.9666137695311,193.94747924804688
6497,374.53228759765625,-1040.9356689453123,522.0638427734375,199.1571502685547
6498,389.5105895996094,-1031.26806640625,530.3814086914061,211.0163726806641
6499,377.54290771484375,-1048.673583984375,524.4536743164061,203.7086181640625
6500,369.1430969238281,-1053.1539306640623,527.5203857421875,208.72007751464844
6501,378.919189453125,-1041.994140625,531.58935546875,216.1400451660156
6502,395.857177734375,-1033.5830078125,536.2268676757811,224.4201812744141
6503,379.0126953125,-1050.0162353515623,533.077880859375,213.48097229003903
6504,373.55615234375,-1053.0679931640623,533.9155883789061,212.81900024414062
6505,379.259521484375,-1041.3321533203123,529.3080444335939,220.59425354003903
6506,388.9234008789063,-1030.033935546875,531.6866455078125,229.71961975097656
6507,372.9166564941406,-1043.6546630859377,532.6589965820311,212.69558715820312
6508,362.2579345703125,-1052.843505859375,532.4869384765625,216.1587371826172
6509,365.0142211914063,-1046.48193359375,526.1104125976561,213.55203247070312
6510,381.5296325683594,-1037.92138671875,533.3807983398439,226.70152282714844
6511,372.1798706054688,-1053.498046875,528.7395629882811,211.3230438232422
6512,365.3732604980469,-1049.518798828125,526.8060302734375,202.99429321289062
6513,376.17034912109375,-1047.2113037109377,528.2421875,206.6855773925781
6514,392.3529052734375,-1036.773193359375,534.0390014648439,212.7217712402344
6515,381.70166015625,-1049.7506103515623,528.477783203125,200.1108245849609
6516,370.1229248046875,-1054.085205078125,522.8380126953125,184.11154174804688
6517,386.0249938964844,-1042.7308349609377,522.4415893554689,199.5423583984375
6518,393.0073852539063,-1027.2139892578123,525.33251953125,208.09176635742188
6519,374.8539123535156,-1044.4100341796877,524.4910278320311,196.75987243652344
6520,366.9515075683594,-1041.50048828125,528.7021484375,198.7906494140625
6521,381.1481628417969,-1041.8819580078123,532.9320068359375,211.27069091796875
6522,394.0171508789063,-1020.141845703125,533.4331665039061,231.5110321044922
6523,377.28857421875,-1040.97314453125,530.09716796875,214.44212341308597
6524,372.57257080078125,-1041.5228271484377,532.0194702148439,221.22630310058597
6525,383.63519287109375,-1043.426513671875,526.9668579101561,218.4512939453125
6526,391.2608642578125,-1027.662841796875,531.3238525390625,235.0676727294922
6527,379.764404296875,-1043.1983642578123,527.1651000976561,225.12327575683597
6528,375.94970703125,-1047.7685546875,527.9990844726561,219.6405792236328
6529,379.68212890625,-1039.005859375,531.2415771484375,224.2444000244141
6530,388.8860168457031,-1034.1402587890623,535.49755859375,234.83580017089844
6531,371.4767761230469,-1045.105712890625,527.7223510742189,218.9225311279297
6532,361.7605285644531,-1046.070556640625,525.9945068359375,213.15933227539062
6533,368.7840576171875,-1033.160400390625,523.8365478515625,213.33511352539062
6534,382.0345153808594,-1026.185546875,523.9786987304689,214.9245758056641
6535,372.991455078125,-1038.4598388671877,523.6383666992189,207.68038940429688
6536,365.5752258300781,-1046.0294189453123,519.2140502929689,192.05882263183597
6537,381.8512573242188,-1036.7882080078123,524.6144409179689,188.71908569335938
6538,402.12152099609375,-1030.7706298828123,528.982666015625,198.139892578125
6539,381.7091369628906,-1039.6304931640623,522.30322265625,178.37452697753906
6540,378.2534790039063,-1046.912109375,523.7841796875,180.43521118164062
6541,384.8506774902344,-1033.4296875,529.4950561523439,190.57408142089844
6542,398.2769165039063,-1028.934326171875,534.51025390625,209.86448669433597
6543,385.0563659667969,-1051.220458984375,530.7217407226561,205.45887756347656
6544,363.46966552734375,-1051.79638671875,527.4268798828125,206.43125915527344
6545,376.0132751464844,-1045.7003173828123,531.3724365234375,220.4484100341797
6546,388.1343078613281,-1042.4727783203123,533.2573852539061,232.83868408203125
6547,375.7253112792969,-1050.37890625,526.5517578125,220.90841674804688
6548,368.2791748046875,-1058.6702880859377,520.167724609375,218.01747131347656
6549,370.55303955078125,-1049.57861328125,520.6539306640625,221.9032287597656
6550,383.5192565917969,-1033.6317138671877,522.3929443359375,231.4287567138672
6551,373.989990234375,-1050.39013671875,524.3040771484375,220.21652221679688
6552,369.53204345703125,-1054.80322265625,519.7152099609375,213.31640625
6553,370.9606628417969,-1043.1534423828123,521.8132934570311,221.46939086914062
6554,379.7045593261719,-1029.3009033203123,528.8517456054689,226.70899963378903
6555,369.3263549804688,-1047.525390625,523.9637451171875,209.5092010498047
6556,358.4507141113281,-1045.8760986328123,525.7476806640625,206.09466552734372
6557,366.1436767578125,-1036.114990234375,523.6795043945311,204.5239105224609
6558,381.23419189453125,-1022.6737670898438,533.32470703125,211.61849975585938
6559,365.8108215332031,-1038.25048828125,531.8175048828125,191.7110137939453
6560,366.5027160644531,-1037.2144775390623,522.6061401367189,189.9196014404297
6561,380.4001770019531,-1032.3563232421877,528.8218383789061,201.3300323486328
6562,400.1356506347656,-1022.7785034179688,531.2901611328125,215.81092834472656
6563,374.5210571289063,-1041.552734375,530.1121215820311,204.72959899902344
6564,373.3616943359375,-1050.46875,532.0643310546875,209.2212219238281
6565,384.4430236816406,-1042.3531494140623,537.4011840820311,218.6233367919922
6566,397.6747741699219,-1033.78125,536.1707763671875,232.0645294189453
6567,380.1196899414063,-1048.980224609375,535.1572265625,221.67135620117188
6568,369.3936462402344,-1053.5205078125,527.4381103515625,220.78872680664062
6569,378.4554443359375,-1046.515625,524.9510498046875,221.44696044921875
6570,384.8880615234375,-1031.701904296875,526.8209838867189,230.50125122070312
6571,374.3938903808594,-1047.936767578125,518.7540283203125,214.0531768798828
6572,361.0948181152344,-1056.3291015625,515.4629516601561,212.63949584960938
6573,363.4659118652344,-1040.1353759765623,519.9171752929689,214.1167449951172
6574,383.25,-1026.6829833984377,526.3721923828125,232.7302398681641
6575,363.4659118652344,-1048.6884765625,528.3992309570311,218.98236083984372
6576,364.1166687011719,-1044.918701171875,529.345458984375,202.44451904296875
6577,359.4081115722656,-1032.3638916015623,519.6591186523439,206.9623260498047
6578,376.4471130371094,-1014.752685546875,529.3604125976561,212.28045654296875
6579,368.6082763671875,-1028.9718017578123,526.787353515625,200.9074249267578
6580,371.89190673828125,-1029.7608642578123,526.8322143554689,200.7989654541016
6581,383.7885437011719,-1027.2476806640623,527.6138916015625,202.28370666503903
6582,396.98663330078125,-1018.2569580078124,540.8530883789061,210.2384796142578
6583,384.7160339355469,-1037.5810546875,535.5386962890625,199.69569396972656
6584,383.00689697265625,-1041.0516357421877,533.747314453125,198.0314483642578
6585,397.7832336425781,-1036.7657470703123,534.2708740234375,207.44102478027344
6586,404.5561828613281,-1027.397216796875,538.9757080078125,219.74903869628903
6587,377.9729919433594,-1039.8211669921877,534.1661987304689,205.7580718994141
6588,376.2526245117188,-1042.9515380859377,529.8241577148439,204.61740112304688
6589,376.72760009765625,-1031.3017578125,519.3898315429689,213.750244140625
6590,393.2392578125,-1023.7770385742188,533.466796875,224.595947265625
6591,373.6197509765625,-1037.3304443359377,528.5114135742189,215.75857543945312
6592,367.5798034667969,-1036.6722412109377,524.2853393554689,215.5304412841797
6593,375.010986328125,-1033.5494384765623,527.6362915039061,224.07237243652344
6594,382.8460693359375,-1023.4329833984376,535.568603515625,238.69537353515625
6595,370.5006713867188,-1036.728271484375,533.4630737304689,220.1230316162109
6596,356.90240478515625,-1039.3948974609377,527.8831176757811,221.11036682128903
6597,365.4929504394531,-1030.4901123046877,523.9973754882811,228.0366668701172
6598,373.23828125,-1022.1913452148438,530.7179565429689,225.68052673339844
6599,367.2469482421875,-1033.9832763671877,529.6184692382811,209.4418792724609
6600,363.3574523925781,-1040.77490234375,524.8912353515625,201.37864685058597
6601,374.1433410644531,-1034.42822265625,524.0310668945311,202.53054809570312
6602,390.5577392578125,-1026.3538818359377,529.8765258789061,213.7913818359375
6603,380.258056640625,-1041.7584228515623,522.6024169921875,192.23834228515625
6604,381.9298095703125,-1054.533935546875,522.2844848632811,192.53753662109372
6605,381.9671936035156,-1046.736328125,522.93896484375,200.95230102539062
6606,401.3062133789063,-1032.6480712890623,533.4107055664061,221.29736328125
6607,379.35302734375,-1056.2879638671877,527.5764770507811,206.40133666992188
6608,372.8792419433594,-1057.9036865234377,524.2105712890625,205.81044006347656
6609,381.0621337890625,-1054.15625,529.4426879882811,218.8514709472656
6610,407.4471435546875,-1037.67822265625,539.6900024414061,231.40257263183597
6611,386.559814453125,-1059.6763916015623,532.6702270507811,220.62417602539062
6612,375.4635009765625,-1068.169677734375,525.1829223632811,218.86642456054688
6613,382.6216735839844,-1058.6927490234377,532.4046630859375,235.628662109375
6614,396.3209533691406,-1044.7017822265623,539.0916137695311,248.2695159912109
6615,380.6058654785156,-1062.7393798828123,532.4121704101561,225.0596923828125
6616,375.59814453125,-1067.500244140625,528.4591064453125,212.1084289550781
6617,373.1896667480469,-1061.1910400390623,529.180908203125,225.42620849609372
6618,387.9884338378906,-1039.615478515625,545.0717163085939,234.1401824951172
6619,373.2756652832031,-1062.8365478515623,532.8272705078125,213.82504272460938
6620,363.8698120117188,-1062.440185546875,533.032958984375,209.6326141357422
6621,371.80963134765625,-1055.7794189453123,523.1072998046875,216.7608642578125
6622,386.2568664550781,-1047.6114501953123,529.016357421875,219.71163940429688
6623,382.0083312988281,-1057.3875732421877,529.2220458984375,208.97813415527344
6624,370.2351379394531,-1061.407958984375,520.1752319335939,198.2633209228516
6625,378.67608642578125,-1051.11572265625,523.4251708984375,202.70257568359372
6626,393.6431579589844,-1040.2513427734377,528.03271484375,220.8710174560547
6627,371.5403747558594,-1059.6800537109377,515.9566040039061,203.24859619140625
6628,374.4163513183594,-1055.061279296875,524.0722045898439,211.3604431152344
6629,383.51177978515625,-1053.393310546875,530.0597534179689,221.3721618652344
6630,396.219970703125,-1045.681640625,531.5370483398439,227.3597412109375
6631,377.0193176269531,-1060.7720947265623,527.9579467773439,223.9639129638672
6632,368.17071533203125,-1062.032470703125,531.364990234375,217.45648193359372
6633,378.0028991699219,-1055.973876953125,524.6948852539061,223.3655242919922
6634,391.79193115234375,-1040.636474609375,530.267333984375,229.8505096435547
6635,378.6424255371094,-1058.180419921875,523.9169921875,219.6106719970703
6636,367.35540771484375,-1066.5390625,524.0291748046875,211.296875
6637,372.9091796875,-1054.8294677734377,520.8614501953125,219.595703125
6638,383.8334045410156,-1038.35888671875,533.58837890625,227.9282073974609
6639,376.1441650390625,-1051.55322265625,529.3772583007811,221.36468505859372
6640,356.7789611816406,-1060.0802001953123,524.0703125,205.32798767089844
6641,360.5637512207031,-1047.8096923828123,518.905517578125,210.5114898681641
6642,376.0880737304688,-1039.0694580078123,523.5691528320311,230.4638519287109
6643,359.4081115722656,-1050.868896484375,514.5671997070311,210.6162109375
6644,359.4417724609375,-1052.2152099609377,508.5085754394531,211.4464569091797
6645,368.8027648925781,-1047.6226806640623,513.987548828125,216.637451171875
6646,389.6863708496094,-1037.607177734375,522.0245971679689,226.2265472412109
6647,378.9752807617188,-1055.68212890625,518.9354248046875,217.5200653076172
6648,375.5607604980469,-1059.8446044921877,522.2340087890625,216.61126708984372
6649,374.7304992675781,-1057.993408203125,521.4822998046875,217.33680725097656
6650,391.2458801269531,-1042.48779296875,530.9330444335939,235.68101501464844
6651,381.806396484375,-1055.46142578125,529.915771484375,220.34368896484372
6652,376.6528015136719,-1060.962890625,527.2679443359375,215.4444122314453
6653,392.1546936035156,-1061.1611328125,534.92724609375,223.84423828125
6654,402.1028137207031,-1048.1873779296877,542.8184204101561,237.92495727539062
6655,385.8753967285156,-1059.848388671875,533.7716064453125,225.51596069335938
6656,377.5279541015625,-1060.65625,531.0452270507811,219.677978515625
6657,379.6521911621094,-1054.7620849609377,528.8984985351561,220.36985778808597
6658,389.9818115234375,-1043.9649658203123,536.2810668945311,224.9250640869141
6659,376.2152404785156,-1057.2266845703123,531.9764404296875,209.95797729492188
6660,365.5415649414063,-1060.914306640625,527.686767578125,203.92552185058597
6661,371.2449035644531,-1047.476806640625,526.7854614257811,211.27816772460938
6662,383.7922668457031,-1040.10546875,527.5970458984375,218.4064178466797
6663,364.98431396484375,-1045.423583984375,522.3798828125,207.8898162841797
6664,355.2605895996094,-1048.991455078125,525.0239868164061,209.20626831054688
6665,369.9658508300781,-1046.5679931640623,521.3065185546875,208.39096069335938
6666,380.25433349609375,-1028.5640869140623,527.391357421875,222.729736328125
6667,375.5757141113281,-1050.6220703125,524.9566650390625,214.4346466064453
6668,368.0211181640625,-1051.8973388671877,524.4742431640625,206.9099578857422
6669,375.856201171875,-1045.083251953125,527.2417602539061,216.5551605224609
6670,388.6429138183594,-1032.7528076171877,535.865966796875,230.0786437988281
6671,378.3731689453125,-1042.7159423828123,526.852783203125,225.8862152099609
6672,363.4360046386719,-1059.56787109375,523.7374877929689,216.49159240722656
6673,378.4255065917969,-1043.6171875,530.233642578125,226.0358123779297
6674,383.2051086425781,-1037.629638671875,533.120849609375,229.28952026367188
6675,374.5547180175781,-1054.522705078125,525.3119506835939,216.7234649658203
6676,369.9583740234375,-1057.290283203125,523.0231323242189,210.14871215820312
6677,374.8426818847656,-1049.4813232421877,522.6117553710939,211.31182861328125
6678,389.61529541015625,-1036.810546875,532.9376220703125,220.31002807617188
6679,375.27276611328125,-1058.3748779296877,522.533203125,210.42173767089844
6680,359.8830871582031,-1061.927734375,519.8143310546875,202.2313537597656
6681,372.2584228515625,-1047.8731689453123,517.6638793945311,208.51438903808597
6682,384.2148742675781,-1037.913818359375,523.823486328125,223.4253692626953
6683,361.25189208984375,-1053.7410888671877,521.2616577148439,209.6849670410156
6684,360.88165283203125,-1049.3953857421877,519.410400390625,209.56529235839844
6685,365.4966735839844,-1050.4200439453123,517.60400390625,211.2482452392578
6686,381.1182556152344,-1036.2982177734377,525.7345581054689,226.02459716796875
6687,376.9669494628906,-1054.4217529296877,524.6761474609375,220.20904541015625
6688,374.7716369628906,-1062.8963623046877,521.792724609375,210.2197723388672
6689,378.4891052246094,-1056.0186767578123,525.162353515625,212.3029022216797
6690,395.7711791992188,-1044.626953125,527.2903442382811,222.12762451171875
6691,379.7307434082031,-1054.4927978515623,526.6845092773439,211.7493896484375
6692,378.1899108886719,-1057.6380615234377,527.0211181640625,214.4346466064453
6693,385.29571533203125,-1047.244873046875,527.862548828125,218.2119445800781
6694,400.6853942871094,-1040.3485107421877,532.3130493164061,232.3786773681641
6695,371.1476745605469,-1054.556396484375,529.8372192382811,218.5298309326172
6696,374.341552734375,-1059.0780029296877,533.9848022460939,219.99961853027344
6697,377.2399597167969,-1055.33056640625,535.2713012695311,212.8526611328125
6698,389.6788635253906,-1037.584716796875,539.2767333984375,236.8179473876953
6699,373.7394104003906,-1055.3941650390623,533.2592163085939,220.2988128662109
6700,363.2452697753906,-1060.069091796875,526.4563598632811,221.75363159179688
6701,368.9934997558594,-1055.259521484375,525.2969970703125,223.43658447265625
6702,381.2678527832031,-1038.84130859375,524.58642578125,228.27975463867188
6703,364.7374877929688,-1057.301513671875,518.4454956054689,218.7467498779297
6704,361.1247253417969,-1053.9580078125,516.9083862304689,217.6846160888672
6705,370.9980773925781,-1052.3349609375,525.2222290039061,220.97198486328125
6706,389.23382568359375,-1039.1405029296877,537.7957153320311,224.0050506591797
6707,366.8468017578125,-1052.1778564453123,531.968994140625,212.6918487548828
6708,366.54010009765625,-1057.1070556640623,527.5409545898439,207.7327423095703
6709,376.2638549804688,-1047.2374267578123,531.6660766601561,219.008544921875
6710,389.084228515625,-1039.623046875,531.2471923828125,230.10108947753903
6711,381.6231384277344,-1061.2059326171877,527.6306762695311,215.59027099609372
6712,376.3648376464844,-1064.650390625,532.286865234375,215.35092163085938
6713,390.59515380859375,-1055.37548828125,535.7874145507811,224.53237915039062
6714,399.6943359375,-1044.81396484375,539.1271362304689,230.65084838867188
6715,377.3409423828125,-1055.6409912109377,537.9453125,219.0870819091797
6716,374.8988037109375,-1062.8590087890623,535.6490478515625,215.3808441162109
6717,376.2414245605469,-1054.3956298828123,536.3633422851561,220.7363739013672
6718,387.6892395019531,-1043.0374755859377,538.6110229492189,231.96356201171875
6719,376.4022216796875,-1063.4947509765623,531.5687866210939,216.7982635498047
6720,369.4834289550781,-1061.9202880859377,527.1220703125,212.9835662841797
6721,376.7201232910156,-1055.3193359375,524.1712646484375,214.51318359375
6722,384.693603515625,-1044.5596923828123,530.33837890625,226.95208740234372
6723,359.7821044921875,-1060.5814208984377,524.5565185546875,212.48989868164062
6724,357.9271240234375,-1060.97412109375,517.8134765625,211.57362365722656
6725,367.4563903808594,-1047.8919677734377,517.9854736328125,212.3477783203125
6726,384.8768310546875,-1032.2965087890623,529.5903930664061,224.4239196777344
6727,374.8800964355469,-1047.170166015625,526.9462890625,208.37974548339844
6728,366.7607727050781,-1053.7149658203123,522.5257568359375,208.72755432128903
6729,372.3594055175781,-1047.525390625,526.7406005859375,214.2102508544922
6730,384.4168395996094,-1037.9176025390623,531.6810302734375,230.00384521484372
6731,372.39306640625,-1051.6280517578123,527.66064453125,218.2493438720703
6732,370.02197265625,-1056.213134765625,525.139892578125,219.9023742675781
6733,375.3475646972656,-1051.0372314453123,525.9627075195311,217.9090118408203
6734,393.9535827636719,-1039.473388671875,533.1395874023439,232.75267028808597
6735,373.8291931152344,-1052.7425537109377,529.6278076171875,218.80284118652344
6736,372.7520751953125,-1055.9588623046877,528.9209594726561,206.5097961425781
6737,383.990478515625,-1047.4693603515623,531.946533203125,219.70416259765625
6738,390.8532104492188,-1036.971435546875,534.2503051757811,222.80453491210938
6739,378.2198181152344,-1053.6812744140623,527.0098876953125,206.06100463867188
6740,369.1430969238281,-1054.21240234375,527.4063110351561,201.4945831298828
6741,380.8639221191406,-1045.1468505859377,526.523681640625,216.35694885253903
6742,387.2591552734375,-1042.00537109375,528.80126953125,217.1460723876953
6743,376.01702880859375,-1055.57373046875,524.0665893554689,208.90707397460938
6744,370.3922119140625,-1057.006103515625,523.789794921875,204.2434234619141
6745,369.2926940917969,-1045.109375,524.7098388671875,210.46661376953125
6746,391.8704528808594,-1031.7318115234377,534.3363647460939,219.79391479492188
6747,373.0662536621094,-1054.89306640625,526.710693359375,209.4306640625
6748,366.4353942871094,-1058.266357421875,529.470703125,205.38034057617188
6749,374.506103515625,-1048.0377197265623,530.36083984375,217.87535095214844
6750,390.9841003417969,-1039.133056640625,538.2894287109375,224.06114196777344
6751,383.8072204589844,-1053.53173828125,540.0172729492189,217.9426727294922
6752,375.5196228027344,-1061.4415283203123,536.8794555664061,216.59255981445312
6753,375.11944580078125,-1053.3035888671877,528.752685546875,214.7525329589844
6754,385.8230285644531,-1041.736083984375,533.9025268554689,225.4897918701172
6755,376.3872680664063,-1055.2894287109377,534.5906372070311,206.6219940185547
6756,371.5590515136719,-1061.6510009765623,533.5023193359375,205.7019805908203
6757,381.9372863769531,-1052.17041015625,534.9309692382811,216.56265258789062
6758,394.3649597167969,-1040.011962890625,536.1314697265625,221.3759002685547
6759,377.733642578125,-1056.1458740234377,533.9249267578125,209.4979705810547
6760,369.8573913574219,-1055.8316650390623,541.6590576171875,205.2531890869141
6761,371.39825439453125,-1049.22705078125,533.39013671875,213.21170043945312
6762,388.568115234375,-1039.121826171875,534.6878662109375,223.94146728515625
6763,368.226806640625,-1053.41943359375,526.9163818359375,211.1397857666016
6764,359.0939636230469,-1057.72412109375,518.2398071289061,205.5935211181641
6765,369.7302551269531,-1047.749755859375,520.1807861328125,205.9375915527344
6766,388.9234008789063,-1032.3526611328123,532.5711059570311,224.8128662109375
6767,371.289794921875,-1050.738037109375,528.97705078125,205.87774658203125
6768,364.0343933105469,-1059.190185546875,528.9620971679689,204.2359313964844
6769,373.6945495605469,-1047.323486328125,531.1088256835939,213.9596710205078
6770,388.7027587890625,-1039.7613525390623,538.3342895507811,228.668701171875
6771,378.9154357910156,-1050.0909423828123,531.7371215820311,213.32015991210938
6772,367.2095642089844,-1055.8878173828123,526.8939208984375,212.02615356445312
6773,375.3587951660156,-1051.987060546875,523.6888427734375,216.05401611328125
6774,392.9700012207031,-1042.1549072265623,532.2344970703125,225.2055511474609
6775,372.7109375,-1057.9036865234377,528.9396362304689,215.58279418945312
6776,372.9465637207031,-1062.350341796875,533.823974609375,209.13894653320312
6777,374.2106628417969,-1048.497802734375,534.94970703125,215.4032745361328
6778,393.9535827636719,-1041.904296875,542.990478515625,222.8681182861328
6779,382.6441345214844,-1055.72705078125,535.491943359375,203.54031372070312
6780,371.9367980957031,-1054.358154296875,537.1674194335939,201.6703643798828
6781,378.1899108886719,-1048.228515625,539.785400390625,214.61041259765625
6782,392.5099792480469,-1034.447021484375,542.5791015625,223.15609741210938
6783,375.71783447265625,-1052.73876953125,533.9398803710939,210.0626983642578
6784,370.2388610839844,-1062.945068359375,533.341552734375,203.0765686035156
6785,374.4200744628906,-1048.4903564453123,535.1254272460939,214.0457000732422
6786,391.8592224121094,-1046.6727294921877,534.680419921875,218.3652801513672
6787,381.3201904296875,-1062.843994140625,532.604736328125,207.2615203857422
6788,367.134765625,-1064.8560791015623,530.1513671875,205.4027862548828
6789,384.012939453125,-1058.543212890625,531.2434692382811,219.64431762695312
6790,398.5873107910156,-1043.7406005859377,541.9545288085939,228.7883758544922
6791,369.0533142089844,-1054.97900390625,533.5360107421875,216.53646850585938
6792,365.7098693847656,-1061.7071533203123,533.3938598632811,217.6023406982422
6793,372.3444519042969,-1050.96240234375,531.6436157226561,227.07550048828125
6794,389.6564331054688,-1043.261962890625,542.134033203125,235.2733612060547
6795,369.2814636230469,-1062.8104248046877,531.3668823242189,216.9254150390625
6796,368.7803039550781,-1061.396728515625,531.7371215820311,211.9326477050781
6797,378.4591674804688,-1058.7525634765623,527.8475952148439,206.43125915527344
6798,387.7789916992188,-1042.326904296875,533.7940673828125,215.36587524414062
6799,380.02618408203125,-1057.806396484375,526.5535888671875,202.58663940429688
6800,372.7184448242188,-1053.206298828125,526.3179931640625,195.85482788085938
6801,381.6754760742188,-1047.0167236328123,526.4638671875,193.04241943359372
6802,404.343017578125,-1034.36474609375,533.1508178710939,203.76470947265625
6803,382.7039489746094,-1050.472412109375,525.6148681640625,189.2838134765625
6804,374.2779541015625,-1048.9615478515623,526.4152221679689,189.63536071777344
6805,374.7828674316406,-1041.7884521484377,524.833251953125,201.43101501464844
6806,389.8920593261719,-1031.5447998046877,534.5570068359375,216.6785888671875
6807,377.3708801269531,-1050.902587890625,529.2313842773439,208.3722686767578
6808,375.8861389160156,-1061.142333984375,526.25439453125,205.18212890625
6809,374.6519470214844,-1050.0050048828123,525.689697265625,211.96630859375
6810,386.0549011230469,-1037.52490234375,527.8775024414061,226.40606689453125
6811,368.2866516113281,-1052.32373046875,520.7529907226561,215.6949920654297
6812,362.2766418457031,-1050.2181396484377,525.6336059570311,211.41281127929688
6813,368.4923400878906,-1045.4908447265623,525.1586303710939,215.2200164794922
6814,385.4976806640625,-1034.016845703125,529.9419555664061,223.04763793945312
6815,368.7129821777344,-1050.2406005859377,528.5955810546875,210.41798400878903
6816,364.8833312988281,-1053.898193359375,526.2020263671875,203.6674652099609
6817,373.133544921875,-1042.7607421875,530.701171875,208.2787628173828
6818,388.66162109375,-1034.8172607421877,538.2819213867189,209.22869873046875
6819,379.0313720703125,-1046.52685546875,535.5443115234375,197.10020446777344
6820,371.6525573730469,-1049.7431640625,529.0556030273439,191.4604339599609
6821,374.3602600097656,-1041.0853271484377,527.1519775390625,189.34739685058597
6822,393.8862609863281,-1031.526123046875,529.4146118164061,200.99343872070312
6823,373.2457580566406,-1048.6324462890623,521.3027954101561,194.0708923339844
6824,372.21728515625,-1047.3048095703123,520.5099487304689,194.0746307373047
6825,379.0500793457031,-1041.0067138671877,525.6635131835939,209.9991149902344
6826,389.4956359863281,-1034.16650390625,531.6323852539061,209.38951110839844
6827,375.67669677734375,-1046.9793701171877,534.8038330078125,210.6835174560547
6828,371.876953125,-1048.9840087890623,528.0046997070311,204.4341583251953
6829,381.7502746582031,-1050.7828369140623,537.32080078125,211.22955322265625
6830,391.8480224609375,-1035.819580078125,537.2833862304689,222.6250305175781
6831,374.12835693359375,-1040.9095458984377,536.1090698242189,210.0626983642578
6832,369.3599853515625,-1046.0294189453123,527.3764038085939,203.2747802734375
6833,377.733642578125,-1036.2496337890623,519.0027465820311,201.67410278320312
6834,383.4313659667969,-1023.7059936523438,528.4871215820311,217.9071350097656
6835,376.6584167480469,-1044.447509765625,527.0435180664061,200.64376831054688
6836,368.408203125,-1045.6180419921877,526.2619018554689,199.8321990966797
6837,380.1851501464844,-1034.5628662109377,527.039794921875,206.0292205810547
6838,392.1603088378906,-1027.51318359375,534.7103271484375,209.82147216796875
6839,392.1752624511719,-1041.1676025390623,525.7345581054689,199.3721923828125
6840,377.40264892578125,-1049.275634765625,528.6217651367189,187.23622131347656
6841,382.6385192871094,-1042.3643798828123,523.6102905273439,203.39259338378903
6842,390.533447265625,-1033.0931396484377,524.8856201171875,212.84706115722656
6843,381.3482360839844,-1046.15283203125,525.9402465820311,203.37388610839844
6844,378.4012145996094,-1048.61376953125,520.760498046875,198.20535278320312
6845,374.1003112792969,-1044.4287109375,520.1246948242189,202.9363250732422
6846,388.9664306640625,-1026.761474609375,532.53369140625,214.45147705078125
6847,375.6523742675781,-1055.7606201171877,525.9178466796875,201.3767852783203
6848,373.7936401367188,-1056.082275390625,526.018798828125,198.04827880859372
6849,381.63995361328125,-1045.576904296875,522.5892944335939,205.37474060058597
6850,389.7929382324219,-1033.2315673828123,533.56591796875,215.012451171875
6851,381.5876159667969,-1052.843505859375,526.2880859375,195.46026611328125
6852,368.2959899902344,-1058.01953125,524.9192504882811,199.39463806152344
6853,377.1221618652344,-1040.3037109375,524.2274169921875,211.17906188964844
6854,383.7156066894531,-1027.4346923828123,534.515869140625,221.56475830078125
6855,374.8707275390625,-1036.619873046875,534.1343994140625,214.1148834228516
6856,375.0764465332031,-1049.1522216796877,533.8314208984375,215.3079071044922
6857,372.4697265625,-1044.776611328125,534.22412109375,220.81304931640625
6858,392.552978515625,-1033.324951171875,538.3043823242189,226.7669677734375
6859,385.4060363769531,-1040.2886962890623,540.5670166015625,211.7998809814453
6860,377.4064025878906,-1043.8790283203123,541.0606689453125,200.5128631591797
6861,381.61376953125,-1043.710693359375,534.2540283203125,208.2170562744141
6862,395.0475158691406,-1027.37109375,539.8564453125,218.55039978027344
6863,375.86181640625,-1041.799560546875,528.7115478515625,205.516845703125
6864,372.7203063964844,-1048.419189453125,525.8505249023439,207.54388427734372
6865,375.5027770996094,-1043.5423583984377,523.5467529296875,210.97337341308597
6866,386.19140625,-1032.7490234375,528.8798217773439,220.47271728515625
6867,365.1507568359375,-1047.925537109375,519.8330078125,205.7524719238281
6868,367.0019836425781,-1052.08056640625,515.7976684570311,202.86900329589844
6869,371.5721435546875,-1042.513916015625,516.523193359375,214.94888305664062
6870,386.6589050292969,-1034.282470703125,528.4048461914061,224.1639862060547
6871,371.7591552734375,-1050.023681640625,518.236083984375,209.9673309326172
6872,364.4925231933594,-1048.486572265625,517.8059692382811,212.4057464599609
6873,375.7720642089844,-1035.32958984375,524.5303344726561,221.9200592041016
6874,389.3666076660156,-1034.9892578125,531.6921997070311,232.7470703125
6875,375.2222900390625,-1052.3087158203123,522.2938842773439,219.0141448974609
6876,368.9542236328125,-1053.64013671875,523.965576171875,215.88758850097656
6877,381.9054870605469,-1045.1243896484377,529.9456787109375,216.4710235595703
6878,397.9908142089844,-1033.44091796875,533.5210571289061,225.4056396484375
6879,378.8799133300781,-1042.7308349609377,529.7549438476561,210.03839111328125
6880,369.6236572265625,-1050.801513671875,527.1781616210939,207.45785522460938
6881,376.3405151367188,-1043.2880859375,525.9215698242189,210.4423065185547
6882,389.9537658691406,-1030.7108154296877,531.4080200195311,220.68214416503903
6883,374.8333435058594,-1049.343017578125,526.864013671875,204.47715759277344
6884,375.8206787109375,-1044.716796875,530.1663208007811,204.166748046875
6885,376.3517456054688,-1044.5147705078123,524.5377807617189,215.1508331298828
6886,391.21783447265625,-1035.1201171875,527.2454833984375,229.9870147705078
6887,373.2925109863281,-1052.9556884765623,520.9063720703125,221.61712646484372
6888,363.88665771484375,-1056.0150146484377,520.5772705078125,211.5941925048828
6889,376.0787353515625,-1042.218505859375,514.06982421875,213.0228271484375
6890,387.8482055664063,-1029.169921875,523.6813354492189,224.79977416992188
6891,375.4691162109375,-1045.6517333984377,526.6209106445311,217.4433898925781
6892,368.1688537597656,-1053.6214599609377,519.926513671875,214.8441619873047
6893,374.0404968261719,-1045.4647216796877,521.7029418945311,217.9033966064453
6894,390.193115234375,-1039.0283203125,531.3855590820311,231.9766387939453
6895,377.73175048828125,-1058.90966796875,530.8096313476561,218.4419403076172
6896,372.4697265625,-1059.309814453125,525.349365234375,211.2949981689453
6897,376.5723876953125,-1044.9486083984377,527.4063110351561,220.41287231445312
6898,390.8027038574219,-1030.576171875,533.9548950195311,229.9608459472656
6899,370.28936767578125,-1052.559326171875,525.7420654296875,214.32806396484372
6900,371.201904296875,-1053.4942626953123,525.3306274414061,210.80506896972656
6901,367.6003723144531,-1049.7357177734377,531.0115356445311,218.95431518554688
6902,390.6231994628906,-1038.4075927734377,536.7672729492189,238.02780151367188
6903,379.5605773925781,-1052.9482421875,528.6068115234375,216.80386352539062
6904,373.8385314941406,-1058.8311767578123,527.3277587890625,201.6161346435547
6905,378.6742248535156,-1046.30615234375,526.3890380859375,206.3358917236328
6906,391.29638671875,-1035.355712890625,536.535400390625,217.5181884765625
6907,382.2458190917969,-1047.4356689453123,536.217529296875,205.93946838378903
6908,365.67431640625,-1047.431884765625,529.1378784179689,202.37159729003903
6909,376.7668762207031,-1041.986572265625,534.94970703125,208.43023681640625
6910,387.91552734375,-1027.93212890625,536.019287109375,215.67068481445312
6911,374.2573852539063,-1042.169921875,531.4229736328125,205.8048248291016
6912,373.056884765625,-1047.069091796875,530.5665283203125,206.17881774902344
6913,382.5973815917969,-1042.9439697265623,532.3878784179689,213.0228271484375
6914,403.0060119628906,-1033.9644775390623,536.6625366210939,224.37342834472656
6915,380.9742736816406,-1048.5426025390623,530.1701049804689,212.9405517578125
6916,381.2884216308594,-1049.8516845703123,529.32861328125,218.21755981445312
6917,384.0260314941406,-1042.416748046875,526.7330932617189,217.5069732666016
6918,397.5719299316406,-1031.1932373046877,534.0034790039061,233.02755737304688
6919,382.3430480957031,-1049.3018798828123,528.9845581054689,221.66574096679688
6920,371.5384826660156,-1051.2578125,524.7360229492189,218.84585571289062
6921,377.9561462402344,-1041.9716796875,530.3570556640625,226.5911865234375
6922,392.1902160644531,-1028.582763671875,532.9974365234375,235.3537750244141
6923,379.4633483886719,-1046.160400390625,531.793212890625,223.60675048828125
6924,371.27294921875,-1052.6416015625,523.109130859375,212.4805450439453
6925,382.3542785644531,-1047.147705078125,516.74755859375,209.83270263671875
6926,394.8380737304688,-1035.9205322265623,522.2078247070311,215.9062957763672
6927,377.72802734375,-1048.5987548828123,516.0108032226561,201.48524475097656
6928,368.5802307128906,-1052.207763671875,516.1080932617189,194.8880615234375
6929,382.3019104003906,-1042.0987548828123,517.5928344726561,199.4918670654297
6930,384.1643981933594,-1021.7088623046876,528.6292724609375,215.528564453125
6931,378.984619140625,-1037.1771240234377,526.9014282226561,203.29161071777344
6932,372.4173583984375,-1048.759521484375,526.0263061523439,202.7381134033203
6933,382.4365539550781,-1039.331298828125,531.2434692382811,208.0525054931641
6934,403.83251953125,-1031.0399169921877,538.7269897460939,222.0135498046875
6935,384.5608215332031,-1047.05419921875,527.873779296875,209.83270263671875
6936,377.6419982910156,-1051.527099609375,531.0078125,216.40370178222656
6937,379.7326049804688,-1049.05126953125,528.63671875,213.497802734375
6938,390.0360412597656,-1035.236083984375,531.1911010742189,228.4648742675781
6939,374.923095703125,-1049.8404541015623,532.5748291015625,216.7926483154297
6940,374.74359130859375,-1054.919189453125,528.4647216796875,216.97964477539062
6941,366.0557861328125,-1050.4276123046877,524.4854125976561,224.7885589599609
6942,391.70404052734375,-1030.5462646484377,534.493408203125,228.9286193847656
6943,376.5162963867188,-1042.6485595703123,535.4957275390625,223.4758453369141
6944,372.2415771484375,-1041.91552734375,535.3760375976561,221.50119018554688
6945,379.3735961914063,-1035.2734375,535.1366577148439,219.07025146484372
6946,392.223876953125,-1025.3515625,538.6858520507811,227.81787109375
6947,376.3293151855469,-1039.7464599609377,528.225341796875,209.13706970214844
6948,368.138916015625,-1040.3448486328123,526.2955322265625,203.6244659423828
6949,373.04193115234375,-1026.9111328125,522.1181030273439,209.6307373046875
6950,384.6243896484375,-1018.615966796875,526.018798828125,217.8211212158203
6951,372.7651672363281,-1027.947021484375,524.504150390625,209.45870971679688
6952,368.16510009765625,-1029.92919921875,527.7952270507811,203.1083526611328
6953,378.5769958496094,-1025.9425048828123,525.8991088867189,203.2841339111328
6954,397.7626647949219,-1009.329833984375,532.0662231445311,223.86480712890625
6955,372.058349609375,-1024.4652099609377,524.1077270507811,207.08387756347656
6956,362.17376708984375,-1032.98095703125,517.5180053710939,209.13706970214844
6957,374.7248840332031,-1020.7178344726562,522.56689453125,216.4934539794922
6958,382.904052734375,-1011.6148681640624,527.6830444335939,223.7451171875
6959,365.1245727539063,-1022.3297119140624,520.9661865234375,217.28631591796875
6960,363.6959228515625,-1033.227783203125,512.6673583984375,214.0064239501953
6961,373.7562561035156,-1026.739013671875,513.119873046875,214.9788055419922
6962,389.31048583984375,-1012.1796264648438,520.4500732421875,222.1107940673828
6963,373.2289123535156,-1025.8414306640623,518.3519897460939,211.0369415283203
6964,375.19610595703125,-1032.1768798828123,514.3353271484375,209.9486389160156
6965,377.986083984375,-1030.576171875,517.6900634765625,221.98362731933597
6966,397.2016906738281,-1018.20458984375,527.9224243164061,228.80894470214844
6967,375.4205017089844,-1032.8800048828123,524.0328979492189,221.81907653808597
6968,365.3003234863281,-1040.236328125,521.605712890625,210.3114013671875
6969,369.664794921875,-1023.6311645507812,527.5783081054689,216.06336975097656
6970,384.5458679199219,-1004.6474609375,529.515625,222.45486450195312
6971,374.62017822265625,-1023.7134399414062,533.2255859375,210.3899383544922
6972,368.8233337402344,-1029.9927978515623,526.8153686523439,204.507080078125
6973,382.5936279296875,-1025.2430419921877,528.554443359375,206.7098846435547
6974,393.9703979492188,-1013.7990112304688,532.6085205078125,214.57115173339844
6975,380.7835388183594,-1034.4881591796877,528.872314453125,199.49562072753903
6976,371.0784912109375,-1033.6353759765623,528.072021484375,197.24794006347656
6977,378.3638000488281,-1021.5667724609376,525.0576171875,208.42649841308597
6978,390.0884094238281,-1014.2290649414062,528.1243896484375,220.30441284179688
6979,372.9970397949219,-1033.108154296875,526.0337524414061,213.4940643310547
6980,360.1392822265625,-1039.5855712890623,524.4405517578125,214.47764587402344
6981,373.7413024902344,-1030.3106689453123,526.3853149414061,218.8009796142578
6982,386.8720703125,-1021.8023681640624,534.2952270507811,235.45849609375
6983,366.59808349609375,-1035.972900390625,522.9745483398439,216.58322143554688
6984,364.10357666015625,-1035.621337890625,525.9365234375,215.92872619628903
6985,368.6625061035156,-1031.230712890625,529.4071655273439,221.5161437988281
6986,378.5694885253906,-1023.567626953125,532.6646118164061,227.33169555664062
6987,371.2916564941406,-1039.1854248046877,529.1640625,213.41552734375
6988,365.9211730957031,-1043.7742919921877,532.7131958007811,210.8536834716797
6989,376.1572570800781,-1032.3900146484377,536.6663208007811,210.83872985839844
6990,389.83782958984375,-1019.1582641601562,533.90625,215.38270568847656
6991,374.7547912597656,-1031.09228515625,529.7474975585939,202.36412048339844
6992,374.8109130859375,-1038.497314453125,528.6965942382811,196.34661865234372
6993,386.1577453613281,-1034.850830078125,528.8274536132811,208.65089416503903
6994,390.9411010742188,-1021.4657592773438,533.6519165039061,212.6301422119141
6995,376.4676818847656,-1037.15087890625,530.49169921875,205.4757080078125
6996,363.7146301269531,-1036.8592529296877,525.4465942382811,194.44674682617188
6997,370.1397705078125,-1026.83251953125,527.3988037109375,204.61553955078125
6998,395.0362854003906,-1016.66748046875,539.1458740234375,216.7552490234375
6999,372.6866455078125,-1035.707275390625,532.825439453125,195.84173583984372
7000,369.2085266113281,-1039.357421875,533.1395874023439,202.31549072265625
7001,379.2389526367188,-1036.1075439453123,529.5604858398439,208.5386962890625
7002,391.36370849609375,-1025.8975830078123,538.4763793945311,223.04949951171875
7003,380.9181518554688,-1047.1290283203123,534.0894775390625,212.49549865722656
7004,367.2525634765625,-1049.7843017578123,528.707763671875,210.3562774658203
7005,375.06146240234375,-1036.2720947265623,531.2135009765625,221.30296325683597
7006,387.8818664550781,-1029.4691162109377,533.23681640625,227.4102325439453
7007,368.95794677734375,-1048.92041015625,522.6828002929689,211.5343475341797
7008,365.274169921875,-1058.651611328125,523.812255859375,209.44374084472656
7009,377.73175048828125,-1045.752685546875,524.8257446289061,217.08062744140625
7010,388.5625305175781,-1033.8448486328123,528.6928100585939,215.76043701171875
7011,381.2210998535156,-1047.49169921875,526.721923828125,206.56402587890625
7012,369.64984130859375,-1047.080322265625,524.3470458984375,205.76742553710938
7013,379.5082092285156,-1037.685791015625,524.7472534179689,211.86346435546875
7014,388.86920166015625,-1027.6815185546877,528.3712158203125,223.6104888916016
7015,388.58868408203125,-1041.066650390625,528.2627563476561,218.3185272216797
7016,377.2717590332031,-1052.088134765625,523.22509765625,217.63412475585938
7017,380.6002807617188,-1040.9581298828123,525.349365234375,223.64041137695312
7018,391.9583435058594,-1032.16943359375,529.7587280273439,232.7470703125
7019,371.2392883300781,-1049.694580078125,518.0116577148439,217.36111450195312
7020,362.0914916992188,-1058.2440185546877,517.7050170898439,215.28921508789062
7021,371.5085754394531,-1043.766845703125,518.0228881835939,219.44798278808597
7022,382.8329772949219,-1033.1380615234377,526.1272583007811,234.03732299804688
7023,361.6539306640625,-1052.8023681640623,513.7855834960939,214.9750518798828
7024,357.3530578613281,-1050.64453125,512.4579467773439,217.9146270751953
7025,367.6751708984375,-1052.6827392578123,514.4437866210939,219.3806610107422
7026,378.5508117675781,-1045.741455078125,519.3917236328125,221.20199584960938
7027,366.39239501953125,-1055.6297607421877,520.6333618164061,209.7541656494141
7028,358.643310546875,-1051.1343994140623,514.75048828125,203.1494903564453
7029,365.954833984375,-1044.2305908203123,516.8074340820311,206.9230499267578
7030,377.88134765625,-1026.5220947265623,525.338134765625,214.26821899414062
7031,371.355224609375,-1044.1669921875,521.8263549804689,198.4895782470703
7032,368.2398986816406,-1049.7618408203123,524.0404052734375,208.20957946777344
7033,370.3753967285156,-1035.037841796875,523.9954833984375,219.01040649414062
7034,398.9893493652344,-1028.2012939453123,534.94970703125,234.45245361328125
7035,378.67236328125,-1050.818359375,532.4383544921875,221.6732177734375
7036,365.9006042480469,-1051.308349609375,527.5877075195311,215.49864196777344
7037,375.0484008789063,-1048.6605224609377,521.0615844726561,224.6053009033203
7038,384.8992919921875,-1030.0357666015623,530.026123046875,237.7435760498047
7039,373.9264221191406,-1047.2879638671877,531.2976684570311,227.12599182128903
7040,369.69659423828125,-1054.10205078125,527.2772827148439,225.46548461914062
7041,380.9798583984375,-1047.93115234375,524.229248046875,226.7108612060547
7042,389.3721923828125,-1043.2637939453123,525.8934936523439,229.18667602539062
7043,378.6573791503906,-1054.89111328125,525.5942993164061,216.39622497558597
7044,370.68017578125,-1060.4000244140623,525.70654296875,211.7550048828125
7045,378.68731689453125,-1055.6016845703123,527.7073364257811,218.7411346435547
7046,392.4837951660156,-1039.9278564453123,534.0240478515625,228.26666259765625
7047,382.2589111328125,-1058.6534423828123,534.5139770507811,218.8346405029297
7048,384.5140686035156,-1061.06201171875,533.0217895507811,211.7437896728516
7049,388.2801513671875,-1051.9852294921877,539.334716796875,220.11741638183597
7050,404.5000915527344,-1045.990234375,548.6395874023439,227.07737731933597
7051,387.0833740234375,-1051.745849609375,544.1629028320311,223.07568359375
7052,377.9318542480469,-1066.1781005859377,533.219970703125,221.0299530029297
7053,380.2505798339844,-1051.1063232421877,533.7996826171875,223.4197540283203
7054,390.74847412109375,-1038.00927734375,535.2021484375,238.23724365234372
7055,377.2624206542969,-1053.9224853515623,528.2459106445311,227.5598297119141
7056,375.5682373046875,-1055.9307861328123,526.9780883789061,226.7033843994141
7057,380.08978271484375,-1048.1705322265623,521.3981323242189,229.74392700195312
7058,393.4786071777344,-1042.635498046875,520.3846435546875,232.2346954345703
7059,380.8265380859375,-1059.079833984375,520.5641479492189,219.4405059814453
7060,371.3496398925781,-1060.474853515625,510.3953552246094,207.218505859375
7061,380.0448913574219,-1053.2269287109377,515.0365600585939,212.87322998046875
7062,392.2631530761719,-1044.0828857421877,518.5670776367189,219.7247314453125
7063,378.7396545410156,-1059.0948486328123,517.598388671875,203.17567443847656
7064,377.5242004394531,-1059.5098876953123,514.3185424804689,199.60032653808597
7065,379.237060546875,-1051.5888671875,518.40625,209.6943206787109
7066,399.6232604980469,-1043.8621826171877,525.1455078125,224.7698516845703
7067,387.47607421875,-1057.0079345703123,523.2830810546875,207.0090789794922
7068,384.4056091308594,-1064.7906494140623,521.12890625,207.75704956054688
7069,395.51312255859375,-1053.4139404296877,523.66455078125,214.61602783203125
7070,397.4840393066406,-1046.9737548828123,528.05517578125,220.5400238037109
7071,385.4677429199219,-1055.1903076171877,524.0086059570311,217.7837219238281
7072,378.9865112304688,-1062.307373046875,519.05322265625,213.89422607421875
7073,377.6925048828125,-1050.384521484375,516.8092651367189,226.74452209472656
7074,391.3319091796875,-1041.745361328125,525.096923828125,234.83392333984372
7075,372.6697998046875,-1057.509033203125,518.4024658203125,222.22299194335938
7076,356.5732727050781,-1062.3896484375,514.5017700195311,218.7598419189453
7077,373.309326171875,-1054.8238525390623,516.424072265625,225.43182373046875
7078,384.9740905761719,-1041.954833984375,519.4421997070311,235.30142211914062
7079,371.0653991699219,-1054.9771728515623,515.5078125,222.38006591796875
7080,367.2507019042969,-1058.4664306640623,514.920654296875,219.425537109375
7081,369.154296875,-1048.9334716796877,512.2279052734375,222.1930694580078
7082,389.2188720703125,-1043.809814453125,516.3792114257811,232.0140380859375
7083,373.90771484375,-1053.5484619140623,512.7103881835939,219.7135162353516
7084,373.1148681640625,-1053.0548095703123,513.3162231445311,215.82028198242188
7085,387.6069641113281,-1051.22607421875,510.2682189941406,222.76153564453125
7086,396.5827331542969,-1035.19677734375,524.4948120117189,233.5025177001953
7087,379.7943115234375,-1047.0634765625,521.5851440429689,216.209228515625
7088,372.3481750488281,-1048.9783935546877,515.0477905273439,208.21331787109372
7089,378.7508850097656,-1038.11767578125,520.2575073242189,211.20150756835938
7090,399.9785461425781,-1032.3994140625,524.943603515625,220.7457275390625
7091,380.2730407714844,-1047.8787841796877,518.6119384765625,208.5087738037109
7092,373.25323486328125,-1047.1121826171877,517.8602294921875,206.1713409423828
7093,372.73712158203125,-1032.08154296875,512.7402954101561,204.73895263671875
7094,381.6231384277344,-1030.30126953125,520.4706420898439,212.78721618652344
7095,366.8991394042969,-1033.3082275390623,518.8923950195311,208.68829345703125
7096,364.1129150390625,-1040.769287109375,515.2198486328125,201.51141357421875
7097,367.0075988769531,-1031.9356689453123,519.9133911132811,218.2773895263672
7098,381.3912658691406,-1030.065673828125,519.9133911132811,230.13287353515625
7099,372.2247619628906,-1044.8607177734377,517.3441162109375,221.2992248535156
7100,367.0898742675781,-1056.1328125,514.9992065429689,216.8524932861328
7101,376.7874450683594,-1042.9122314453123,523.6121826171875,228.2479705810547
7102,392.5324096679688,-1036.576904296875,527.01171875,236.3224029541016
7103,381.7203674316406,-1051.0838623046877,524.7940063476561,221.7667236328125
7104,382.1803894042969,-1050.122802734375,520.5716552734375,212.6787567138672
7105,392.6184387207031,-1043.3310546875,524.393798828125,213.1462554931641
7106,406.8300476074219,-1029.2017822265623,535.7930297851561,220.8654022216797
7107,385.10870361328125,-1050.8370361328123,523.1708374023439,204.62301635742188
7108,377.86077880859375,-1054.947265625,517.8265380859375,199.4021148681641
7109,386.9674377441406,-1041.36767578125,520.3023681640625,203.45989990234372
7110,395.8235168457031,-1032.590087890625,520.3734130859375,211.6241149902344
7111,387.5807800292969,-1040.462646484375,518.3052368164061,206.12271118164062
7112,384.60382080078125,-1045.8218994140623,515.1113891601561,206.4667816162109
7113,372.12005615234375,-1039.946533203125,515.3956298828125,217.76876831054688
7114,393.5459289550781,-1020.1063232421876,523.3578491210939,236.7151031494141
7115,376.5406188964844,-1043.54052734375,524.1656494140625,228.7939910888672
7116,361.90264892578125,-1047.6094970703123,516.5101318359375,224.41082763671875
7117,373.3504638671875,-1036.93212890625,517.1571044921875,230.4208526611328
7118,383.9718017578125,-1025.1439208984377,523.3204345703125,240.00994873046875
7119,370.2276611328125,-1041.5360107421877,520.003173828125,226.65850830078125
7120,368.6232299804688,-1046.7830810546877,525.02587890625,225.21864318847656
7121,378.2759094238281,-1039.5875244140623,525.7364501953125,227.30177307128903
7122,394.1705017089844,-1025.93310546875,531.6866455078125,228.34893798828125
7123,382.05322265625,-1042.07080078125,523.032470703125,212.16265869140625
7124,378.64990234375,-1041.54345703125,524.2741088867189,208.65463256835938
7125,396.85198974609375,-1039.1162109375,526.0169067382811,216.90110778808597
7126,403.1462707519531,-1035.4586181640623,536.1258544921875,222.6343688964844
7127,394.4958801269531,-1051.087646484375,523.4924926757811,205.37474060058597
7128,390.52783203125,-1059.266845703125,524.7940063476561,201.88540649414062
7129,394.2191162109375,-1053.7318115234377,524.9248657226561,202.5062255859375
7130,399.90374755859375,-1047.5609130859377,528.03271484375,209.249267578125
7131,387.8912048339844,-1057.5577392578123,525.0408325195311,203.2055969238281
7132,377.0716857910156,-1053.986083984375,525.8822631835939,202.77175903320312
7133,374.1208801269531,-1041.1881103515623,529.2070922851561,215.6220550537109
7134,387.7715148925781,-1032.0703125,527.3221435546875,226.5537872314453
7135,378.1338195800781,-1041.2330322265623,522.9988403320311,217.8734893798828
7136,367.3404541015625,-1050.9642333984377,519.9358520507811,214.1597595214844
7137,377.9879455566406,-1041.80517578125,519.2776489257811,225.31588745117188
7138,390.3258666992188,-1034.0374755859377,527.2885131835939,232.2272186279297
7139,374.4425354003906,-1048.024658203125,518.3389282226561,219.1263427734375
7140,370.1977233886719,-1045.1524658203123,518.1818237304689,217.20404052734372
7141,378.2347717285156,-1035.4136962890623,517.5460815429689,228.4611358642578
7142,385.0152282714844,-1028.573486328125,515.7210083007811,227.7767333984375
7143,372.2509460449219,-1036.322509765625,520.8297119140625,219.2647247314453
7144,373.23828125,-1039.7220458984377,520.0779418945311,212.5890045166016
7145,382.4309387207031,-1033.786865234375,519.520751953125,216.94972229003903
7146,395.51312255859375,-1025.12158203125,525.7626342773439,231.1164703369141
7147,379.86163330078125,-1041.5360107421877,521.9927978515625,214.07748413085938
7148,371.783447265625,-1040.6982421875,512.5532836914061,211.31369018554688
7149,382.0270385742188,-1031.1614990234377,518.3276977539061,217.6977081298828
7150,394.8698425292969,-1022.3914184570312,522.0900268554689,227.6645355224609
7151,374.46868896484375,-1040.5635986328123,523.0362548828125,219.4816436767578
7152,374.423828125,-1045.4927978515623,523.6981811523439,222.7353515625
7153,372.3893127441406,-1034.632080078125,522.78564453125,225.7010955810547
7154,387.2703857421875,-1027.57861328125,531.0882568359375,240.87387084960938
7155,378.3955993652344,-1045.14501953125,528.455322265625,230.93695068359372
7156,371.3496398925781,-1050.253662109375,521.083984375,226.2284240722656
7157,379.68212890625,-1046.1658935546877,524.5658569335939,233.4688720703125
7158,379.259521484375,-1030.8922119140623,527.610107421875,242.25762939453125
7159,368.6269836425781,-1035.6082763671877,523.7094116210939,227.5336456298828
7160,368.54095458984375,-1044.85693359375,518.8026733398439,222.0659027099609
7161,375.2428588867188,-1034.0823974609377,522.7482299804689,227.4551086425781
7162,386.3092346191406,-1027.9451904296877,532.2251586914061,234.5085601806641
7163,374.9660949707031,-1041.8763427734377,523.2643432617189,221.7368011474609
7164,367.3778381347656,-1038.6038818359377,518.1856079101561,212.22622680664062
7165,375.87115478515625,-1033.00146484375,520.0929565429689,218.21380615234372
7166,394.1592712402344,-1022.425048828125,527.6400756835939,226.0301971435547
7167,380.1832580566406,-1036.401123046875,534.0950927734375,215.3453063964844
7168,372.6623229980469,-1045.4927978515623,529.6820068359375,213.80447387695312
7169,377.2624206542969,-1036.5133056640623,529.8129272460939,214.94140625
7170,385.2770080566406,-1024.8671875,535.097412109375,220.951416015625
7171,367.9126586914063,-1044.4979248046877,532.363525390625,210.03839111328125
7172,364.2924499511719,-1046.2744140625,523.8590087890625,205.97311401367188
7173,369.0982055664063,-1032.0404052734377,525.9495849609375,219.7733459472656
7174,373.9712829589844,-1022.5260620117188,527.3333740234375,232.29827880859372
7175,362.3177795410156,-1038.738525390625,521.3009033203125,225.9815826416016
7176,355.7205810546875,-1043.95947265625,513.1329956054689,220.16978454589844
7177,362.8899841308594,-1037.717529296875,513.8360595703125,224.61651611328125
7178,374.9623718261719,-1022.6307373046876,521.0054931640625,236.19525146484372
7179,371.1327209472656,-1040.0811767578123,522.2171630859375,223.09063720703125
7180,368.3801574707031,-1048.761474609375,521.5140991210939,221.27679443359372
7181,374.3938903808594,-1040.054931640625,517.8041381835939,224.6726226806641
7182,394.7277526855469,-1029.3924560546877,525.3811645507811,231.10899353027344
7183,383.11907958984375,-1041.8837890625,525.942138671875,217.8173828125
7184,379.4801635742188,-1043.020751953125,527.9242553710939,218.69625854492188
7185,384.8693542480469,-1029.9273681640623,528.9863891601561,222.11453247070312
7186,394.4547424316406,-1021.6284790039062,528.5862426757811,228.31153869628903
7187,381.1593933105469,-1035.215576171875,526.7424926757811,209.14080810546875
7188,372.3855895996094,-1035.3052978515623,526.5031127929689,209.00991821289062
7189,373.0587463378906,-1033.09130859375,523.6795043945311,207.15866088867188
7190,386.15216064453125,-1024.87841796875,532.6702270507811,228.3639068603516
7191,370.0144958496094,-1034.710693359375,522.6996459960939,217.58551025390625
7192,365.2386169433594,-1034.2281494140623,520.848388671875,216.34011840820312
7193,368.5447082519531,-1018.7188110351562,516.5662231445311,221.82655334472656
7194,382.7413635253906,-1009.9786987304688,531.1480712890625,231.67745971679688
7195,373.0400695800781,-1026.08642578125,524.9884643554689,217.8136444091797
7196,365.3022155761719,-1030.6827392578123,525.0707397460939,217.0619201660156
7197,377.546630859375,-1023.128173828125,526.0692749023439,223.2776336669922
7198,385.011474609375,-1007.5926513671876,534.00537109375,235.8324737548828
7199,371.6787414550781,-1031.3297119140623,531.81005859375,221.50119018554688
7200,366.5662841796875,-1032.612548828125,527.6998901367189,219.27593994140625
7201,376.361083984375,-1021.261962890625,527.0079956054689,220.51759338378903
7202,390.5390625,-1008.692138671875,534.6373901367189,227.97494506835938
7203,374.6519470214844,-1027.11865234375,531.3275756835939,214.71701049804688
7204,368.7915344238281,-1031.71875,526.260009765625,208.2469787597656
7205,369.3076477050781,-1022.1034545898438,517.9873657226561,208.82666015625
7206,391.1486511230469,-1015.981201171875,528.724609375,223.62918090820312
7207,375.2054748535156,-1034.7330322265623,524.4948120117189,211.6091461181641
7208,368.30908203125,-1034.762939453125,524.85009765625,211.08181762695312
7209,368.17071533203125,-1027.5673828125,519.9732666015625,211.4595489501953
7210,383.44073486328125,-1020.2821044921876,522.6061401367189,225.49539184570312
7211,364.42706298828125,-1032.504150390625,524.6219482421875,217.2788391113281
7212,360.8928527832031,-1036.3150634765623,524.2030639648439,216.81509399414062
7213,371.2972717285156,-1028.868896484375,524.592041015625,223.6217041015625
7214,394.4584655761719,-1016.190673828125,531.7427368164061,229.95335388183597
7215,363.0283508300781,-1034.9462890625,524.9959106445311,214.4552154541016
7216,364.0455932617188,-1031.494384765625,521.6300048828125,210.93597412109372
7217,366.7532958984375,-1024.208984375,527.5128784179689,218.55413818359372
7218,377.64013671875,-1015.7269287109376,530.156982421875,224.8521423339844
7219,362.8638000488281,-1026.2958984375,529.4725952148439,211.37353515625
7220,361.37158203125,-1035.4024658203123,525.7214965820311,207.3456573486328
7221,373.5337219238281,-1023.5470581054688,528.4291381835939,212.86949157714844
7222,384.517822265625,-1023.1543579101562,536.50732421875,224.7960357666016
7223,367.6134643554688,-1034.807861328125,526.3086547851561,211.7437896728516
7224,355.8140869140625,-1038.233642578125,518.2005615234375,209.89627075195312
7225,367.1946105957031,-1032.5751953125,518.5221557617189,219.1001739501953
7226,376.95947265625,-1022.8701171875,524.0684204101561,222.8064117431641
7227,360.7544860839844,-1038.7945556640623,514.9243774414061,202.7455902099609
7228,353.14752197265625,-1034.17578125,516.3193969726561,203.03729248046875
7229,370.4371032714844,-1028.913818359375,519.4122924804689,213.6212158203125
7230,381.5408630371094,-1019.7697143554688,528.20849609375,221.1309356689453
7231,361.3902587890625,-1030.49951171875,523.6607666015625,214.6122894287109
7232,357.8261413574219,-1034.43017578125,523.9861450195311,208.47885131835938
7233,366.958984375,-1023.4273681640624,520.2088623046875,214.26821899414062
7234,376.9894104003906,-1014.0028076171876,527.8719482421875,218.59527587890625
7235,366.0838623046875,-1030.746337890625,527.3857421875,210.71157836914062
7236,359.9616394042969,-1038.5701904296877,520.689453125,209.5783843994141
7237,375.022216796875,-1025.62646484375,525.865478515625,222.28656005859372
7238,386.2718200683594,-1016.8226928710938,533.7491455078125,236.01947021484372
7239,373.52252197265625,-1037.1265869140623,523.7748413085939,214.02886962890625
7240,371.8171081542969,-1034.71435546875,527.742919921875,223.19161987304688
7241,379.4764404296875,-1030.076904296875,524.5191040039061,224.36595153808597
7242,391.0925598144531,-1015.3267211914062,529.6165771484375,231.19874572753903
7243,375.844970703125,-1032.76220703125,518.752197265625,219.096435546875
7244,371.53662109375,-1035.619384765625,517.8882446289061,218.2960968017578
7245,374.7865905761719,-1033.4876708984377,517.4357299804689,222.3164825439453
7246,387.9996643066406,-1027.036376953125,517.2786254882811,216.4597930908203
7247,382.2514343261719,-1041.648193359375,517.4244995117189,203.919921875
7248,370.1004943847656,-1037.2052001953123,514.4475708007811,200.7035980224609
7249,375.59814453125,-1030.8623046875,514.75048828125,212.16265869140625
7250,382.3636169433594,-1018.2064819335938,519.5899047851561,219.35821533203125
7251,367.1198120117188,-1038.057861328125,513.3480224609375,204.6641540527344
7252,367.6321716308594,-1043.7574462890623,511.56781005859375,208.0786895751953
7253,379.9102478027344,-1033.622314453125,522.6790771484375,214.6758728027344
7254,397.91412353515625,-1018.0381469726562,527.5596313476561,223.74887084960938
7255,384.2073974609375,-1039.6846923828123,522.9707641601561,206.76971435546875
7256,378.578857421875,-1042.83740234375,523.7262573242189,213.67356872558597
7257,391.95648193359375,-1042.6728515625,527.2230224609375,215.9175109863281
7258,400.0683288574219,-1028.775390625,536.4568481445311,234.6244964599609
7259,380.0299377441406,-1043.963134765625,534.388671875,218.64390563964844
7260,375.4934387207031,-1055.1866455078123,528.5170288085939,215.59962463378903
7261,385.43408203125,-1046.3267822265623,523.471923828125,222.5184326171875
7262,407.48828125,-1040.2457275390623,534.4747314453125,233.90269470214844
7263,379.9065246582031,-1060.1082763671877,521.7852172851561,219.27220153808597
7264,376.2264709472656,-1064.9365234375,519.1448364257811,217.0469665527344
7265,378.9378967285156,-1053.316650390625,519.1448364257811,219.1001739501953
7266,385.1685485839844,-1036.88720703125,521.8600463867189,226.07508850097656
7267,363.1704711914063,-1048.58935546875,510.255126953125,207.9365692138672
7268,363.4247741699219,-1046.1734619140623,514.4961547851561,205.09423828125
7269,366.8430480957031,-1042.8748779296877,510.7413024902344,203.24673461914062
7270,387.24420166015625,-1025.4095458984377,521.4710693359375,215.98483276367188
7271,368.9411315917969,-1041.52099609375,519.4963989257811,204.73895263671875
7272,367.392822265625,-1047.4375,520.6408081054689,200.1426086425781
7273,380.34033203125,-1042.826171875,517.9181518554689,212.87696838378903
7274,392.9512939453125,-1025.07666015625,532.2719116210939,222.3052673339844
7275,375.3176574707031,-1041.6929931640623,526.9911499023439,217.11802673339844
7276,369.9546508789063,-1048.08447265625,522.4172973632811,205.4644927978516
7277,377.3409423828125,-1037.519287109375,525.196044921875,216.48223876953125
7278,396.5041809082031,-1025.2261962890623,528.9696044921875,223.69650268554688
7279,388.25396728515625,-1046.6109619140623,531.3145141601561,214.6796112060547
7280,375.3027038574219,-1051.7869873046877,524.0703125,213.5389404296875
7281,381.0060424804688,-1039.4490966796877,520.9998779296875,224.3996124267578
7282,395.7075805664063,-1026.696044921875,533.2929077148439,230.0618133544922
7283,373.8778076171875,-1045.204833984375,529.5679931640625,221.0561370849609
7284,373.8179626464844,-1052.493896484375,520.9923706054689,215.29669189453125
7285,373.22705078125,-1045.0814208984377,519.7694091796875,218.02682495117188
7286,381.0509338378906,-1040.0848388671877,525.6148681640625,225.0017242431641
7287,362.6693115234375,-1053.0772705078123,519.4290771484375,217.82485961914062
7288,351.94329833984375,-1055.3548583984377,515.595703125,207.6785125732422
7289,362.7628173828125,-1041.064697265625,512.6673583984375,212.2411956787109
7290,381.2491455078125,-1031.3297119140623,519.1373901367189,216.56451416015625
7291,361.9400329589844,-1048.7352294921877,514.05859375,202.1621551513672
7292,358.80975341796875,-1049.0755615234377,514.4662475585939,194.6187896728516
7293,369.5657043457031,-1037.2313232421877,516.9382934570311,202.640869140625
7294,382.7862548828125,-1019.14892578125,523.8571166992189,211.54931640625
7295,372.0190734863281,-1038.5888671875,515.947265625,203.16819763183597
7296,365.31341552734375,-1042.732666015625,520.1807861328125,202.6034698486328
7297,382.3150024414063,-1030.5069580078123,524.0553588867189,220.01644897460938
7298,389.3497619628906,-1017.9035034179688,525.8878784179689,229.52700805664062
7299,378.22357177734375,-1035.19677734375,525.74951171875,216.10824584960938
7300,374.6482238769531,-1038.375732421875,522.8361206054689,214.8852996826172
7301,381.7203674316406,-1033.951416015625,522.4434814453125,216.48971557617188
7302,398.8677978515625,-1017.529541015625,529.4483032226561,230.705078125
7303,381.0957946777344,-1033.0313720703123,525.4017333984375,215.42758178710938
7304,377.0006103515625,-1043.3834228515623,521.3738403320311,213.322021484375
7305,374.8838195800781,-1032.8892822265623,517.97802734375,220.29319763183597
7306,381.454833984375,-1024.1080322265623,519.5562744140625,215.3153839111328
7307,369.18048095703125,-1038.07275390625,515.3563232421875,212.73486328125
7308,356.46856689453125,-1045.0850830078123,509.65673828125,208.97999572753903
7309,369.7302551269531,-1029.5047607421877,517.2674560546875,217.49575805664062
7310,383.4369812011719,-1012.2787475585938,521.923583984375,221.20947265625
7311,368.3614501953125,-1031.46435546875,519.3206176757811,209.65692138671875
7312,361.0387268066406,-1037.7362060546877,514.492431640625,208.3255157470703
7313,370.6315612792969,-1035.6680908203123,517.390869140625,208.1946258544922
7314,373.8067321777344,-1026.378173828125,521.2915649414061,214.2719573974609
7315,365.2909851074219,-1035.828857421875,516.4595947265625,209.03610229492188
7316,366.4840087890625,-1043.73876953125,519.5899047851561,209.9673309326172
7317,378.3581848144531,-1035.24169921875,526.3554077148439,216.6617584228516
7318,390.38946533203125,-1024.4371337890623,531.3182373046875,223.6030120849609
7319,382.40850830078125,-1045.9490966796877,528.505859375,215.1433563232422
7320,375.5308227539063,-1048.8961181640623,524.89306640625,213.35194396972656
7321,384.435546875,-1041.2891845703123,521.5682983398439,217.15542602539062
7322,393.6207275390625,-1028.2705078125,529.1939697265625,225.49539184570312
7323,374.82025146484375,-1046.6297607421877,516.3137817382811,214.70578002929688
7324,367.6994934082031,-1051.558837890625,524.1039428710939,216.0072784423828
7325,372.2509460449219,-1047.848876953125,519.1710205078125,220.6036071777344
7326,391.2047424316406,-1029.6954345703123,528.1879272460939,239.8902740478516
7327,365.78839111328125,-1048.376220703125,519.01025390625,219.5826110839844
7328,362.58331298828125,-1047.4449462890623,517.1328125,216.5121612548828
7329,366.03521728515625,-1042.0072021484377,515.8873901367189,222.11827087402344
7330,381.45111083984375,-1032.8406982421877,516.710205078125,232.5301513671875
7331,366.4391479492188,-1043.2413330078123,517.1589965820311,218.7486114501953
7332,364.1802368164063,-1047.11962890625,518.2996215820311,215.9623870849609
7333,374.0909729003906,-1039.419189453125,522.52197265625,217.66030883789062
7334,387.7416076660156,-1027.3131103515623,526.1646728515625,225.61508178710938
7335,375.4148864746094,-1041.7005615234377,529.609130859375,218.404541015625
7336,370.6203308105469,-1045.006591796875,526.9388427734375,211.69515991210938
7337,374.99603271484375,-1044.479248046875,520.7044067382811,210.74148559570312
7338,391.1935424804688,-1027.234619140625,529.3772583007811,230.705078125
7339,383.0218505859375,-1047.938720703125,523.4682006835939,215.3191375732422
7340,376.78369140625,-1050.2574462890623,518.3145751953125,210.2590484619141
7341,374.99603271484375,-1039.056396484375,517.5628662109375,220.281982421875
7342,387.4461669921875,-1028.8726806640623,525.2745361328125,232.79942321777344
7343,374.13958740234375,-1049.8272705078123,516.11181640625,215.79409790039062
7344,374.599609375,-1055.3436279296877,518.6624145507811,218.01559448242188
7345,372.99517822265625,-1039.52392578125,511.3658752441406,214.2607421875
7346,385.4228820800781,-1027.0849609375,524.0703125,229.9832763671875
7347,372.56134033203125,-1045.653564453125,523.2587280273439,217.2601318359375
7348,364.5691833496094,-1050.9530029296877,521.00732421875,216.98712158203125
7349,376.6827087402344,-1041.7042236328123,519.4664916992189,224.63522338867188
7350,396.642578125,-1031.86083984375,528.7564086914061,234.62823486328125
7351,379.6634216308594,-1043.349853515625,520.4164428710939,217.559326171875
7352,372.628662109375,-1046.192138671875,519.9190063476561,213.8830108642578
7353,376.2451477050781,-1039.6435546875,517.0317993164061,216.74777221679688
7354,399.7130126953125,-1024.4371337890623,533.9810180664061,225.6823883056641
7355,376.80615234375,-1048.694091796875,519.387939453125,209.1819610595703
7356,375.1381530761719,-1049.629150390625,522.9034423828125,212.4207000732422
7357,381.0135192871094,-1037.167724609375,524.3732299804689,217.6416015625
7358,392.56982421875,-1033.270751953125,528.2589721679689,228.5695953369141
7359,375.5906677246094,-1042.8486328125,522.9408569335939,215.47247314453125
7360,373.5748596191406,-1048.2191162109377,521.2092895507811,218.53170776367188
7361,377.6251831054688,-1037.9119873046877,520.0311889648439,220.87661743164062
7362,382.8797302246094,-1029.26904296875,523.8533935546875,231.3820037841797
7363,373.2756652832031,-1043.353515625,519.1748046875,223.69650268554688
7364,359.00048828125,-1048.4248046875,523.0380859375,216.44110107421875
7365,364.2961730957031,-1046.5810546875,519.2009887695311,224.0630187988281
7366,376.548095703125,-1031.5728759765623,520.865234375,226.83053588867188
7367,365.2797546386719,-1048.002197265625,518.8381958007811,214.5599365234375
7368,360.7133483886719,-1048.4285888671877,517.402099609375,210.5320587158203
7369,371.607666015625,-1036.8460693359377,516.5718383789061,222.15940856933597
7370,387.0758972167969,-1022.9112548828124,530.83203125,225.33457946777344
7371,370.4146423339844,-1047.213134765625,527.3314819335939,218.48683166503903
7372,364.4756774902344,-1052.5836181640623,524.7659301757811,217.8211212158203
7373,379.2557678222656,-1040.7730712890623,526.9388427734375,218.83837890625
7374,392.4426574707031,-1029.0260009765623,533.9287109375,227.4438781738281
7375,378.2946166992188,-1050.32470703125,528.2515258789061,213.19113159179688
7376,373.0363159179688,-1049.958251953125,527.6306762695311,204.2602386474609
7377,373.1522521972656,-1044.46435546875,527.8064575195311,214.9750518798828
7378,392.5436401367188,-1029.9310302734377,535.2638549804689,224.8521423339844
7379,371.03546142578125,-1040.6571044921877,532.2457275390625,215.4649810791016
7380,367.5835571289063,-1047.01123046875,526.3516235351561,209.8887939453125
7381,378.54144287109375,-1038.9779052734377,529.728759765625,222.41372680664062
7382,382.6740417480469,-1023.2478637695312,533.3714599609375,228.00112915039062
7383,373.7282104492188,-1045.2720947265623,534.4074096679689,217.70892333984372
7384,365.3882141113281,-1051.4915771484377,521.0036010742189,217.75006103515625
7385,369.7601623535156,-1036.049560546875,525.79443359375,225.188720703125
7386,384.5701599121094,-1034.12353515625,534.5195922851561,234.3140869140625
7387,372.7745361328125,-1051.0390625,529.7587280273439,219.28717041015625
7388,367.7518310546875,-1057.7222900390623,526.4563598632811,216.5084228515625
7389,380.785400390625,-1040.46630859375,525.3344116210939,223.51324462890625
7390,388.403564453125,-1033.19970703125,531.7670288085939,229.0744781494141
7391,377.6214294433594,-1048.8662109375,525.0763549804689,219.37692260742188
7392,371.9255676269531,-1047.048583984375,523.40087890625,210.66294860839844
7393,379.7681274414063,-1038.8245849609377,526.4638671875,219.1226043701172
7394,394.6192932128906,-1025.1627197265623,533.4462280273439,228.36764526367188
7395,373.5673828125,-1042.426025390625,524.844482421875,209.7616424560547
7396,364.2288513183594,-1051.2073974609377,525.009033203125,210.446044921875
7397,379.3268432617188,-1039.714599609375,526.6732788085939,221.21694946289062
7398,387.9398193359375,-1024.2276611328123,531.1275024414061,228.592041015625
7399,376.4059753417969,-1040.7542724609377,524.4031372070311,221.9275360107422
7400,369.00469970703125,-1041.5621337890623,525.6747436523439,212.0953369140625
7401,380.1944885253906,-1035.7503662109377,527.2567138671875,216.29898071289062
7402,391.6348571777344,-1024.95703125,532.3429565429689,233.30430603027344
7403,369.4161071777344,-1044.9803466796877,527.8812866210939,217.80242919921875
7404,368.9747924804688,-1052.89404296875,519.8516845703125,213.61373901367188
7405,375.0895385742188,-1045.466552734375,518.2322998046875,226.74078369140625
7406,394.15179443359375,-1029.759033203125,527.4586791992189,231.44183349609372
7407,378.92291259765625,-1048.0059814453123,521.0148315429689,210.97337341308597
7408,378.5751037597656,-1054.535888671875,520.0873413085939,208.2207946777344
7409,383.5491943359375,-1049.6478271484377,518.9429321289061,217.92958068847656
7410,390.4380798339844,-1035.59326171875,519.6085815429689,224.4781494140625
7411,376.46954345703125,-1052.493896484375,518.7147827148439,210.1917266845703
7412,373.2607116699219,-1053.279296875,516.8934326171875,210.7452392578125
7413,381.290283203125,-1044.8681640625,517.402099609375,214.4477386474609
7414,396.7809448242188,-1029.254150390625,527.4586791992189,227.4476318359375
7415,378.4255065917969,-1048.8138427734377,519.5936279296875,210.07952880859372
7416,367.9650268554688,-1045.9378662109377,518.0191650390625,209.0809783935547
7417,370.8335266113281,-1037.1939697265623,520.4238891601561,210.50587463378903
7418,391.0215148925781,-1030.757568359375,524.6238403320311,224.6240081787109
7419,378.6985168457031,-1047.486083984375,524.0216674804689,212.87322998046875
7420,367.8453369140625,-1051.6785888671877,521.0260620117189,212.10281372070312
7421,378.04779052734375,-1042.5233154296877,522.3387451171875,212.85079956054688
7422,392.3267211914063,-1029.4822998046877,529.68017578125,225.7085723876953
7423,381.59320068359375,-1046.2294921875,525.4952392578125,226.8455047607422
7424,374.9100036621094,-1048.2042236328123,522.9334106445311,218.3260040283203
7425,377.7710266113281,-1041.9249267578123,524.7509765625,224.36595153808597
7426,393.3888549804688,-1028.7117919921877,530.5552978515625,235.5332946777344
7427,380.1608276367188,-1048.189208984375,522.9633178710939,212.6824951171875
7428,373.6085205078125,-1048.4697265625,522.7725830078125,219.03659057617188
7429,387.9921875,-1046.6895751953123,522.0956420898439,218.2886047363281
7430,399.5484619140625,-1031.228759765625,530.596435546875,239.10862731933597
7431,375.7066040039063,-1049.97314453125,517.906982421875,220.0613250732422
7432,365.3208923339844,-1052.228271484375,517.1552124023439,221.18702697753903
7433,374.999755859375,-1043.525634765625,527.9523315429689,220.93646240234372
7434,390.6811828613281,-1028.63330078125,533.9922485351561,233.2482147216797
7435,377.8533020019531,-1043.963134765625,533.5621948242189,225.3532867431641
7436,364.0082092285156,-1042.646728515625,529.7213134765625,219.2198486328125
7437,373.4196472167969,-1035.7652587890623,531.1686401367189,216.2185821533203
7438,385.3873291015625,-1027.50390625,530.36083984375,224.45008850097656
7439,375.03155517578125,-1040.2344970703123,522.462158203125,209.4718017578125
7440,362.89556884765625,-1039.8829345703123,517.3497314453125,210.7845001220703
7441,370.12481689453125,-1034.3328857421877,516.4595947265625,214.84230041503903
7442,378.6069030761719,-1022.0772705078124,522.69775390625,221.7237091064453
7443,374.1377258300781,-1036.27392578125,520.068603515625,209.68870544433597
7444,369.8330993652344,-1041.87255859375,523.1278686523439,215.22750854492188
7445,375.9478454589844,-1033.04638671875,522.824951171875,224.67822265625
7446,382.7768859863281,-1017.1593017578124,526.97998046875,232.5544586181641
7447,370.3529357910156,-1040.5299072265623,518.1238403320311,217.0899658203125
7448,369.1225280761719,-1045.642333984375,517.9107055664061,217.1834716796875
7449,381.4529724121094,-1037.904541015625,523.625244140625,219.99961853027344
7450,394.11627197265625,-1027.3729248046877,534.8748779296875,232.98828125
7451,380.439453125,-1037.3360595703123,530.0130004882811,221.68630981445312
7452,382.058837890625,-1040.9376220703123,531.815673828125,218.79910278320312
7453,386.3185729980469,-1040.1259765625,531.1088256835939,221.2075958251953
7454,396.5883483886719,-1028.2967529296877,534.1942138671875,231.7092437744141
7455,386.471923828125,-1043.0693359375,527.3950805664061,223.21218872070312
7456,384.2765808105469,-1047.5496826171877,526.4189453125,207.8187561035156
7457,386.9206848144531,-1043.2376708984377,523.1876831054689,219.3526153564453
7458,402.23931884765625,-1031.0567626953123,530.1214599609375,224.83155822753903
7459,381.4155578613281,-1050.2947998046877,521.1083374023439,216.21484375
7460,379.2389526367188,-1050.5528564453123,526.183349609375,213.21543884277344
7461,388.5288696289063,-1042.1904296875,521.0671997070311,216.8468780517578
7462,388.6971435546875,-1035.4212646484377,521.53466796875,218.97488403320312
7463,379.60919189453125,-1050.2275390625,517.203857421875,211.78305053710938
7464,372.3126525878906,-1055.79248046875,515.689208984375,208.9108123779297
7465,386.22882080078125,-1042.119384765625,524.3657836914061,218.51861572265625
7466,393.3570556640625,-1034.9163818359377,526.018798828125,219.94351196289062
7467,374.3209838867188,-1045.290771484375,517.5928344726561,211.5324859619141
7468,369.2197570800781,-1051.955322265625,522.7014770507811,208.4059295654297
7469,379.8298645019531,-1038.420654296875,524.3956909179689,222.2659912109375
7470,391.2589721679688,-1034.51611328125,531.5613403320311,227.71502685546875
7471,385.64166259765625,-1047.7330322265623,530.607666015625,218.5074005126953
7472,376.6322326660156,-1051.932861328125,524.5377807617189,214.5169219970703
7473,379.77001953125,-1046.0986328125,526.4002685546875,220.0968475341797
7474,400.21978759765625,-1032.16748046875,536.8458251953125,233.1640625
7475,383.9886169433594,-1044.468017578125,529.6951293945311,223.68341064453125
7476,379.15667724609375,-1051.319580078125,526.0524291992189,218.8851318359375
7477,386.42327880859375,-1045.4254150390623,527.1519775390625,223.09251403808597
7478,390.5932922363281,-1029.6356201171877,536.4793090820311,236.8628234863281
7479,379.8036804199219,-1045.216064453125,531.8081665039061,230.6919860839844
7480,374.02178955078125,-1051.274658203125,530.3944702148439,224.4276580810547
7481,383.4613037109375,-1044.643798828125,528.7265014648439,226.8623352050781
7482,396.8800659179688,-1031.37841796875,536.546630859375,235.7894744873047
7483,384.3588562011719,-1049.13916015625,530.1962890625,223.37673950195312
7484,371.7292175292969,-1056.2000732421877,523.89453125,221.45443725585938
7485,377.2156677246094,-1043.9781494140623,530.8919067382811,227.71128845214844
7486,393.7198486328125,-1033.2969970703123,535.6265869140625,236.4514312744141
7487,369.59375,-1047.66943359375,528.8349609375,216.36817932128903
7488,364.1820983886719,-1050.4967041015623,525.5213623046875,208.39845275878903
7489,370.6109924316406,-1045.5712890625,526.6957397460939,218.0361633300781
7490,392.5829162597656,-1032.391845703125,534.6766967773439,224.2032623291016
7491,372.64923095703125,-1050.3995361328123,527.907470703125,216.08767700195312
7492,372.540771484375,-1052.6209716796877,526.4937744140625,211.65963745117188
7493,384.41497802734375,-1036.88720703125,528.1580200195311,222.0415954589844
7494,394.4977416992188,-1035.0733642578123,529.3099365234375,230.3479156494141
7495,378.1020202636719,-1048.6866455078123,520.6221313476561,221.3684234619141
7496,367.8247680664063,-1057.4193115234377,513.7369384765625,219.02349853515625
7497,379.7625427246094,-1038.787109375,521.4112548828125,226.297607421875
7498,392.0518493652344,-1035.2716064453123,523.3634643554689,228.0665740966797
7499,370.3492126464844,-1044.7410888671877,518.752197265625,218.72804260253903
7500,370.3641662597656,-1044.408203125,513.131103515625,213.82504272460938
7501,372.1032104492188,-1039.09375,514.5933837890625,221.3609313964844
7502,380.873291015625,-1025.0579833984377,521.0372314453125,227.21388244628903
7503,368.1725769042969,-1046.708251953125,515.419921875,213.69039916992188
7504,361.0480651855469,-1048.454833984375,518.049072265625,208.4395904541016
7505,370.9027099609375,-1033.4615478515623,518.4454956054689,214.23269653320312
7506,379.3062744140625,-1029.418701171875,524.3208618164061,216.1998748779297
7507,367.22265625,-1041.625732421875,515.984619140625,196.14279174804688
7508,366.7402038574219,-1051.0091552734377,512.5738525390625,202.8072967529297
7509,378.9360046386719,-1039.867919921875,520.6669921875,217.2956695556641
7510,389.5872497558594,-1033.9925537109377,525.0239868164061,224.091064453125
7511,381.2958984375,-1050.45556640625,525.6111450195311,217.87535095214844
7512,381.213623046875,-1046.0313720703123,524.8257446289061,213.5931701660156
7513,378.73779296875,-1041.6182861328123,522.802490234375,216.626220703125
7514,392.9793395996094,-1030.27880859375,526.1759033203125,227.8646240234375
7515,376.8603820800781,-1047.7591552734377,519.2495727539061,219.5583038330078
7516,370.9400939941406,-1050.0740966796877,517.1477661132811,223.7694396972656
7517,378.8088684082031,-1044.314697265625,526.0711669921875,222.5427398681641
7518,393.3121948242188,-1035.21923828125,529.8035888671875,227.05307006835938
7519,373.5318603515625,-1044.774658203125,522.297607421875,212.224365234375
7520,367.2338562011719,-1054.3189697265623,517.3646850585939,208.0730743408203
7521,373.8161010742188,-1042.3026123046877,518.883056640625,210.5713195800781
7522,386.0193786621094,-1035.8924560546877,526.0823974609375,218.1408843994141
7523,376.8566284179688,-1046.83544921875,520.397705078125,208.151611328125
7524,364.9674987792969,-1048.9110107421877,517.4170532226561,206.3975982666016
7525,376.273193359375,-1040.5262451171877,516.4783325195311,210.017822265625
7526,391.1505126953125,-1034.3927001953123,525.0015258789061,220.75132751464844
7527,375.0353088378906,-1052.822998046875,517.0729370117189,202.23883056640625
7528,365.3190307617188,-1054.068359375,516.25390625,201.8461456298828
7529,381.8606262207031,-1049.7899169921877,522.5407104492189,209.677490234375
7530,394.2845764160156,-1031.4793701171877,531.1312255859375,221.039306640625
7531,378.08331298828125,-1046.741943359375,526.27685546875,212.83770751953125
7532,368.9429931640625,-1048.761474609375,529.609130859375,215.34344482421875
7533,382.3916931152344,-1046.2930908203123,525.7120971679689,219.2703399658203
7534,388.8654479980469,-1036.0794677734377,533.03857421875,231.62696838378903
7535,374.09283447265625,-1048.443603515625,531.6697998046875,218.34657287597656
7536,372.0433654785156,-1050.98291015625,521.9198608398439,209.2548828125
7537,370.603515625,-1043.435791015625,522.0245971679689,216.2746734619141
7538,383.1321716308594,-1031.48681640625,527.4249877929689,227.2624969482422
7539,359.12200927734375,-1048.103271484375,517.5366821289061,210.358154296875
7540,361.3996276855469,-1047.2655029296877,518.5277709960939,217.27322387695312
7541,371.5721435546875,-1040.9525146484377,520.2032470703125,221.56663513183597
7542,390.5521545410156,-1034.5872802734377,534.8823852539061,227.0904693603516
7543,374.91937255859375,-1051.1400146484377,521.3887939453125,212.01866149902344
