,T7,F8,Cz,P4
2000,164.16290283203125,153.9268035888672,317.3267822265625,-212.5684356689453
2001,154.0689239501953,157.8312530517578,307.4085693359375,-211.3828887939453
2002,162.9212646484375,163.97216796875,322.0390319824219,-210.1898498535156
2003,158.17906188964844,162.55474853515625,331.16815185546875,-203.9180450439453
2004,158.40345764160156,163.82632446289062,326.67279052734375,-203.89935302734372
2005,169.653076171875,167.01644897460938,316.3244934082031,-196.30734252929688
2006,162.71182250976562,167.09498596191406,326.4371643066406,-197.552734375
2007,169.22299194335938,163.22793579101562,332.9221496582031,-196.7187347412109
2008,173.49021911621094,160.8531036376953,330.43511962890625,-198.24087524414062
2009,146.63026428222656,167.35304260253906,319.7614440917969,-204.0526885986328
2010,164.38729858398438,173.87356567382812,322.5028076171875,-197.2086639404297
2011,165.0717010498047,170.1785430908203,330.2892761230469,-195.71270751953125
2012,157.6255645751953,160.35008239746094,320.4981994628906,-205.1933441162109
2013,148.126220703125,154.72900390625,308.6651611328125,-213.245361328125
2014,162.61459350585938,164.30316162109375,316.7395935058594,-201.1467742919922
2015,155.04129028320312,164.92398071289062,323.52752685546875,-203.94049072265625
2016,156.97482299804688,164.46771240234375,319.1705322265625,-207.22412109375
2017,155.82293701171875,156.82334899902344,311.7056884765625,-205.81044006347656
2018,159.96299743652344,161.19903564453125,318.5235290527344,-211.6970367431641
2019,166.1824493408203,164.34429931640625,323.2096252441406,-205.3878326416016
2020,151.4248046875,161.57676696777344,313.4410095214844,-211.91021728515625
2021,154.48779296875,163.5514373779297,309.5739440917969,-206.3639373779297
2022,163.9759063720703,165.81407165527344,313.2876892089844,-206.4649200439453
2023,147.9915771484375,166.3040008544922,323.6696472167969,-199.1795959472656
2024,154.92909240722656,157.58628845214844,319.5146179199219,-199.38902282714844
2025,155.239501953125,155.85472106933594,307.08319091796875,-204.28082275390625
2026,165.30731201171875,164.74072265625,322.6374206542969,-194.52716064453125
2027,158.91209411621094,159.75169372558594,323.86785888671875,-198.0314483642578
2028,160.63992309570312,162.1153106689453,321.9978942871094,-192.66842651367188
2029,158.02572631835938,167.96826171875,313.1418151855469,-196.00067138671875
2030,163.4261474609375,172.56085205078125,319.95965576171875,-196.09043884277344
2031,165.2923583984375,171.6221466064453,326.3997802734375,-203.98536682128903
2032,164.96324157714844,170.48147583007812,328.86810302734375,-205.7730407714844
2033,172.22613525390625,181.2261962890625,328.3407897949219,-204.06390380859372
2034,171.014404296875,170.0775604248047,327.00189208984375,-208.5405578613281
2035,169.3202362060547,168.80599975585938,331.6580810546875,-211.1584930419922
2036,176.06326293945312,166.3862762451172,322.8094787597656,-212.4786834716797
2037,167.69711303710938,166.17311096191406,315.3446350097656,-207.6953430175781
2038,157.93223571777344,167.31002807617188,325.4797668457031,-202.2724914550781
2039,165.5017852783203,168.56289672851562,333.83843994140625,-196.43077087402344
2040,171.75115966796875,166.0571746826172,323.9052429199219,-197.1114196777344
2041,163.51589965820312,169.5390167236328,317.9251403808594,-203.71983337402344
2042,163.27655029296875,165.89634704589844,316.7283935546875,-201.69281005859372
2043,167.98509216308594,162.02182006835938,329.4739685058594,-195.87725830078125
2044,166.32083129882812,167.75881958007812,326.16790771484375,-191.5389709472656
2045,159.80966186523438,168.0542755126953,318.0822448730469,-196.3335266113281
2046,157.0608367919922,171.80165100097656,325.173095703125,-196.4868621826172
2047,163.9684295654297,166.15814208984375,334.56024169921875,-196.0493011474609
2048,159.1514434814453,168.71249389648438,327.0093688964844,-201.31881713867188
2049,160.755859375,169.905517578125,315.41943359375,-203.7946319580078
2050,186.17970275878903,174.52430725097656,319.7689208984375,-200.07716369628903
2051,137.04115295410156,164.24705505371094,320.7712097167969,-207.2428131103516
2052,151.75392150878906,165.19699096679688,313.93841552734375,-204.7782287597656
2053,161.9788055419922,172.18685913085938,305.8490295410156,-208.04689025878903
2054,160.8343963623047,174.7786102294922,311.6346435546875,-205.5523834228516
2055,165.52049255371094,168.2300567626953,321.9380798339844,-207.44851684570312
2056,166.57888793945312,168.9331512451172,325.73406982421875,-209.7186279296875
2057,169.7877197265625,168.7162322998047,314.985595703125,-215.1190490722656
2058,153.5453338623047,172.3850860595703,317.708251953125,-211.91769409179688
2059,164.3162384033203,176.3194580078125,327.2861328125,-203.17755126953125
2060,159.2262420654297,167.77752685546875,319.7502136230469,-201.5394744873047
2061,155.06373596191406,167.80369567871094,312.85760498046875,-199.86773681640625
2062,168.58346557617188,167.22775268554688,318.14581298828125,-200.8475799560547
2063,152.21018981933594,157.4927978515625,321.7660217285156,-193.03868103027344
2064,146.14407348632812,164.46397399902344,316.6835021972656,-195.9857177734375
2065,153.5939483642578,163.74964904785156,309.3944396972656,-193.1620941162109
2066,158.96444702148438,162.5790557861328,313.6317443847656,-195.27513122558597
2067,157.79385375976562,168.6526641845703,327.4319763183594,-194.3738250732422
2068,152.51686096191406,161.53562927246094,318.8040466308594,-207.44102478027344
2069,154.04647827148438,166.03099060058594,308.9344482421875,-208.3086853027344
2070,156.48863220214844,167.5082550048828,313.23907470703125,-208.62657165527344
2071,154.24468994140625,166.8612518310547,316.2646484375,-209.19503784179688
2072,156.32034301757812,163.813232421875,318.9723205566406,-210.0963592529297
2073,150.85633850097656,166.69668579101562,305.4825134277344,-215.1190490722656
2074,163.0858154296875,167.6653289794922,312.5397033691406,-204.04519653320312
2075,165.95431518554688,166.53961181640625,321.86700439453125,-202.58290100097656
2076,157.05335998535156,162.80345153808594,315.14642333984375,-205.88897705078125
2077,144.76031494140625,170.95269775390625,310.6136474609375,-194.83383178710938
2078,155.5835723876953,164.68463134765625,318.4113464355469,-196.1053924560547
2079,164.1928253173828,169.04161071777344,334.7846374511719,-184.582763671875
2080,152.45701599121094,162.82215881347656,320.5804748535156,-195.1442413330078
2081,151.66416931152344,159.9947967529297,312.4050598144531,-200.7054748535156
2082,158.32118225097656,162.9605255126953,320.9021301269531,-200.41375732421875
2083,158.17532348632812,164.67340087890625,328.3332824707031,-195.96701049804688
2084,152.1017303466797,163.90298461914062,318.95361328125,-198.71209716796875
2085,155.39283752441406,166.74905395507812,304.9402160644531,-202.90452575683597
2086,158.48948669433594,165.1782989501953,311.79547119140625,-202.8409576416016
2087,160.7147216796875,168.11036682128906,324.7878723144531,-200.8550720214844
2088,167.18101501464844,168.70501708984375,320.98065185546875,-204.0975646972656
2089,149.71566772460938,166.51344299316406,311.3541564941406,-208.20396423339844
2090,144.84259033203125,171.19952392578125,312.1694641113281,-206.4424743652344
2091,152.32986450195312,166.97344970703125,318.9162292480469,-211.2407684326172
2092,149.21826171875,168.1739501953125,315.9617004394531,-209.3259429931641
2093,153.02548217773438,166.89865112304688,305.45257568359375,-209.1987762451172
2094,159.7872314453125,164.41534423828125,309.28973388671875,-211.99249267578125
2095,158.22021484375,161.9432830810547,320.0456848144531,-211.8466339111328
2096,155.5760955810547,162.26490783691406,315.56903076171875,-204.8043975830078
2097,153.49298095703125,164.11990356445312,307.2290344238281,-199.4563446044922
2098,156.5148162841797,164.85292053222656,316.5152282714844,-189.6241455078125
2099,150.61325073242188,164.85665893554688,321.20880126953125,-190.6638336181641
2100,147.3071746826172,165.25308227539062,311.6009826660156,-186.3928680419922
2101,148.01776123046875,162.68003845214844,304.8018493652344,-198.42413330078125
2102,168.05239868164062,168.15150451660156,314.645263671875,-187.9037933349609
2103,136.28569030761722,165.55601501464844,321.582763671875,-194.4074859619141
2104,144.28160095214844,162.63890075683594,314.8397521972656,-198.8691864013672
2105,146.65643310546875,165.6719512939453,300.25787353515625,-204.3743133544922
2106,155.19088745117188,166.6929473876953,309.0952453613281,-202.3510284423828
2107,154.9889373779297,158.94387817382812,311.4364318847656,-201.6965484619141
2108,151.18919372558594,157.00286865234375,309.57769775390625,-208.3311309814453
2109,153.9268035888672,157.94532775878906,299.1770324707031,-211.61849975585938
2110,157.2366180419922,158.99249267578125,307.7900390625,-211.1323089599609
2111,155.47137451171875,164.4564971923828,313.4410095214844,-210.97149658203125
2112,157.9883270263672,163.95909118652344,317.50628662109375,-207.5195617675781
2113,158.90086364746094,168.46192932128906,312.449951171875,-206.30035400390625
2114,157.9172821044922,166.0534210205078,315.8083801269531,-207.02964782714844
2115,161.2981414794922,160.9222869873047,323.0188903808594,-210.4703521728516
2116,159.992919921875,158.24078369140625,317.8279113769531,-204.1573944091797
2117,144.9959259033203,160.14437866210938,310.3780517578125,-195.29010009765625
2118,157.41612243652344,161.62538146972656,318.6170349121094,-192.634765625
2119,163.66549682617188,172.26165771484375,329.2832336425781,-192.51882934570312
2120,154.1885986328125,154.35128784179688,319.1107177734375,-199.0748748779297
2121,153.0067901611328,166.35635375976562,307.5656433105469,-199.85276794433597
2122,152.43832397460938,170.24960327148438,315.65130615234375,-198.55128479003903
2123,154.4803009033203,167.79995727539062,324.3128967285156,-198.8616943359375
2124,153.60516357421875,171.45758056640625,317.68206787109375,-203.51788330078125
2125,151.15179443359375,168.83966064453125,309.23736572265625,-207.2091522216797
2126,154.36062622070312,167.77003479003906,312.8127136230469,-209.0417022705078
2127,156.89254760742188,166.41619873046875,322.2933654785156,-208.0880279541016
2128,175.40130615234375,165.53732299804688,317.4613952636719,-215.2387237548828
2129,142.23960876464844,169.69235229492188,309.90679931640625,-216.4167938232422
2130,160.84934997558594,171.16212463378906,318.1420593261719,-207.71778869628903
2131,159.147705078125,164.23583984375,329.91900634765625,-203.5702362060547
2132,160.1125946044922,161.67774963378906,323.35174560546875,-209.7822113037109
2133,159.7386016845703,164.21713256835938,314.5031433105469,-206.8875274658203
2134,165.8870086669922,167.4970245361328,328.43426513671875,-204.22097778320312
2135,160.755859375,165.5410614013672,330.9848937988281,-202.65396118164062
2136,165.1726837158203,161.101806640625,329.04388427734375,-204.65106201171875
2137,163.86746215820312,163.8169708251953,320.12420654296875,-203.6936492919922
2138,169.488525390625,164.58364868164062,327.8433837890625,-196.80474853515625
2139,165.80471801757812,161.4757843017578,331.3775634765625,-198.6447906494141
2140,168.91258239746094,163.0876922607422,326.8149108886719,-196.81597900390625
2141,166.36196899414062,159.20567321777344,316.09259033203125,-201.90223693847656
2142,143.64581298828125,173.29013061523438,321.5304260253906,-205.0774078369141
2143,152.71507263183594,167.74012756347656,324.0810241699219,-206.74166870117188
2144,156.3876495361328,165.2830047607422,316.8443298339844,-211.7493896484375
2145,158.61289978027344,174.68138122558594,311.0661926269531,-207.25778198242188
2146,160.43048095703125,169.89804077148438,317.76806640625,-205.67579650878903
2147,160.3706512451172,169.20616149902344,325.1132507324219,-211.3754119873047
2148,158.43711853027344,163.7571258544922,319.9559326171875,-215.69873046875
2149,161.94140625,165.9300079345703,308.28369140625,-210.3058013916016
2150,163.53460693359375,167.9271240234375,317.0350646972656,-203.8357696533203
2151,157.72654724121094,167.1155548095703,329.6759338378906,-200.2005920410156
2152,158.27256774902344,169.22486877441406,323.9015197753906,-199.7181396484375
2153,155.7930145263672,165.89634704589844,308.2500305175781,-196.8496398925781
2154,173.91656494140625,164.77438354492188,311.8814697265625,-194.90489196777344
2155,151.6454620361328,164.3218536376953,319.9409484863281,-200.2604217529297
2156,154.07640075683594,163.03158569335938,317.6596374511719,-204.69219970703125
2157,159.0504608154297,163.97030639648438,308.9755859375,-209.1202392578125
2158,162.76419067382812,167.13800048828125,315.4568176269531,-209.0865936279297
2159,166.6910858154297,170.81057739257812,325.150634765625,-199.82286071777344
2160,163.53086853027344,165.44007873535156,322.16619873046875,-204.2434234619141
2161,160.68479919433594,168.0467987060547,307.1430358886719,-208.06185913085938
2162,161.4739227294922,174.21388244628906,316.57879638671875,-200.93360900878903
2163,163.3476104736328,169.93917846679688,320.595458984375,-202.87835693359372
2164,160.06024169921875,163.99649047851562,315.0491638183594,-207.82623291015625
2165,160.5127716064453,164.1049346923828,305.2394104003906,-211.6409454345703
2166,160.00787353515625,166.84628295898438,315.1725769042969,-205.9525451660156
2167,156.08473205566406,160.39495849609375,315.8906555175781,-211.57736206054688
2168,160.38560485839844,167.29881286621094,323.5948486328125,-199.91635131835938
2169,176.84864807128906,165.82154846191406,313.4559631347656,-204.4117126464844
2170,152.12791442871094,162.97923278808594,313.1679992675781,-207.9234771728516
2171,159.6937255859375,165.79164123535156,328.5352478027344,-197.9229888916016
2172,157.51710510253906,162.39205932617188,320.9993591308594,-197.0141906738281
2173,155.13853454589844,168.78355407714844,313.8299560546875,-202.8297271728516
2174,157.4198760986328,160.60440063476562,318.8339538574219,-201.0308380126953
2175,161.002685546875,162.36215209960938,329.915283203125,-195.8136749267578
2176,152.5318145751953,156.92433166503906,314.5405578613281,-201.98077392578125
2177,151.87733459472656,160.52960205078125,312.3078308105469,-205.4289703369141
2178,158.2875213623047,169.1949462890625,321.1489562988281,-198.0202178955078
2179,153.7173614501953,166.21798706054688,328.7820739746094,-197.99778747558597
2180,154.66355895996094,165.91879272460938,322.4915771484375,-204.49024963378903
2181,157.41238403320312,168.83590698242188,315.05291748046875,-208.3124237060547
2182,163.8038787841797,170.44407653808594,325.161865234375,-200.2304992675781
2183,175.251708984375,167.17539978027344,325.86871337890625,-204.1648712158203
2184,136.8878173828125,162.46311950683594,318.718017578125,-205.7244110107422
2185,152.67767333984375,164.54998779296875,310.8230895996094,-202.7324981689453
2186,155.17593383789062,166.60693359375,314.6901550292969,-198.3717803955078
2187,157.61061096191406,159.5272979736328,322.83563232421875,-202.3024139404297
2188,160.64739990234375,161.19529724121094,317.64093017578125,-204.62489318847656
2189,158.7288360595703,156.23619079589844,306.0809020996094,-207.9907989501953
2190,159.92933654785156,162.3733673095703,311.90765380859375,-210.4516448974609
2191,164.2713623046875,168.86209106445312,321.1414794921875,-207.4597320556641
2192,156.17822265625,155.98561096191406,307.33001708984375,-213.72032165527344
2193,163.10452270507812,166.09457397460938,312.99969482421875,-203.7534942626953
2194,160.10511779785156,169.7783660888672,316.60498046875,-199.57601928710938
2195,159.82089233398438,165.56350708007812,325.2740478515625,-206.7977752685547
2196,156.71302795410156,161.66278076171875,320.3860168457031,-203.1887664794922
2197,162.04986572265625,164.39291381835938,309.3533020019531,-202.294921875
2198,180.6371612548828,161.58050537109375,315.4979553222656,-210.72840881347656
2199,155.92764282226562,163.7571258544922,322.4915771484375,-215.04425048828125
2200,150.88626098632812,161.1055450439453,306.41748046875,-221.33102416992188
2201,153.19752502441406,154.88983154296875,297.65863037109375,-222.87559509277344
2202,161.0550537109375,165.48121643066406,311.23822021484375,-208.2638092041016
2203,157.68165588378906,166.54335021972656,320.86846923828125,-205.0774078369141
2204,158.41094970703125,167.34368896484375,323.6771240234375,-203.1812896728516
2205,151.51083374023438,167.6540985107422,312.57708740234375,-200.4025421142578
2206,162.2854766845703,173.42477416992188,325.3563232421875,-198.80560302734372
2207,159.03924560546875,170.39170837402344,333.6701354980469,-190.7722930908203
2208,151.71652221679688,164.42283630371094,324.3876953125,-194.0147857666016
2209,154.99267578125,168.0056610107422,317.9775085449219,-192.3056488037109
2210,157.00848388671875,168.86956787109375,316.7508239746094,-194.85626220703125
2211,160.3762664794922,160.11447143554688,320.3560791015625,-199.3460235595703
2212,168.12159729003906,160.41366577148438,313.69158935546875,-203.6169891357422
2213,141.5084686279297,164.54251098632812,303.7284851074219,-206.7921600341797
2214,158.6783447265625,167.5381622314453,317.2295227050781,-194.30088806152344
2215,163.802001953125,167.3324737548828,323.93890380859375,-199.98927307128903
2216,156.19879150390625,166.2292022705078,314.7574462890625,-204.6678924560547
2217,154.71031188964844,172.42996215820312,311.0811462402344,-197.3115081787109
2218,160.48471069335938,168.44322204589844,321.5154724121094,-197.98095703125
2219,154.07826232910156,165.99732971191406,322.626220703125,-198.6092529296875
2220,153.13955688476562,156.73733520507812,310.6996765136719,-201.05514526367188
2221,154.6616973876953,160.08828735351562,308.1827087402344,-205.72254943847656
2222,161.12049865722656,168.07672119140625,316.7882385253906,-201.55255126953125
2223,154.9421844482422,168.20013427734375,326.9869384765625,-202.124755859375
2224,154.9010467529297,159.82275390625,314.8547058105469,-210.17677307128903
2225,170.14114379882812,166.57327270507812,309.5328063964844,-203.6207275390625
2226,137.57783508300778,162.72865295410156,312.30035400390625,-204.36495971679688
2227,158.9625701904297,168.32728576660156,329.7170715332031,-195.3480682373047
2228,152.6122283935547,158.54371643066406,323.2059020996094,-196.93377685546875
2229,154.3026580810547,164.66592407226562,313.68035888671875,-197.95851135253903
2230,155.21519470214844,167.29881286621094,320.95074462890625,-189.6297607421875
2231,161.96945190429688,159.1832275390625,323.2320861816406,-198.20909118652344
2232,147.8363800048828,158.18467712402344,317.6446533203125,-198.7027587890625
2233,156.52041625976562,166.37879943847656,314.2413635253906,-196.5859680175781
2234,157.30953979492188,167.59800720214844,321.74359130859375,-192.5618438720703
2235,155.5817108154297,164.17599487304688,329.49639892578125,-196.279296875
2236,151.09756469726562,162.10409545898438,316.6386413574219,-201.3992156982422
2237,155.36105346679688,168.1776885986328,307.9022216796875,-199.8733367919922
2238,166.24790954589844,170.05886840820312,324.21942138671875,-194.9890289306641
2239,163.4317626953125,165.85147094726562,328.049072265625,-199.3086242675781
2240,146.172119140625,169.00421142578125,322.9104309082031,-197.98095703125
2241,152.63092041015625,175.5826873779297,315.8345642089844,-203.4898223876953
2242,160.68667602539062,169.576416015625,329.8741455078125,-199.6676483154297
2243,157.6536102294922,160.0658416748047,328.5763854980469,-198.3998260498047
2244,156.01927185058594,165.5410614013672,322.88427734375,-196.51116943359372
2245,153.06101989746094,160.6417999267578,307.0457763671875,-201.2346649169922
2246,156.44937133789062,168.44696044921875,313.7589111328125,-191.9447479248047
2247,156.09780883789062,162.26116943359375,327.2262878417969,-191.21173095703125
2248,151.01902770996094,161.61790466308594,322.28961181640625,-189.2557678222656
2249,149.81103515625,161.20277404785156,310.0152587890625,-196.21197509765625
2250,152.38035583496094,167.75881958007812,314.0917663574219,-196.29800415039062
2251,158.94387817382812,165.97488403320312,323.3143615722656,-194.89927673339844
2252,162.64263916015625,166.9510040283203,323.5611877441406,-195.72579956054688
2253,172.25418090820312,170.4253692626953,315.0603942871094,-201.0289764404297
2254,149.87088012695312,176.11375427246094,322.6598815917969,-195.07505798339844
2255,162.7959747314453,169.8793487548828,333.5354919433594,-197.6443634033203
2256,162.1975860595703,165.63455200195312,323.9837951660156,-197.07215881347656
2257,160.76895141601562,168.7573699951172,309.65625,-195.3892059326172
2258,163.4205322265625,169.318359375,323.3367919921875,-188.75462341308597
2259,160.8474884033203,165.4587860107422,324.234375,-198.49331665039062
2260,164.1573028564453,163.22232055664062,320.84600830078125,-199.6863555908203
2261,162.76231384277344,165.25308227539062,315.7410583496094,-202.1621551513672
2262,167.47085571289062,165.18203735351562,320.4421081542969,-201.98638916015625
2263,168.75363159179688,165.4176483154297,332.780029296875,-198.2651824951172
2264,163.2185821533203,160.91481018066406,323.8491516113281,-209.929931640625
2265,164.6173095703125,162.5715789794922,316.6236572265625,-207.22972106933597
2266,170.81431579589844,166.0571746826172,324.7691650390625,-195.92027282714844
2267,169.40811157226562,168.37216186523438,335.2333984375,-197.75656127929688
2268,173.24899291992188,156.84579467773438,322.2447509765625,-201.5824737548828
2269,167.0258026123047,159.01119995117188,313.55694580078125,-207.0315093994141
2270,166.20675659179688,162.7473602294922,322.614990234375,-191.64183044433597
2271,163.7646026611328,153.73793029785156,321.1377258300781,-196.57101440429688
2272,165.48121643066406,154.10818481445312,317.11358642578125,-196.17832946777344
2273,157.4927978515625,154.37371826171875,306.74658203125,-202.49127197265625
2274,165.65325927734375,156.1314697265625,318.97607421875,-199.88082885742188
2275,165.8813934326172,155.4470672607422,326.018310546875,-199.5928497314453
2276,162.3284912109375,153.98851013183594,321.3845520019531,-211.69142150878903
2277,163.7758331298828,155.53683471679688,308.9119873046875,-212.6899871826172
2278,168.82843017578125,159.7030792236328,313.17547607421875,-209.4661865234375
2279,166.0908203125,160.761474609375,328.6287536621094,-212.05419921875
2280,164.77064514160156,158.12109375,322.873046875,-207.70469665527344
2281,164.50137329101562,160.73902893066406,313.4933776855469,-202.7942047119141
2282,167.98695373535156,163.07272338867188,324.7392578125,-201.99386596679688
2283,174.0306396484375,164.17599487304688,330.5809631347656,-200.58018493652344
2284,163.3382568359375,155.5480499267578,320.3486022949219,-201.619873046875
2285,141.5533447265625,160.05462646484375,311.23822021484375,-203.9947204589844
2286,154.81129455566406,163.92169189453125,316.9415588378906,-202.6371307373047
2287,157.88174438476562,162.5790557861328,325.4386291503906,-196.9562225341797
2288,155.66024780273438,158.82046508789062,318.69183349609375,-203.22802734375
2289,155.86593627929688,156.58399963378906,311.3167419433594,-204.15179443359372
2290,163.0091552734375,164.8791046142578,316.7994384765625,-198.7027587890625
2291,162.30978393554688,168.24127197265625,327.9593200683594,-203.49729919433597
2292,162.6575927734375,176.77198791503906,329.0139465332031,-194.4355316162109
2293,165.52984619140625,167.07815551757812,315.4044494628906,-205.08302307128903
2294,167.63540649414062,166.78271484375,321.7361145019531,-199.86959838867188
2295,163.7646026611328,159.00746154785156,322.7421569824219,-197.62191772460938
2296,154.63551330566406,152.7880096435547,317.3342590332031,-207.82437133789062
2297,165.0361785888672,152.8179168701172,307.4160461425781,-204.98204040527344
2298,163.57386779785156,155.66024780273438,313.97955322265625,-212.5254211425781
2299,170.7582244873047,160.39869689941406,319.98583984375,-215.2667694091797
2300,182.6772766113281,150.9517059326172,317.4801025390625,-219.8930206298828
2301,152.84410095214844,162.37710571289062,308.80352783203125,-218.5017852783203
2302,171.71189880371094,166.9023895263672,322.3644104003906,-214.53001403808597
2303,166.49847412109375,166.5657958984375,325.88739013671875,-210.55450439453125
2304,160.39869689941406,166.1469268798828,322.8954772949219,-204.43975830078125
2305,165.35780334472656,162.30230712890625,315.0491638183594,-198.7925109863281
2306,167.28012084960938,168.7686004638672,316.863037109375,-199.0056915283203
2307,160.6268310546875,157.6573486328125,319.4061584472656,-203.6057586669922
2308,160.17430114746094,159.1794891357422,317.2145690917969,-197.95477294921875
2309,160.25283813476562,151.82310485839844,308.5716552734375,-202.10232543945312
2310,166.59197998046875,162.34718322753906,320.6627502441406,-193.50802612304688
2311,159.5235595703125,160.2977294921875,327.7573547363281,-200.2061920166016
2312,152.440185546875,157.7358856201172,316.8293762207031,-206.8856506347656
2313,154.67291259765625,168.58160400390625,316.40301513671875,-210.270263671875
2314,158.3754119873047,165.85894775390625,317.5436706542969,-210.0832672119141
2315,168.54046630859375,165.32040405273438,330.4949645996094,-203.3664093017578
2316,174.34478759765625,165.7243194580078,329.4178771972656,-205.9132843017578
2317,141.8787078857422,166.97718811035156,313.975830078125,-203.33274841308597
2318,158.01638793945312,164.93145751953125,317.8428649902344,-200.4904327392578
2319,158.31182861328125,164.8379669189453,324.87762451171875,-201.38800048828125
2320,150.98910522460938,156.7298583984375,313.1567687988281,-210.0271759033203
2321,153.32281494140625,153.65191650390625,305.02996826171875,-205.1727752685547
2322,160.32015991210938,160.89236450195312,309.1700439453125,-203.16819763183597
2323,157.42173767089844,153.68931579589844,316.2870788574219,-208.8303985595703
2324,160.5071563720703,158.5399627685547,314.8023376464844,-201.76199340820312
2325,157.7882537841797,164.25453186035156,309.3009338378906,-199.8658599853516
2326,157.80694580078125,164.65097045898438,318.2916564941406,-192.8460693359375
2327,156.03050231933594,163.23728942871094,319.6455078125,-195.5537567138672
2328,154.2353515625,158.76809692382812,315.7261047363281,-194.2522735595703
2329,153.70802307128906,165.45130920410156,304.2520751953125,-197.25167846679688
2330,172.94232177734375,163.02784729003906,314.57421875,-195.0526123046875
2331,139.83673095703122,156.99539184570312,316.2347106933594,-199.15902709960938
2332,150.12893676757812,155.31617736816406,310.5089416503906,-199.4544677734375
2333,153.27792358398438,151.9914093017578,301.1255187988281,-213.96902465820312
2334,161.70765686035156,158.3380126953125,307.23651123046875,-205.25131225585938
2335,154.97584533691406,149.70632934570312,311.582275390625,-210.9883270263672
2336,152.1896209716797,155.69390869140625,308.1415710449219,-212.60769653320312
2337,155.52186584472656,151.62489318847656,299.1097106933594,-208.64715576171875
2338,158.28565979003906,165.48497009277344,315.2099914550781,-198.85983276367188
2339,161.101806640625,158.86907958984375,320.150390625,-204.0956878662109
2340,151.13870239257812,160.4174041748047,312.9884948730469,-203.24673461914062
2341,154.63177490234375,168.88827514648438,306.1182861328125,-202.0387420654297
2342,152.6122283935547,166.03472900390625,315.4830017089844,-200.11643981933597
2343,158.15101623535156,166.06838989257812,323.7107849121094,-195.87164306640625
2344,155.23016357421875,159.88633728027344,310.9951171875,-199.9107360839844
2345,155.0655975341797,165.4064178466797,304.6821594238281,-200.20993041992188
2346,171.442626953125,164.72950744628906,316.42919921875,-201.3281707763672
2347,139.46647644042972,162.05548095703125,320.7113952636719,-202.59225463867188
2348,152.22702026367188,161.74505615234375,315.1314392089844,-206.16758728027344
2349,152.9525604248047,169.9616241455078,311.82537841796875,-201.04766845703125
2350,165.95619201660156,166.00106811523438,316.14495849609375,-199.3048858642578
2351,158.70826721191406,155.73878479003906,317.43896484375,-207.7420959472656
2352,156.73733520507812,164.71453857421875,310.6174011230469,-200.90554809570312
2353,159.43006896972656,163.62249755859375,306.7503356933594,-202.2145233154297
2354,162.9193878173828,166.38253784179688,309.60760498046875,-200.2622985839844
2355,160.7128448486328,165.73927307128906,315.46429443359375,-202.0574493408203
2356,160.3800048828125,166.36009216308594,317.1173400878906,-200.80831909179688
2357,153.23678588867188,159.5198211669922,303.54522705078125,-201.01400756835938
2358,164.37046813964844,165.57098388671875,310.6847229003906,-198.4970550537109
2359,160.95968627929688,157.86305236816406,315.4306335449219,-206.84825134277344
2360,178.7765655517578,157.76580810546875,309.0765380859375,-200.86441040039062
2361,143.3746795654297,159.75917053222656,297.6361999511719,-210.84246826171875
2362,167.52694702148438,169.18373107910156,314.9369812011719,-202.03126525878903
2363,156.04171752929688,164.6621856689453,318.3702087402344,-198.5419464111328
2364,163.28216552734375,162.78102111816406,311.7618103027344,-206.39947509765625
2365,158.62225341796875,165.48497009277344,305.5535583496094,-204.5444793701172
2366,157.75833129882812,169.35202026367188,315.7896728515625,-197.48355102539062
2367,154.91973876953125,163.74964904785156,323.11614990234375,-193.71746826171875
2368,153.5808563232422,157.62742614746094,317.697021484375,-195.03392028808597
2369,157.3992919921875,163.5925750732422,309.97412109375,-203.62820434570312
2370,162.56784057617188,163.6337127685547,309.14385986328125,-201.35060119628903
2371,155.59292602539062,157.0327911376953,316.182373046875,-204.39862060546875
2372,152.20457458496094,159.7816162109375,310.8604736328125,-204.9521331787109
2373,151.17984008789062,158.82794189453125,293.6719055175781,-204.27520751953125
2374,186.21148681640625,165.8065948486328,314.4769592285156,-196.8402862548828
2375,146.91636657714844,160.90357971191406,314.0094909667969,-207.29330444335938
2376,152.03628540039062,170.00650024414062,311.428955078125,-209.27171325683597
2377,160.1219482421875,166.12074279785156,307.707763671875,-208.34796142578125
2378,167.05946350097656,174.24754333496094,316.8891906738281,-195.7931060791016
2379,159.64697265625,163.58135986328125,316.511474609375,-202.2407073974609
2380,162.0255584716797,166.47604370117188,315.7560119628906,-197.95103454589844
2381,158.56614685058594,165.6644744873047,308.2874450683594,-202.71192932128903
2382,161.1354522705078,169.72227478027344,310.1311950683594,-197.98095703125
2383,159.4412841796875,165.82904052734375,321.66131591796875,-200.03790283203125
2384,152.1559600830078,163.297119140625,312.1619567871094,-204.7501678466797
2385,157.0701904296875,166.91360473632812,303.18621826171875,-202.9699859619141
2386,160.52960205078125,165.05113220214844,305.2655944824219,-197.2441864013672
2387,157.39181518554688,160.03219604492188,314.12542724609375,-197.2591552734375
2388,159.0560760498047,164.79307556152344,314.7911071777344,-194.4130859375
2389,172.2429656982422,167.09312438964844,307.9096984863281,-192.32997131347656
2390,154.04086303710938,168.20013427734375,310.1050109863281,-199.084228515625
2391,154.6916046142578,160.3762664794922,319.0920104980469,-196.2344207763672
2392,159.17201232910156,158.22581481933594,310.50146484375,-197.8799743652344
2393,161.4832763671875,160.00975036621094,305.9088439941406,-196.5149078369141
2394,165.6308135986328,163.802001953125,311.30926513671875,-195.9950714111328
2395,165.08853149414062,155.64903259277344,317.37164306640625,-205.4832000732422
2396,167.4895477294922,154.12315368652344,317.2145690917969,-201.00653076171875
2397,168.96681213378906,157.90792846679688,308.5828857421875,-200.07904052734372
2398,166.85751342773438,159.08226013183594,317.81671142578125,-193.17892456054688
2399,163.0802001953125,154.28396606445312,319.83251953125,-192.86851501464844
2400,170.69090270996094,158.1772003173828,313.2203674316406,-194.89927673339844
2401,154.8262481689453,155.06185913085938,305.83404541015625,-191.08831787109372
2402,163.95159912109375,161.7263641357422,308.5754089355469,-192.49078369140625
2403,161.77871704101562,157.017822265625,316.2421875,-196.5448303222656
2404,163.91419982910156,150.4468231201172,309.7871398925781,-198.8673095703125
2405,157.6685791015625,157.2310028076172,301.15545654296875,-194.09893798828125
2406,153.65939331054688,164.87161254882812,311.5860290527344,-197.27784729003903
2407,160.48471069335938,155.86593627929688,317.13604736328125,-208.43397521972656
2408,158.9401397705078,155.01324462890625,312.5322265625,-206.43687438964844
2409,162.03677368164062,162.74362182617188,311.0250549316406,-203.5646209716797
2410,166.67051696777344,158.22955322265625,314.5031433105469,-194.58139038085938
2411,159.93869018554688,154.23159790039062,324.6532287597656,-194.24105834960938
2412,158.6353302001953,155.93887329101562,320.1485290527344,-197.1189117431641
2413,152.39718627929688,153.57151794433594,309.639404296875,-195.9258728027344
2414,164.08062744140625,155.5835723876953,313.30078125,-192.62355041503903
2415,162.89508056640625,157.04588317871094,319.3855895996094,-187.3876800537109
2416,154.80567932128906,153.56777954101562,312.339599609375,-194.1569061279297
2417,151.79132080078125,153.57899475097656,304.09686279296875,-199.3179626464844
2418,163.92355346679688,158.2127227783203,314.4638671875,-190.24496459960938
2419,176.19790649414062,154.87673950195312,321.6369934082031,-195.79872131347656
2420,147.1463623046875,153.79965209960938,318.2710876464844,-197.6275329589844
2421,157.51336669921875,156.7354736328125,312.7921447753906,-195.16293334960938
2422,160.34446716308594,161.3056182861328,318.1738586425781,-190.43569946289062
2423,157.84622192382812,150.94236755371094,322.6393127441406,-193.24810791015625
2424,158.91583251953125,155.4601593017578,315.60455322265625,-194.7552947998047
2425,153.99412536621094,155.4938201904297,310.56689453125,-188.7826690673828
2426,153.91184997558594,149.62217712402344,312.3134460449219,-192.29443359375
2427,151.69033813476562,148.18231201171875,315.5297546386719,-190.7236785888672
2428,144.6817626953125,147.98410034179688,312.186279296875,-194.22796630859372
2429,150.6768341064453,152.9993133544922,305.5180358886719,-198.6036529541016
2430,155.64341735839844,156.51107788085938,319.6025085449219,-190.2225341796875
2431,157.71531677246094,160.02284240722656,322.527099609375,-189.52691650390625
2432,178.3184356689453,150.48236083984375,318.0953063964844,-193.8352813720703
2433,142.60986328125,148.7919158935547,308.22198486328125,-188.1281890869141
2434,151.65667724609375,160.39309692382812,322.36627197265625,-189.21275329589844
2435,152.29994201660156,162.3266143798828,328.0359802246094,-186.36669921875
2436,147.8270263671875,159.63014221191406,322.7664489746094,-190.5030212402344
2437,152.88711547851562,155.85284423828125,315.2156066894531,-191.202392578125
2438,155.3591766357422,158.18655395507812,315.9972229003906,-199.51243591308597
2439,159.37210083007812,152.2438507080078,318.6600341796875,-202.6651763916016
2440,155.65463256835938,152.1578369140625,309.9273681640625,-210.0776672363281
2441,154.56259155273438,157.1468505859375,303.887451171875,-198.89161682128903
2442,162.92874145507812,157.786376953125,318.4132080078125,-190.0205841064453
2443,158.9345245361328,150.01486206054688,318.783447265625,-194.3625946044922
2444,156.73171997070312,156.7691192626953,323.45458984375,-191.1126251220703
2445,177.34231567382812,151.61553955078125,314.4526672363281,-190.8919677734375
2446,149.5286865234375,161.88905334472656,325.8443908691406,-184.582763671875
2447,156.0922088623047,158.86720275878906,330.49310302734375,-189.7176513671875
2448,152.5019073486328,151.847412109375,318.959228515625,-193.2742919921875
2449,155.591064453125,157.65548706054688,308.0125427246094,-195.89596557617188
2450,158.05564880371094,151.0470733642578,313.44287109375,-194.8375701904297
2451,165.06796264648438,162.71556091308594,327.8714294433594,-192.0737762451172
2452,158.44834899902344,153.63882446289062,315.0697326660156,-195.3686370849609
2453,154.85055541992188,158.51565551757812,312.4929504394531,-188.85372924804688
2454,158.01824951171875,161.36920166015625,317.4109191894531,-190.7236785888672
2455,164.7725067138672,163.2578582763672,324.9468078613281,-190.5478973388672
2456,153.43313598632812,158.5530548095703,315.48486328125,-197.36199951171875
2457,161.96011352539062,157.26654052734375,312.9566955566406,-190.36839294433597
2458,166.11514282226562,161.78433227539062,315.01739501953125,-191.8793029785156
2459,171.60531616210938,160.2921142578125,326.5250549316406,-195.8809967041016
2460,152.0680694580078,156.15577697753906,315.4549560546875,-196.1053924560547
2461,151.23406982421875,157.0196990966797,310.0433044433594,-192.9713592529297
2462,159.50672912597656,154.59999084472656,317.07806396484375,-193.397705078125
2463,151.1256103515625,155.43772888183594,320.84039306640625,-192.2196350097656
2464,154.40176391601562,150.7067413330078,314.4825744628906,-187.48866271972656
2465,155.2918701171875,157.8798828125,306.5652160644531,-186.0226287841797
2466,157.5694580078125,162.60336303710938,316.77886962890625,-193.5996551513672
2467,158.05938720703125,163.11573791503906,323.80615234375,-184.65382385253903
2468,144.33395385742188,159.56283569335938,317.1865234375,-193.2593231201172
2469,155.22080993652344,160.38934326171875,313.16986083984375,-193.65576171875
2470,155.77430725097656,165.61024475097656,318.7872009277344,-194.55706787109372
2471,153.3695526123047,160.90919494628906,330.74365234375,-200.91864013671875
2472,157.6592254638672,158.32118225097656,322.8861389160156,-206.7379302978516
2473,154.229736328125,159.40576171875,310.55194091796875,-210.6872711181641
2474,153.63882446289062,163.1830596923828,316.92474365234375,-200.8064422607422
2475,148.8517608642578,155.7144775390625,323.64532470703125,-206.69305419921875
2476,157.5694580078125,157.9883270263672,320.00640869140625,-202.2201232910156
2477,152.9095458984375,161.40660095214844,312.8183288574219,-199.3329315185547
2478,159.5665740966797,162.91004943847656,320.7880554199219,-194.99090576171875
2479,155.5125274658203,158.69143676757812,329.0756530761719,-190.59278869628903
2480,154.6934814453125,150.4150390625,315.4736633300781,-197.61631774902344
2481,145.55316162109375,157.73776245117188,309.09710693359375,-195.5631103515625
2482,154.1773681640625,161.12611389160156,316.7302551269531,-188.33013916015625
2483,153.3695526123047,167.25955200195312,325.2796630859375,-192.62355041503903
2484,143.1184844970703,149.11355590820312,318.5964660644531,-196.05303955078125
2485,147.85694885253906,158.5044403076172,311.4831848144531,-192.4215850830078
2486,157.0608367919922,161.3392791748047,313.3306884765625,-189.7026824951172
2487,160.5875701904297,155.94261169433594,323.7537841796875,-189.46707153320312
2488,168.79290771484375,150.59080505371094,319.6585998535156,-191.2285614013672
2489,135.28340148925778,157.76394653320312,311.73748779296875,-199.8340759277344
2490,168.87518310546875,166.7733612060547,319.7633056640625,-193.76048278808597
2491,157.37498474121094,164.42843627929688,327.3141784667969,-201.7451629638672
2492,155.54617309570312,153.3471221923828,317.6016540527344,-210.6423797607422
2493,160.5127716064453,159.9143829345703,309.3028259277344,-205.3130340576172
2494,164.60047912597656,164.9146270751953,317.7662048339844,-207.76266479492188
2495,162.1620635986328,163.84127807617188,327.3403625488281,-202.6838836669922
2496,155.54617309570312,160.29959106445312,320.2607116699219,-205.62718200683597
2497,158.93826293945312,160.3369903564453,315.3128356933594,-201.3749084472656
2498,167.97386169433594,164.41722106933594,324.2998046875,-195.20407104492188
2499,155.2133331298828,160.34820556640625,330.9306640625,-187.1221618652344
2500,148.2122344970703,156.06602478027344,320.6122741699219,-188.96592712402344
2501,150.06349182128906,160.5426788330078,309.5384216308594,-192.0326385498047
2502,162.6220703125,163.02972412109375,314.4339599609375,-188.0982666015625
2503,149.79046630859375,156.27171325683594,323.2414245605469,-189.324951171875
2504,143.39151000976562,152.83474731445312,318.23370361328125,-191.17247009277344
2505,150.47486877441406,161.17098999023438,313.0502014160156,-191.1500244140625
2506,156.70181274414062,161.3018798828125,315.49609375,-188.50965881347656
2507,154.1923370361328,155.64341735839844,324.57281494140625,-196.2213287353516
2508,150.86007690429688,155.89024353027344,311.3597717285156,-198.3642883300781
2509,156.18943786621094,162.89134216308594,312.1937561035156,-193.5547790527344
2510,164.32373046875,166.80702209472656,318.5889892578125,-194.88992309570312
2511,156.44375610351562,151.88107299804688,320.4327697753906,-203.7273101806641
2512,158.6764678955078,149.60348510742188,308.6408386230469,-211.73069763183597
2513,167.54751586914062,153.53785705566406,304.7251892089844,-210.358154296875
2514,158.24264526367188,156.0174102783203,318.77972412109375,-199.76675415039062
2515,167.59239196777344,157.21043395996094,331.4729309082031,-198.88787841796875
2516,152.81979370117188,153.70240783691406,320.3841247558594,-196.90573120117188
2517,149.42770385742188,165.18016052246094,314.2357482910156,-187.1745147705078
2518,157.64425659179688,163.5532989501953,322.9945983886719,-185.39431762695312
2519,158.61663818359375,161.78433227539062,332.03765869140625,-184.7921905517578
2520,145.7925262451172,159.16265869140625,316.247802734375,-191.22108459472656
2521,155.64715576171875,165.35968017578125,317.5081481933594,-187.77664184570312
2522,155.1721954345703,162.42385864257812,316.90228271484375,-190.41700744628903
2523,160.5389404296875,162.0199432373047,325.97528076171875,-193.36778259277344
2524,157.42735290527344,156.45497131347656,315.4923400878906,-199.841552734375
2525,159.28233337402344,166.12261962890625,307.96392822265625,-200.03976440429688
2526,164.08062744140625,165.57284545898438,318.0354919433594,-195.99693298339844
2527,156.04733276367188,164.89219665527344,327.4488220214844,-194.6393585205078
2528,152.80857849121094,157.8237762451172,320.5299987792969,-199.34788513183597
2529,160.81195068359375,164.48828125,313.69720458984375,-203.5627593994141
2530,181.1981506347656,163.87867736816406,316.34130859375,-207.3924102783203
2531,150.20933532714844,158.6278533935547,323.1628723144531,-198.0651092529297
2532,148.02149963378906,157.72654724121094,314.16094970703125,-204.96896362304688
2533,157.69662475585938,157.49465942382812,309.55712890625,-201.3711700439453
2534,157.01222229003906,160.1986083984375,317.52685546875,-196.81971740722656
2535,155.1946258544922,156.70555114746094,321.0610656738281,-198.16233825683597
2536,154.59999084472656,157.88735961914062,320.6683654785156,-191.9167022705078
2537,157.1094512939453,160.1724395751953,310.4247741699219,-192.6908721923828
2538,164.11802673339844,159.6937255859375,319.4304504394531,-188.76397705078125
2539,156.99725341796875,158.35110473632812,326.24456787109375,-194.84878540039062
2540,151.61553955078125,160.26966857910156,319.123779296875,-194.7216339111328
2541,155.2544708251953,164.20404052734375,313.4017333984375,-196.08670043945312
2542,161.354248046875,167.3231201171875,320.8441467285156,-194.5869903564453
2543,162.56222534179688,165.0305633544922,328.45111083984375,-197.975341796875
2544,151.87733459472656,157.8424835205078,319.135009765625,-203.08404541015625
2545,154.78697204589844,165.25869750976562,314.0861511230469,-202.23509216308597
2546,178.67372131347656,166.47042846679688,323.26385498046875,-208.78366088867188
2547,140.42950439453122,159.70120239257812,321.5360412597656,-207.67665100097656
2548,152.5804443359375,156.3801727294922,319.9839782714844,-202.4370422363281
2549,155.2806396484375,162.00498962402344,308.2855529785156,-208.6153564453125
2550,161.0176544189453,161.4215545654297,318.45062255859375,-205.1596984863281
2551,163.18679809570312,157.50588989257812,322.7552490234375,-201.2066192626953
2552,151.2639923095703,156.52976989746094,314.5050048828125,-198.77194213867188
2553,148.18231201171875,161.8553924560547,309.0484924316406,-197.66493225097656
2554,161.23831176757812,163.07460021972656,319.5239562988281,-187.7878570556641
2555,156.41757202148438,157.9584197998047,328.3613586425781,-189.6615447998047
2556,154.00160217285156,161.07000732421875,319.4454345703125,-189.19032287597656
2557,151.0807342529297,157.0758056640625,310.2565002441406,-191.8007659912109
2558,173.7632293701172,161.5599365234375,320.60479736328125,-188.6106414794922
2559,141.3794403076172,159.29356384277344,324.4793395996094,-187.91500854492188
2560,146.5105743408203,160.01536560058594,323.0805969238281,-197.18621826171875
2561,145.25772094726562,166.90798950195312,322.1119689941406,-192.5487518310547
2562,150.56837463378906,173.36680603027344,324.9019470214844,-192.2532958984375
2563,143.9674530029297,166.9042510986328,331.8805847167969,-198.16607666015625
2564,149.5137176513672,161.07000732421875,320.5599060058594,-200.9747467041016
2565,157.5806884765625,163.82257080078125,316.4834289550781,-203.2934875488281
2566,151.53326416015625,160.1313018798828,314.6172180175781,-217.1198883056641
2567,147.50164794921875,164.63414001464844,318.79095458984375,-216.3045959472656
2568,148.1673583984375,163.48599243164062,319.8343811035156,-207.9459228515625
2569,151.14431762695312,165.86082458496094,311.2363586425781,-199.4900054931641
2570,156.66441345214844,167.55125427246094,319.69598388671875,-189.10055541992188
2571,161.50010681152344,164.65283203125,327.3328857421875,-195.51075744628903
2572,132.61311340332028,164.24893188476562,320.2794189453125,-193.5248565673828
2573,151.15179443359375,166.75091552734375,315.6082763671875,-193.9212951660156
2574,147.22116088867188,163.0484161376953,321.165771484375,-193.5099029541016
2575,153.22744750976562,161.64968872070312,323.5144348144531,-196.2923889160156
2576,146.65643310546875,164.9071502685547,320.6010437011719,-199.40025329589844
2577,156.27920532226562,165.4943084716797,312.03668212890625,-200.97848510742188
2578,155.90147399902344,161.33554077148438,321.01617431640625,-201.202880859375
2579,161.82546997070312,163.36256408691406,327.86767578125,-198.820556640625
2580,149.41648864746094,155.77804565429688,319.6436462402344,-197.7733917236328
2581,157.55076599121094,156.79156494140625,320.9376525878906,-195.57806396484372
2582,174.07363891601562,166.92669677734375,325.0290832519531,-190.63766479492188
2583,133.97817993164062,157.99581909179688,326.869140625,-192.86663818359372
2584,144.1806182861328,165.95057678222656,326.7569274902344,-195.5855407714844
2585,147.89060974121094,164.51071166992188,312.78839111328125,-202.51931762695312
2586,150.19064331054688,170.50204467773438,321.0722961425781,-199.44512939453125
2587,155.1609649658203,165.32601928710938,328.5184326171875,-201.33750915527344
2588,147.50540161132812,160.68106079101562,318.3907775878906,-203.37950134277344
2589,155.46389770507812,166.8144989013672,314.4563903808594,-199.05992126464844
2590,154.49526977539062,168.1795654296875,317.1865234375,-195.3237609863281
2591,149.80543518066406,162.9474334716797,317.9569396972656,-197.52655029296875
2592,147.83824157714844,162.30792236328125,313.46533203125,-193.2144470214844
2593,148.56752014160156,167.16978454589844,309.6581115722656,-185.4242401123047
2594,164.48828125,162.53231811523438,310.06201171875,-192.5300445556641
2595,139.37484741210938,163.74403381347656,323.8248596191406,-189.13047790527344
2596,139.70396423339844,154.51022338867188,314.733154296875,-193.1695709228516
2597,150.88999938964844,163.25411987304688,310.4060974121094,-195.52197265625
2598,161.5150604248047,171.97181701660156,323.1553955078125,-186.613525390625
2599,148.24215698242188,163.07833862304688,324.3409423828125,-195.16293334960938
2600,148.64605712890625,167.64102172851562,321.7828674316406,-192.78810119628903
2601,150.0186004638672,164.9894256591797,312.5340881347656,-195.03204345703125
2602,153.05540466308594,173.901611328125,321.66693115234375,-187.4737091064453
2603,153.7547607421875,169.79893493652344,319.56884765625,-193.6520233154297
2604,159.67877197265625,157.51336669921875,317.55303955078125,-194.4224395751953
2605,168.2244415283203,162.69686889648438,310.0321044921875,-195.2414703369141
2606,133.54808044433594,166.6574249267578,313.0651550292969,-201.27020263671875
2607,149.33795166015625,170.01585388183594,329.68902587890625,-192.0102081298828
2608,143.39524841308594,165.8907470703125,319.0863952636719,-203.6599884033203
2609,148.86297607421875,169.50723266601562,312.5079040527344,-190.42074584960938
2610,153.10028076171875,167.5400390625,323.0357360839844,-187.1670379638672
2611,150.1532440185547,163.23541259765625,324.557861328125,-192.09996032714844
2612,145.66909790039062,169.34266662597656,322.0857849121094,-193.3116912841797
2613,143.5523223876953,169.0210418701172,309.5178527832031,-196.30360412597656
2614,152.00074768066406,170.7713165283203,319.2191467285156,-193.26307678222656
2615,154.97396850585938,173.93153381347656,327.966796875,-190.65261840820312
2616,152.2849884033203,170.5543975830078,320.6552734375,-190.48806762695312
2617,151.56692504882812,169.25291442871094,312.0048828125,-202.5081024169922
2618,168.61712646484375,171.9044952392578,318.4599609375,-203.88064575195312
2619,143.69444274902344,167.52133178710938,328.79705810546875,-202.1677703857422
2620,149.8203887939453,169.89991760253906,324.41015625,-202.3435516357422
2621,149.992431640625,168.91258239746094,313.1717529296875,-204.17984008789062
2622,149.76803588867188,172.31588745117188,318.9237060546875,-199.172119140625
2623,150.4113006591797,173.75575256347656,326.8335876464844,-195.67904663085938
2624,139.9395751953125,160.25845336914062,314.95941162109375,-201.09068298339844
2625,145.81121826171875,166.38815307617188,311.769287109375,-193.7866516113281
2626,148.9340362548828,169.57827758789062,321.9118957519531,-186.58360290527344
2627,147.97662353515625,165.94309997558594,325.18804931640625,-193.0124969482422
2628,146.5442352294922,165.7972412109375,317.1510009765625,-200.80270385742188
2629,151.1331024169922,165.4531707763672,311.3466796875,-196.7449188232422
2630,165.16146850585938,177.86590576171875,329.47021484375,-186.42279052734372
2631,158.35484313964844,168.02996826171875,334.5677185058594,-195.79872131347656
2632,148.40670776367188,164.11802673339844,317.13604736328125,-205.97499084472656
2633,148.5899658203125,171.44448852539062,317.1061096191406,-194.81512451171875
2634,155.10487365722656,170.004638671875,321.8558044433594,-203.4468231201172
2635,156.51107788085938,166.23855590820312,324.84771728515625,-201.62548828125
2636,148.38052368164062,164.48828125,318.3327941894531,-207.8935546875
2637,153.27606201171875,165.89822387695312,312.5658874511719,-201.57313537597656
2638,160.08267211914062,170.46090698242188,320.1092529296875,-203.6151123046875
2639,153.3807830810547,166.55270385742188,323.1535339355469,-203.7983703613281
2640,152.9993133544922,163.1793212890625,309.28973388671875,-212.19070434570312
2641,158.32118225097656,172.72727966308594,309.035400390625,-203.34210205078125
2642,161.07748413085938,163.5981903076172,316.7807312011719,-201.4908447265625
2643,153.62387084960938,160.87179565429688,322.28961181640625,-197.66119384765625
2644,153.31346130371094,160.49032592773438,313.7925720214844,-200.16693115234372
2645,179.60494995117188,172.57394409179688,317.7830505371094,-188.1356658935547
2646,140.65016174316406,168.80038452148438,324.2867126464844,-191.1462860107422
2647,147.70361328125,164.4434051513672,328.9690856933594,-190.28610229492188
2648,151.57814025878906,161.41407775878906,322.6224670410156,-192.5562286376953
2649,153.30224609375,170.96578979492188,317.3267822265625,-184.77349853515625
2650,154.1324920654297,170.91717529296875,318.6880798339844,-191.6100311279297
2651,142.022705078125,166.3956298828125,324.4512939453125,-193.58470153808597
2652,147.86068725585938,167.34556579589844,320.9656982421875,-198.4129180908203
2653,155.26194763183594,169.6680450439453,312.95855712890625,-197.6387481689453
2654,149.07989501953125,169.19680786132812,318.2767028808594,-200.87750244140625
2655,151.69033813476562,170.3487091064453,323.43402099609375,-195.7762756347656
2656,147.84571838378906,163.79640197753906,320.3224182128906,-201.94337463378903
2657,154.30453491210938,170.65164184570312,314.1927490234375,-202.03314208984372
2658,154.5962371826172,170.849853515625,325.0608825683594,-199.69569396972656
2659,151.76513671875,169.5334014892578,325.44610595703125,-202.728759765625
2660,168.44883728027344,163.8637237548828,316.71343994140625,-209.24366760253903
2661,137.14961242675778,164.38356018066406,308.8072814941406,-212.0859832763672
2662,157.31515502929688,169.12950134277344,322.20361328125,-198.3119354248047
2663,157.5283203125,161.2570037841797,326.0968322753906,-195.33497619628903
2664,149.10232543945312,164.63040161132812,320.9844055175781,-197.42184448242188
2665,152.3223876953125,158.36231994628906,313.6167907714844,-194.3401641845703
2666,161.90774536132812,167.04263305664062,324.7766418457031,-187.7280120849609
2667,157.73402404785156,163.4710235595703,329.71331787109375,-188.44607543945312
2668,148.71337890625,162.95118713378906,320.4570617675781,-188.3525848388672
2669,152.67393493652344,168.41891479492188,317.9139404296875,-191.3258056640625
2670,157.73776245117188,169.81390380859375,329.2682800292969,-185.4653778076172
2671,150.86007690429688,160.69976806640625,331.8861999511719,-202.552978515625
2672,144.28533935546875,162.26304626464844,325.2217102050781,-204.7370758056641
2673,150.16819763183594,171.74742126464844,321.100341796875,-196.3671875
2674,159.6563262939453,170.7189483642578,319.52581787109375,-200.59327697753903
2675,155.9239044189453,162.67816162109375,327.5553894042969,-205.04376220703125
2676,139.04948425292972,166.37692260742188,315.5652770996094,-201.26271057128903
2677,149.38656616210938,173.99884033203125,315.7896728515625,-198.05014038085938
2678,150.55340576171875,166.2759552001953,316.6124572753906,-200.346435546875
2679,151.7202606201172,168.41143798828125,324.7055969238281,-200.15196228027344
2680,146.09170532226562,168.40769958496094,322.4691467285156,-197.1114196777344
2681,148.4702911376953,170.2888641357422,319.7801513671875,-192.23460388183597
2682,151.99700927734375,173.70713806152344,322.7421569824219,-186.9426422119141
2683,146.8845672607422,171.54920959472656,329.9377136230469,-190.74986267089844
2684,141.39065551757812,167.30816650390625,316.6423645019531,-197.32833862304688
2685,144.76405334472656,172.5814208984375,315.9878845214844,-189.0818634033203
2686,150.39259338378906,173.92404174804688,320.61041259765625,-186.76312255859372
2687,145.99073791503906,166.42181396484375,324.129638671875,-199.75180053710938
2688,143.05117797851562,166.7397003173828,322.55889892578125,-195.2265167236328
2689,150.4000701904297,174.21949768066406,309.84698486328125,-196.7523956298828
2690,158.43338012695312,174.81788635253906,324.634521484375,-190.9031982421875
2691,147.66995239257812,167.0201873779297,325.7976379394531,-200.10708618164062
2692,137.47872924804688,163.90859985351562,306.58203125,-210.5788116455078
2693,148.78817749023438,171.46319580078125,307.8797912597656,-205.9862060546875
2694,156.55221557617188,168.9312744140625,319.10321044921875,-203.2785186767578
2695,150.2916259765625,168.62086486816406,322.9740295410156,-206.0497894287109
2696,145.01461791992188,161.66839599609375,317.15472412109375,-200.7279052734375
2697,149.75682067871094,167.18475341796875,319.0770568847656,-203.55902099609372
2698,155.46389770507812,167.95516967773438,323.8042907714844,-197.7322540283203
2699,157.17303466796875,168.26931762695312,330.1134948730469,-194.4261779785156
2700,148.89663696289062,160.9241485595703,319.2266540527344,-193.12095642089844
2701,147.35580444335938,161.07000732421875,313.0857238769531,-190.49180603027344
2702,150.99098205566406,172.8432159423828,327.37213134765625,-191.42677307128903
2703,148.8854217529297,165.4718780517578,334.94171142578125,-191.6549072265625
2704,164.9557647705078,166.1525421142578,324.07354736328125,-193.66323852539062
2705,145.97576904296875,161.67213439941406,312.09466552734375,-201.80874633789062
2706,150.3290252685547,162.19198608398438,325.7004089355469,-190.5890350341797
2707,150.4935760498047,165.29983520507812,331.4000244140625,-193.7829132080078
2708,147.2248992919922,165.3708953857422,317.84661865234375,-201.3599548339844
2709,155.38162231445312,167.34556579589844,314.57421875,-207.4634704589844
2710,148.78443908691406,170.2103271484375,322.4878234863281,-199.2992706298828
2711,151.4734344482422,169.81764221191406,325.0721130371094,-201.89476013183597
2712,149.58851623535156,164.9071502685547,317.89898681640625,-206.19564819335938
2713,156.84017944335938,162.1134490966797,315.4119567871094,-206.8276824951172
2714,157.27401733398438,168.25062561035156,319.19671630859375,-201.00091552734372
2715,154.1511993408203,167.5400390625,327.9181823730469,-194.9422912597656
2716,152.73751831054688,170.0345458984375,320.8123474121094,-194.20925903320312
2717,153.11151123046875,166.3544921875,315.42315673828125,-199.3852844238281
2718,160.9279022216797,170.06446838378906,322.3083190917969,-193.25184631347656
2719,161.88157653808594,166.62002563476562,328.49786376953125,-192.66842651367188
2720,135.82942199707028,158.19403076171875,311.417724609375,-201.5806121826172
2721,146.91822814941406,162.43133544921875,308.47442626953125,-198.9402313232422
2722,150.19064331054688,165.58407592773438,317.45391845703125,-191.47540283203125
2723,153.2461395263672,158.2463836669922,323.8828125,-195.1779022216797
2724,145.0370635986328,157.4011688232422,317.4689025878906,-203.2523498535156
2725,150.3290252685547,158.61289978027344,312.3265380859375,-202.29867553710938
2726,162.21815490722656,161.8628692626953,319.78387451171875,-196.1652374267578
2727,159.73486328125,164.04696655273438,328.44921875,-195.8735198974609
2728,156.59335327148438,161.38790893554688,325.4124450683594,-201.3300323486328
2729,148.88916015625,163.6692352294922,321.66131591796875,-200.89620971679688
2730,159.54412841796875,171.1752166748047,330.7679748535156,-199.5423583984375
2731,165.68504333496094,164.92210388183594,333.3148498535156,-196.8459014892578
2732,144.03475952148438,160.73716735839844,319.0695495605469,-202.6913604736328
2733,142.15359497070312,164.08810424804688,317.6633605957031,-197.7135467529297
2734,151.6005859375,164.7313690185547,326.15667724609375,-191.6100311279297
2735,150.65438842773438,163.9759063720703,327.12158203125,-198.139892578125
2736,149.4725799560547,156.57090759277344,319.38372802734375,-198.151123046875
2737,156.8551483154297,161.7244873046875,313.5644226074219,-197.60508728027344
2738,149.24070739746094,159.59275817871094,317.09490966796875,-196.6701202392578
2739,149.11355590820312,154.34193420410156,320.99188232421875,-197.9304656982422
2740,148.96022033691406,165.6775665283203,320.76373291015625,-203.28599548339844
2741,156.33155822753906,172.2897186279297,315.9617004394531,-203.5216217041016
2742,154.45787048339844,176.98329162597656,320.46453857421875,-195.604248046875
2743,157.4871826171875,167.7457275390625,326.4895324707031,-191.531494140625
2744,156.83644104003906,170.4945526123047,328.05279541015625,-191.76710510253903
2745,153.56777954101562,167.09498596191406,315.81585693359375,-193.03868103027344
2746,159.63763427734375,162.55101013183594,317.5810852050781,-196.64019775390625
2747,179.61244201660156,159.6151885986328,319.1892395019531,-203.6712188720703
2748,128.21873474121094,153.57525634765625,309.727294921875,-208.21893310546875
2749,148.99761962890625,160.95407104492188,305.7592468261719,-199.91635131835938
2750,156.0398406982422,169.1855926513672,316.1225280761719,-197.87435913085938
2751,157.27027893066406,170.14674377441406,324.2867126464844,-202.2911834716797
2752,154.46534729003906,162.1583251953125,319.6978759765625,-197.7397308349609
2753,156.54098510742188,167.39791870117188,315.58770751953125,-193.00128173828125
2754,162.56971740722656,170.01959228515625,328.6287536621094,-190.36839294433597
2755,153.10775756835938,166.2759552001953,331.8226318359375,-194.14569091796875
2756,156.91123962402344,166.11514282226562,327.1028747558594,-196.8384094238281
2757,158.7288360595703,167.95516967773438,318.29541015625,-195.3611602783203
2758,160.87179565429688,166.9790496826172,321.6875,-186.46018981933597
2759,161.1373291015625,159.85079956054688,328.8045349121094,-192.2720031738281
2760,172.6188201904297,156.10716247558594,317.5511779785156,-201.1168670654297
2761,137.71434020996094,162.08726501464844,308.38092041015625,-201.67410278320312
2762,151.71278381347656,166.5227813720703,321.75482177734375,-200.92987060546875
2763,154.4391632080078,159.95925903320312,323.4826354980469,-201.4160461425781
2764,156.67189025878906,160.21731567382812,314.87713623046875,-204.62863159179688
2765,155.35543823242188,175.8538360595703,314.0992431640625,-200.72042846679688
2766,154.9365692138672,164.12550354003906,323.3442687988281,-202.79981994628903
2767,156.64944458007812,164.3498992919922,330.46502685546875,-203.14389038085938
2768,158.90835571289062,166.54148864746094,327.1627197265625,-201.3076019287109
2769,158.70265197753906,170.6329345703125,319.1181945800781,-200.8251495361328
2770,161.32806396484375,171.96807861328125,327.615234375,-196.1278381347656
2771,151.6865997314453,162.77166748046875,327.09912109375,-195.1442413330078
2772,146.93319702148438,160.01910400390625,319.82501220703125,-194.3775634765625
2773,163.09703063964844,160.40431213378906,320.2775573730469,-194.93479919433597
2774,152.28125,161.71701049804688,321.1115417480469,-195.0918884277344
2775,153.032958984375,154.3568878173828,323.8192443847656,-195.9296112060547
2776,151.90725708007812,161.28692626953125,316.37310791015625,-199.0412139892578
2777,156.0398406982422,169.9635009765625,316.0140686035156,-193.36778259277344
2778,156.3427734375,174.1634063720703,324.23809814453125,-190.71246337890625
2779,149.53990173339844,163.2503662109375,329.7806396484375,-194.5121917724609
2780,147.03416442871094,164.42095947265625,319.5146179199219,-195.17416381835938
2781,154.12127685546875,166.0178985595703,312.5022888183594,-197.76217651367188
2782,158.52688598632812,161.0101776123047,315.89813232421875,-198.7607269287109
2783,155.837890625,165.29983520507812,327.87701416015625,-194.3813018798828
2784,153.15638732910156,163.39622497558594,318.3963928222656,-194.418701171875
2785,156.765380859375,166.34701538085938,315.7447814941406,-194.06341552734372
2786,163.6318359375,168.69192504882812,323.2358093261719,-194.0559234619141
2787,151.3986358642578,170.81619262695312,326.08935546875,-196.92068481445312
2788,149.48379516601562,166.42555236816406,320.419677734375,-204.5912322998047
2789,156.7242431640625,168.6021728515625,314.11419677734375,-200.7241668701172
2790,156.23057556152344,166.3507537841797,319.95965576171875,-199.1496734619141
2791,159.6077117919922,166.18618774414062,328.542724609375,-192.18223571777344
2792,149.37159729003906,161.67587280273438,317.4875793457031,-191.9989776611328
2793,146.70880126953125,157.9135284423828,309.4281005859375,-197.9342041015625
2794,150.90122985839844,168.7218475341797,315.8532409667969,-192.8142852783203
2795,150.9984588623047,169.148193359375,323.1123962402344,-191.6586456298828
2796,148.2870330810547,169.80641174316406,315.2810363769531,-197.7210235595703
2797,146.7274932861328,166.3021240234375,310.8006591796875,-204.68472290039062
2798,153.10028076171875,168.22817993164062,319.4921875,-200.6044921875
2799,157.85369873046875,167.31190490722656,322.8506164550781,-207.7589263916016
2800,147.0192108154297,169.25665283203125,315.4381103515625,-202.82598876953125
2801,166.69482421875,168.0598907470703,314.57794189453125,-200.8475799560547
2802,152.4084014892578,171.1004180908203,316.4665832519531,-198.4540557861328
2803,161.44400024414062,172.3607635498047,330.88763427734375,-190.6414031982422
2804,158.60916137695312,167.06881713867188,322.69354248046875,-199.22821044921875
2805,157.81629943847656,170.28138732910156,316.19732666015625,-200.2753753662109
2806,160.13877868652344,164.98568725585938,321.60894775390625,-199.74057006835938
2807,151.0433349609375,158.3286590576172,322.603759765625,-200.82888793945312
2808,152.67019653320312,160.02284240722656,318.56842041015625,-202.7063140869141
2809,153.3807830810547,163.84127807617188,313.8785705566406,-200.32400512695312
2810,151.96334838867188,171.1752166748047,319.2416076660156,-194.52716064453125
2811,147.19871520996094,167.22962951660156,319.4323425292969,-192.3916778564453
2812,143.9263153076172,162.05734252929688,314.634033203125,-194.15316772460938
2813,147.30343627929688,168.1309356689453,311.2456970214844,-199.74806213378903
2814,159.59835815429688,168.97055053710938,317.3211669921875,-193.7754364013672
2815,158.73818969726562,164.58364868164062,322.51214599609375,-196.3709259033203
2816,146.0487060546875,162.55288696289062,316.6592102050781,-197.05532836914062
2817,156.6326141357422,165.39894104003906,305.0655212402344,-204.4640655517578
2818,157.77328491210938,167.07815551757812,315.14453125,-200.3389587402344
2819,159.48989868164062,160.42861938476562,317.20147705078125,-206.4125518798828
2820,151.2583770751953,158.20338439941406,305.0841979980469,-213.9970703125
2821,159.7853546142578,167.46336364746094,307.3917236328125,-205.88897705078125
2822,158.554931640625,169.31088256835938,314.6807861328125,-203.68243408203125
2823,164.16104125976562,169.8756103515625,331.4168395996094,-195.95579528808597
2824,151.2284698486328,166.19554138183594,314.01507568359375,-195.67530822753903
2825,150.08779907226562,171.3453826904297,313.31573486328125,-194.418701171875
2826,153.95484924316406,172.5458984375,321.5809020996094,-195.3200225830078
2827,167.60174560546875,172.8301239013672,335.5307312011719,-189.26138305664062
2828,129.55574035644528,171.19204711914062,323.2526550292969,-188.12445068359372
2829,149.61656188964844,171.46505737304688,315.56341552734375,-194.5009765625
2830,152.85531616210938,170.23837280273438,316.3338317871094,-197.0141906738281
2831,152.56361389160156,168.23753356933594,324.9692687988281,-199.25439453125
2832,150.26730346679688,155.39845275878906,313.09881591796875,-202.74371337890625
2833,152.76182556152344,161.62538146972656,303.04595947265625,-202.5455017089844
2834,156.5503387451172,165.2007293701172,313.12872314453125,-203.6599884033203
2835,161.36734008789062,162.0666961669922,318.86199951171875,-200.7391357421875
2836,154.87112426757812,166.3526153564453,312.8332824707031,-206.85386657714844
2837,157.67979431152344,170.94522094726562,310.56689453125,-201.2103576660156
2838,170.51138305664062,176.43165588378906,319.5052490234375,-196.9431304931641
2839,162.64263916015625,174.9618682861328,324.0866394042969,-196.77484130859372
2840,147.1370086669922,176.89166259765625,316.9097595214844,-198.34185791015625
2841,161.5505828857422,171.4875030517578,312.6537780761719,-191.3744201660156
2842,159.6133270263672,179.96958923339844,321.3826904296875,-192.96388244628903
2843,159.4450225830078,167.77003479003906,322.3999328613281,-200.099609375
2844,155.8734130859375,161.63661193847656,316.49462890625,-205.62718200683597
2845,161.0457000732422,167.194091796875,310.08819580078125,-207.4597320556641
2846,163.57386779785156,172.6655731201172,319.21728515625,-204.9315643310547
2847,160.43235778808594,167.9720001220703,328.7540283203125,-204.1611328125
2848,156.62887573242188,169.92796325683594,317.2987365722656,-203.10275268554688
2849,161.93954467773438,177.97622680664062,318.0953063964844,-200.357666015625
2850,160.70162963867188,177.05621337890625,320.9526062011719,-197.88558959960938
2851,150.5290985107422,173.32752990722656,315.3502197265625,-205.15594482421875
2852,167.78500366210938,169.77088928222656,314.33673095703125,-204.6959381103516
2853,154.2689971923828,168.92567443847656,303.6780090332031,-208.10299682617188
2854,150.76470947265625,172.6132049560547,313.2708435058594,-201.3262939453125
2855,156.37457275390625,173.9521026611328,328.2267150878906,-195.11058044433597
2856,153.5135498046875,180.2388610839844,325.82196044921875,-199.336669921875
2857,148.0420684814453,172.89370727539062,309.3327331542969,-201.14303588867188
2858,157.62368774414062,177.7555694580078,317.51190185546875,-198.9589385986328
2859,154.6504669189453,168.65640258789062,329.9508056640625,-192.2084197998047
2860,151.5089569091797,173.75013732910156,327.4862060546875,-190.9555511474609
2861,151.28829956054688,173.0096435546875,318.95550537109375,-190.78726196289062
2862,158.8541259765625,175.63131713867188,325.2198181152344,-191.9129638671875
2863,156.52041625976562,166.29278564453125,328.9485168457031,-197.54525756835938
2864,155.43959045410156,163.4205322265625,322.8450012207031,-204.31446838378903
2865,150.5029296875,165.75050354003906,314.0188293457031,-207.61680603027344
2866,177.93508911132812,173.43972778320312,323.794921875,-198.68218994140625
2867,142.8174285888672,163.28216552734375,319.7521057128906,-208.85096740722656
2868,151.40797424316406,163.36444091796875,324.041748046875,-203.3682861328125
2869,154.03712463378906,170.1748046875,313.723388671875,-199.40399169921875
2870,156.8570098876953,167.44467163085938,316.5507507324219,-201.6853179931641
2871,161.430908203125,169.4904022216797,325.9229431152344,-199.57601928710938
2872,148.95460510253906,162.79971313476562,316.0234069824219,-205.6234436035156
2873,151.03773498535156,173.36492919921875,314.404052734375,-201.8050079345703
2874,153.10589599609375,168.75363159179688,316.19171142578125,-204.7782287597656
2875,146.62464904785156,166.89865112304688,324.07916259765625,-195.5518951416016
2876,142.9184112548828,165.42886352539062,315.60455322265625,-193.3902282714844
2877,148.27394104003906,171.38278198242188,309.6431579589844,-197.0478515625
2878,151.49026489257812,165.78414916992188,317.2052307128906,-196.2886505126953
2879,152.11856079101562,169.80828857421875,324.6887512207031,-195.3910675048828
2880,173.6529083251953,164.142333984375,324.7747802734375,-197.6237945556641
2881,144.4779510498047,166.4274139404297,307.2196960449219,-201.4272766113281
2882,157.09262084960938,173.7277069091797,323.7986755371094,-198.56251525878903
2883,153.1619873046875,167.9645233154297,328.0546875,-207.06329345703125
2884,156.6363525390625,169.56520080566406,325.9229431152344,-205.1073303222656
2885,150.29348754882812,176.07261657714844,322.32513427734375,-199.2095184326172
2886,155.61911010742188,180.79237365722656,326.4726867675781,-195.62669372558597
2887,155.89585876464844,174.1951904296875,334.1170654296875,-193.8352813720703
2888,149.048095703125,168.0355682373047,318.7984313964844,-200.83262634277344
2889,143.8421630859375,169.62876892089844,313.5550842285156,-203.4393310546875
2890,149.19395446777344,171.4463653564453,319.0452575683594,-200.06968688964844
2891,146.80043029785156,165.9711456298828,328.4249267578125,-206.85760498046875
2892,151.6099395751953,164.6958465576172,315.3240661621094,-202.78485107421875
2893,164.5312957763672,172.8824920654297,313.8804626464844,-199.75180053710938
2894,136.58302307128906,169.18746948242188,322.45977783203125,-195.9931945800781
2895,152.4102783203125,177.1272735595703,335.60552978515625,-185.61497497558597
2896,148.27020263671875,166.72286987304688,321.6295166015625,-194.0559234619141
2897,152.01010131835938,167.4521484375,315.0398254394531,-195.06944274902344
2898,151.7744903564453,169.70730590820312,317.9158020019531,-189.61666870117188
2899,149.9494171142578,164.6210479736328,319.4940490722656,-194.2578887939453
2900,143.99176025390625,169.00794982910156,320.0924377441406,-195.9819793701172
2901,149.3472900390625,169.80081176757812,308.72314453125,-194.1157684326172
2902,151.43789672851562,164.87161254882812,317.18280029296875,-198.58120727539062
2903,150.64877319335938,163.8394012451172,326.0052185058594,-200.2230224609375
2904,153.40135192871094,162.98670959472656,319.75958251953125,-205.3616485595703
2905,150.9517059326172,165.98611450195312,310.52203369140625,-207.23907470703125
2906,149.51185607910156,175.01797485351562,322.3288879394531,-206.4537048339844
2907,163.0091552734375,178.35769653320312,328.83258056640625,-199.75180053710938
2908,150.5328369140625,168.08419799804688,318.7872009277344,-201.44223022460938
2909,135.50965881347656,173.39111328125,311.2812194824219,-197.27598571777344
2910,144.6013641357422,174.7000732421875,317.02197265625,-191.43800354003903
2911,143.0754852294922,165.5074005126953,323.9482727050781,-187.65321350097656
2912,151.82684326171875,166.5283966064453,317.72882080078125,-191.4155578613281
2913,142.78750610351562,170.14114379882812,314.8528137207031,-190.0130920410156
2914,151.76327514648438,171.61839294433594,325.0104064941406,-181.04855346679688
2915,157.4366912841797,164.17599487304688,324.3970642089844,-180.99246215820312
2916,144.53404235839844,167.534423828125,315.41754150390625,-192.23085021972656
2917,140.57722473144528,170.35430908203125,304.8747863769531,-189.60171508789062
2918,145.72706604003906,176.1436767578125,319.69598388671875,-187.8177795410156
2919,155.30120849609375,161.27757263183594,330.3734130859375,-191.8344268798828
2920,156.91685485839844,164.4789276123047,321.27423095703125,-196.81224060058597
2921,162.06295776367188,171.55482482910156,314.9612731933594,-196.6738586425781
2922,142.85108947753906,171.8240966796875,321.66693115234375,-197.3507843017578
2923,150.78341674804688,175.53033447265625,328.5445861816406,-200.8588104248047
2924,148.35247802734375,173.62672424316406,316.4983825683594,-214.48699951171875
2925,149.223876953125,171.93629455566406,310.24151611328125,-212.42257690429688
2926,152.60848999023438,173.989501953125,315.01739501953125,-202.56419372558597
2927,151.3032684326172,170.11495971679688,319.24346923828125,-206.73419189453125
2928,155.15162658691406,167.76255798339844,315.4736633300781,-198.64105224609372
2929,152.64962768554688,165.97488403320312,311.0493469238281,-191.8007659912109
2930,157.97898864746094,175.38821411132812,320.4327697753906,-183.8796539306641
2931,151.75204467773438,169.5614471435547,326.68212890625,-182.5146026611328
2932,146.32171630859375,166.07960510253906,317.5867004394531,-188.1768035888672
2933,149.51185607910156,165.82528686523438,314.80419921875,-183.3598175048828
2934,162.6239471435547,164.04884338378906,319.89422607421875,-185.03155517578125
2935,150.7086181640625,161.68148803710938,323.4957275390625,-191.84190368652344
2936,148.6329803466797,167.13052368164062,314.0749206542969,-190.32725524902344
2937,150.03916931152344,164.6434783935547,308.629638671875,-198.38673400878903
2938,164.34056091308594,170.5188751220703,320.42529296875,-195.9483184814453
2939,153.1582489013672,164.81552124023438,315.67559814453125,-203.9180450439453
2940,153.82022094726562,173.28639221191406,311.99554443359375,-213.7913818359375
2941,157.82565307617188,172.6244354248047,302.8028564453125,-212.9536437988281
2942,164.03387451171875,176.35311889648438,314.5087585449219,-208.7051239013672
2943,161.87222290039062,173.2115936279297,325.34698486328125,-206.7790679931641
2944,155.85845947265625,170.761962890625,318.4468688964844,-205.8216552734375
2945,154.1867218017578,173.37989807128906,312.2386474609375,-199.73683166503903
2946,159.33282470703125,172.0858917236328,315.8177185058594,-191.8905334472656
2947,156.59896850585938,165.82904052734375,326.2071533203125,-192.90403747558597
2948,144.7659149169922,164.7968292236328,313.3942565917969,-191.05653381347656
2949,152.98248291015625,167.77003479003906,312.7435302734375,-189.7213897705078
2950,174.0568084716797,164.9202423095703,318.69744873046875,-184.37332153320312
2951,135.65177917480472,162.0330352783203,321.8052978515625,-179.60121154785156
2952,142.4770965576172,154.72900390625,311.8646545410156,-189.1192626953125
2953,152.76182556152344,166.28530883789062,313.7420654296875,-183.6964111328125
2954,159.31039428710938,171.37904357910156,321.52105712890625,-181.42254638671875
2955,150.8357696533203,163.83192443847656,323.4732971191406,-190.4506683349609
2956,141.57577514648438,169.47543334960938,319.0078430175781,-192.50387573242188
2957,147.69052124023438,173.99697875976562,304.227783203125,-197.9828186035156
2958,153.73045349121094,172.9161376953125,317.4819641113281,-198.28575134277344
2959,150.21495056152344,168.15150451660156,322.9609375,-207.811279296875
2960,150.86195373535156,161.87596130371094,311.1690368652344,-217.6434783935547
2961,161.97694396972656,167.32125854492188,308.3229675292969,-220.08563232421875
2962,157.33946228027344,173.91844177246094,315.3427429199219,-215.20880126953125
2963,163.0876922607422,169.56893920898438,328.641845703125,-206.99224853515625
2964,169.39315795898438,169.18746948242188,318.91436767578125,-203.12892150878903
2965,151.3444061279297,172.4112548828125,311.3111572265625,-193.74925231933597
2966,153.9286651611328,174.40087890625,323.0394592285156,-185.71221923828125
2967,150.94422912597656,171.88392639160156,323.5144348144531,-184.94927978515625
2968,149.76242065429688,164.07127380371094,313.6523132324219,-182.85118103027344
2969,151.6323699951172,169.92422485351562,309.3888244628906,-179.24966430664062
2970,153.77532958984375,167.76629638671875,315.249267578125,-179.97146606445312
2971,152.956298828125,162.79971313476562,321.857666015625,-181.0747375488281
2972,148.42727661132812,161.57302856445312,312.92303466796875,-185.3756256103516
2973,147.32400512695312,163.92543029785156,307.8068542480469,-191.4940948486328
2974,150.99659729003906,166.76400756835938,315.2829284667969,-193.4912109375
2975,144.80331420898438,163.62249755859375,317.9718933105469,-199.4900054931641
2976,146.92384338378906,164.28445434570312,310.56317138671875,-203.14389038085938
2977,151.34814453125,171.0087890625,310.14056396484375,-204.5912322998047
2978,160.84375,175.36578369140625,314.2245178222656,-203.55902099609372
2979,167.5867919921875,166.67425537109375,314.71820068359375,-208.51438903808597
2980,146.56480407714844,168.8920135498047,314.8341369628906,-208.8397521972656
2981,155.0693359375,175.36204528808594,307.4029541015625,-208.60787963867188
2982,154.6055908203125,168.92567443847656,315.82147216796875,-198.12120056152344
2983,153.9398956298828,162.26116943359375,320.99749755859375,-194.0147857666016
2984,152.29434204101562,162.1489715576172,310.6903076171875,-197.44053649902344
2985,144.0179443359375,165.94871520996094,302.2755432128906,-196.81597900390625
2986,158.60354614257812,174.85714721679688,319.4790954589844,-180.0088653564453
2987,153.81272888183594,162.48182678222656,318.95550537109375,-186.01889038085938
2988,138.94288635253906,162.616455078125,309.7441101074219,-186.3704376220703
2989,145.09129333496094,164.89031982421875,304.7550964355469,-185.7159576416016
2990,150.65252685546875,169.9616241455078,317.0818176269531,-182.8437042236328
2991,143.3671875,170.89285278320312,325.9378967285156,-183.91705322265625
2992,161.40098571777344,163.7159881591797,316.2515563964844,-186.9164581298828
2993,132.3157958984375,168.2599639892578,305.80975341796875,-192.3468017578125
2994,148.53199768066406,173.4696502685547,319.0863952636719,-189.59048461914062
2995,149.4445343017578,160.86244201660156,324.7373962402344,-194.0147857666016
2996,149.822265625,164.4377899169922,314.4302062988281,-200.4249725341797
2997,153.18817138671875,161.1317138671875,301.6098327636719,-209.4156951904297
2998,154.5233154296875,161.51318359375,310.5257568359375,-212.29542541503903
2999,155.33860778808594,161.1429443359375,318.2449035644531,-215.3621368408203
3000,152.0325469970703,158.1584930419922,307.6834411621094,-217.57989501953125
3001,154.1455841064453,164.34803771972656,302.9562072753906,-211.69329833984372
3002,159.87510681152344,166.83132934570312,319.5351867675781,-192.64224243164062
3003,155.52186584472656,167.7064666748047,321.693115234375,-192.45150756835938
3004,151.48651123046875,165.9300079345703,319.662353515625,-189.8223571777344
3005,155.2488555908203,170.2122039794922,310.1106262207031,-184.04421997070312
3006,153.296630859375,167.2464599609375,317.5792236328125,-182.0957336425781
3007,148.9209442138672,170.081298828125,323.8659973144531,-184.1040496826172
3008,167.39979553222656,160.1182098388672,313.5999755859375,-193.7978820800781
3009,138.49411010742188,169.9990234375,306.80828857421875,-190.53294372558597
3010,145.73829650878906,178.64193725585938,321.09844970703125,-190.5890350341797
3011,145.667236328125,167.99069213867188,321.4949035644531,-189.676513671875
3012,150.5403289794922,173.39859008789062,318.3122253417969,-190.42822265625
3013,145.1959991455078,168.7573699951172,306.7970886230469,-195.4883117675781
3014,147.71295166015625,174.3709716796875,319.1275329589844,-192.5076141357422
3015,153.06288146972656,171.33416748046875,318.18695068359375,-195.5687255859375
3016,149.08363342285156,168.5516815185547,313.7551574707031,-205.4570159912109
3017,149.08363342285156,174.71878051757812,306.0285339355469,-204.58187866210938
3018,155.4564208984375,172.8301239013672,313.17547607421875,-203.8451232910156
3019,154.70843505859375,170.87416076660156,320.21771240234375,-200.4492950439453
3020,145.3586883544922,162.08912658691406,305.0636291503906,-208.7481231689453
3021,150.7815399169922,166.15440368652344,300.6206359863281,-201.55255126953125
3022,162.26304626464844,169.9952850341797,304.54754638671875,-191.3164520263672
3023,136.75318908691406,160.77642822265625,312.28912353515625,-195.3405914306641
3024,139.33370971679688,160.81008911132812,306.1669006347656,-193.04428100585938
3025,156.66815185546875,169.00047302246094,311.5972595214844,-183.9525909423828
3026,149.147216796875,173.24899291992188,313.77386474609375,-188.3245391845703
3027,148.0476837158203,169.7858428955078,321.1900939941406,-195.0002593994141
3028,153.7547607421875,173.73892211914062,320.9731750488281,-190.87139892578125
3029,150.78903198242188,167.52694702148438,313.130615234375,-191.64183044433597
3030,166.02537536621094,175.06285095214844,325.9584655761719,-187.01182556152344
3031,158.5455780029297,171.83531188964844,325.35260009765625,-193.60153198242188
3032,155.84536743164062,166.92855834960938,319.30517578125,-201.5600433349609
3033,159.12525939941406,167.7962188720703,310.5949401855469,-203.33648681640625
3034,166.9379119873047,167.0669403076172,318.13458251953125,-200.6475067138672
3035,171.870849609375,167.0669403076172,325.0608825683594,-202.2294769287109
3036,186.25823974609372,162.9941864013672,311.44390869140625,-208.9164276123047
3037,153.3321533203125,170.66845703125,312.41253662109375,-207.12875366210938
3038,170.89846801757812,164.8641357421875,315.8083801269531,-209.3801727294922
3039,168.54232788085938,165.4064178466797,316.2010498046875,-198.79624938964844
3040,162.99606323242188,170.73577880859375,315.51666259765625,-194.0877227783203
3041,161.61978149414062,165.33163452148438,306.3539123535156,-194.495361328125
3042,167.3268585205078,168.46566772460938,315.7447814941406,-191.7166290283203
3043,167.2034454345703,170.64976501464844,328.4230651855469,-192.09434509277344
3044,162.49118041992188,165.43634033203125,316.0402526855469,-193.01437377929688
3045,169.6942138671875,167.0669403076172,315.4942321777344,-193.0480194091797
3046,166.83694458007812,167.3661346435547,317.532470703125,-198.5718536376953
3047,168.0897979736328,161.75254821777344,325.38250732421875,-199.19268798828125
3048,162.89508056640625,162.451904296875,319.552001953125,-199.21885681152344
3049,164.45835876464844,164.75567626953125,313.7551574707031,-200.74847412109372
3050,173.9876251220703,171.93629455566406,324.152099609375,-203.01486206054688
3051,193.42762756347656,163.16249084472656,325.59942626953125,-207.24468994140625
3052,149.5286865234375,164.50137329101562,313.4260559082031,-212.08038330078125
3053,175.93984985351562,170.19723510742188,315.3558349609375,-203.58706665039062
3054,176.8299560546875,172.05223083496094,321.37335205078125,-199.0655212402344
3055,166.51156616210938,157.55638122558594,322.7047424316406,-209.0884552001953
3056,167.13612365722656,163.15126037597656,318.99102783203125,-199.3310546875
3057,171.695068359375,170.22715759277344,319.9671325683594,-192.5094757080078
3058,154.1511993408203,173.3499755859375,325.7041320800781,-183.0924072265625
3059,153.56402587890625,165.92626953125,320.9582214355469,-188.1898956298828
3060,150.6581268310547,169.5726776123047,314.92950439453125,-188.7920227050781
3061,157.53955078125,178.2716827392578,319.6118469238281,-185.5009002685547
3062,159.66006469726562,177.48629760742188,320.6627502441406,-186.9632110595703
3063,150.56089782714844,173.03956604003906,326.4521179199219,-196.05490112304688
3064,155.58731079101562,174.26998901367188,318.66192626953125,-197.2254943847656
3065,172.44305419921875,173.20037841796875,316.3394470214844,-191.39498901367188
3066,139.9395751953125,182.86427307128903,320.3860168457031,-187.0305328369141
3067,151.39114379882812,182.4080047607422,329.1710205078125,-186.49197387695312
3068,149.42022705078125,180.0406494140625,316.8592834472656,-195.2882232666016
3069,152.29246520996094,178.88502502441406,312.1432800292969,-191.63059997558597
3070,155.74813842773438,179.50958251953125,313.88232421875,-190.66197204589844
3071,151.79132080078125,177.4264678955078,325.4610595703125,-194.93667602539062
3072,152.64401245117188,171.27432250976562,314.4208679199219,-193.9942169189453
3073,150.94610595703125,167.35491943359375,303.0328674316406,-194.9890289306641
3074,156.29042053222656,169.73348999023438,314.4208679199219,-191.17059326171875
3075,158.10426330566406,169.38941955566406,317.3117980957031,-192.4795684814453
3076,138.29402160644528,171.54734802246094,305.17584228515625,-187.3858184814453
3077,146.4282989501953,169.26974487304688,300.2840576171875,-185.0782928466797
3078,151.0807342529297,174.6626739501953,307.2626953125,-183.4626617431641
3079,147.785888671875,170.69090270996094,315.41943359375,-189.60357666015625
3080,131.77163696289062,175.77342224121094,299.7342834472656,-188.743408203125
3081,143.31297302246094,176.35311889648438,300.0222473144531,-190.6021270751953
3082,152.88711547851562,181.5216522216797,308.0032043457031,-194.0353546142578
3083,152.46824645996094,168.86582946777344,314.3011779785156,-198.7364196777344
3084,151.75765991210938,165.77293395996094,306.8326110839844,-200.3931884765625
3085,154.31948852539062,171.0873260498047,304.4914245605469,-198.0520172119141
3086,158.62037658691406,164.13485717773438,309.07281494140625,-205.8459625244141
3087,148.78817749023438,160.74276733398438,308.13409423828125,-205.50189208984372
3088,149.5211944580078,160.0770721435547,303.4891357421875,-206.9342803955078
3089,156.7242431640625,169.94667053222656,301.5294189453125,-195.8641662597656
3090,154.8131561279297,170.2832489013672,305.8527526855469,-193.5903167724609
3091,152.47198486328125,167.52320861816406,318.32159423828125,-194.47293090820312
3092,155.4190216064453,166.9023895263672,307.3038330078125,-195.61734008789062
3093,150.5945587158203,169.48291015625,300.5794982910156,-194.06527709960938
3094,141.89553833007812,177.55735778808594,316.7059631347656,-178.33526611328125
3095,141.28219604492188,168.84713745117188,318.6469421386719,-182.6211853027344
3096,133.5780029296875,162.2723846435547,303.7023010253906,-191.17807006835938
3097,144.14695739746094,167.06320190429688,297.9765319824219,-187.61021423339844
3098,148.06263732910156,174.95065307617188,308.16400146484375,-181.8956451416016
3099,141.43927001953125,162.17141723632812,306.5035095214844,-187.2100372314453
3100,132.24285888671878,161.84230041503906,299.2705383300781,-193.19761657714844
3101,138.15190124511722,168.09915161132812,302.9356384277344,-188.19737243652344
3102,147.49417114257812,164.93893432617188,306.35015869140625,-192.27386474609372
3103,147.7821502685547,159.7816162109375,316.85552978515625,-193.9942169189453
3104,142.37425231933594,164.47145080566406,311.9936828613281,-200.02667236328125
3105,153.5528106689453,168.6788330078125,302.849609375,-194.08023071289062
3106,170.31130981445312,169.1164093017578,307.027099609375,-196.82907104492188
3107,128.86573791503906,165.6270751953125,309.30841064453125,-195.7968597412109
3108,139.10557556152344,162.43321228027344,301.922119140625,-198.0594940185547
3109,143.5448455810547,160.57821655273438,297.2210693359375,-191.58946228027344
3110,144.37884521484375,163.4990692138672,307.6329650878906,-187.40077209472656
3111,142.13490295410156,161.92457580566406,308.9194641113281,-189.28195190429688
3112,144.19932556152344,166.77896118164062,307.4796142578125,-189.34552001953125
3113,145.5008087158203,168.0056610107422,303.40313720703125,-180.8746490478516
3114,149.95877075195312,166.17684936523438,314.97064208984375,-179.3338165283203
3115,143.1558837890625,163.0390625,317.67083740234375,-179.17674255371094
3116,144.14695739746094,173.7688446044922,311.6234130859375,-177.6732940673828
3117,139.84608459472656,170.50390625,308.4183349609375,-185.4597625732422
3118,140.07795715332028,165.55227661132812,313.36248779296875,-184.6145477294922
3119,154.7720184326172,163.2111053466797,313.7589111328125,-194.62252807617188
3120,129.28834533691406,156.2137451171875,304.5587463378906,-191.29026794433597
3121,146.9780731201172,166.689208984375,303.3956298828125,-189.39414978027344
3122,144.8201446533203,162.94557189941406,309.26727294921875,-190.6544952392578
3123,146.4395294189453,161.9320526123047,318.201904296875,-192.8647766113281
3124,147.9093017578125,161.67401123046875,311.3130187988281,-198.2315216064453
3125,150.02235412597656,167.95703125,307.53570556640625,-189.82049560546875
3126,152.7001190185547,172.40003967285156,314.7275390625,-185.19049072265625
3127,147.68116760253906,165.8065948486328,323.5499572753906,-190.3029327392578
3128,147.9541778564453,165.04739379882812,309.58892822265625,-189.5661773681641
3129,149.31924438476562,166.5695343017578,299.5098876953125,-190.4749755859375
3130,149.7306365966797,166.3900146484375,308.2649841308594,-192.72265625
3131,146.9855499267578,164.05258178710938,310.9427490234375,-193.8184509277344
3132,158.53062438964844,165.49618530273438,300.02972412109375,-190.01870727539062
3133,126.5432586669922,164.4415283203125,294.9284973144531,-187.79347229003903
3134,138.46980285644528,167.31752014160156,306.1257629394531,-186.68646240234372
3135,139.07191467285156,163.79452514648438,313.35125732421875,-188.0253448486328
3136,148.22344970703125,163.813232421875,299.3565368652344,-191.64556884765625
3137,148.47402954101562,165.90008544921875,302.00067138671875,-198.08192443847656
3138,157.5769500732422,165.48497009277344,309.82080078125,-188.35818481445312
3139,151.7613983154297,157.55638122558594,312.954833984375,-193.4893341064453
3140,142.9913330078125,156.6475830078125,303.5115661621094,-195.0002593994141
3141,145.7850341796875,161.3935089111328,294.7789001464844,-193.0218505859375
3142,151.83619689941406,166.0534210205078,305.9350280761719,-185.20172119140625
3143,152.81605529785156,162.33596801757812,312.85009765625,-185.7926177978516
3144,142.7482452392578,167.43719482421875,300.1007995605469,-187.6737823486328
3145,154.8655242919922,163.67111206054688,295.2276916503906,-191.8437805175781
3146,150.4935760498047,168.8508758544922,302.591552734375,-194.0054473876953
3147,146.5442352294922,166.19927978515625,311.3466796875,-190.07855224609372
3148,142.87539672851562,162.77352905273438,295.7699890136719,-194.7309875488281
3149,152.59539794921875,169.51657104492188,293.7018127441406,-192.6441192626953
3150,153.95298767089844,174.26625061035156,304.820556640625,-184.2443084716797
3151,148.30947875976562,165.48870849609375,314.7499694824219,-189.46519470214844
3152,145.16795349121094,160.99708557128906,294.3675231933594,-195.19847106933597
3153,147.68116760253906,164.36672973632812,294.116943359375,-195.52757263183597
3154,150.83016967773438,168.9406280517578,301.56683349609375,-192.3449249267578
3155,155.21707153320312,170.33187866210938,312.58831787109375,-192.3262176513672
3156,148.0850830078125,163.9403839111328,303.4068603515625,-198.36990356445312
3157,148.6722412109375,168.82469177246094,294.44232177734375,-195.1648101806641
3158,172.57020568847656,173.33876037597656,311.8440856933594,-186.1553955078125
3159,134.49427795410156,160.35008239746094,309.0541076660156,-188.08517456054688
3160,139.95828247070312,168.5516815185547,308.38092041015625,-189.7905731201172
3161,145.53073120117188,166.27407836914062,299.3939514160156,-194.00169372558597
3162,150.7104949951172,170.83676147460938,302.07171630859375,-184.5808868408203
3163,148.26458740234375,167.98321533203125,310.3555908203125,-185.7589569091797
3164,142.75198364257812,164.5200653076172,300.16064453125,-199.85464477539062
3165,143.2942657470703,172.05223083496094,300.76275634765625,-195.516357421875
3166,149.82412719726562,170.47024536132812,303.52655029296875,-188.13380432128903
3167,145.743896484375,166.70042419433594,309.7871398925781,-188.1001434326172
3168,148.10003662109375,160.50341796875,300.7889404296875,-192.9844512939453
3169,150.20933532714844,167.22027587890625,298.0887145996094,-196.46255493164062
3170,155.95008850097656,172.968505859375,307.37115478515625,-189.82049560546875
3171,158.467041015625,173.6080322265625,312.6444091796875,-191.24539184570312
3172,153.0853271484375,161.05691528320312,301.7126770019531,-195.3966827392578
3173,145.4596710205078,168.8172149658203,299.6220703125,-187.78224182128903
3174,156.00244140625,175.6836700439453,309.33087158203125,-191.8026428222656
3175,152.0269317626953,169.4567413330078,325.6854553222656,-183.16346740722656
3176,151.49586486816406,162.94931030273438,307.7601013183594,-196.2942657470703
3177,152.42710876464844,164.9127655029297,292.46392822265625,-200.28472900390625
3178,159.5329132080078,169.16128540039062,302.4681396484375,-193.62022399902344
3179,157.68539428710938,161.91709899902344,308.5828857421875,-199.6938323974609
3180,153.94924926757812,163.0951690673828,306.74658203125,-199.48812866210938
3181,154.4840545654297,162.52296447753906,301.4808044433594,-195.32188415527344
3182,163.7290802001953,162.93435668945312,305.2020263671875,-194.60382080078125
3183,149.68576049804688,167.1641845703125,312.7977600097656,-193.20884704589844
3184,151.91473388671875,160.9222869873047,305.9612121582031,-189.77561950683597
3185,157.7452392578125,167.4558868408203,304.3418273925781,-183.3055877685547
3186,166.72848510742188,171.2294464111328,313.78509521484375,-185.02593994140625
3187,170.62171936035156,167.00335693359375,318.6469421386719,-183.78054809570312
3188,142.41165161132812,160.13316345214844,303.635009765625,-192.5506134033203
3189,154.8954315185547,168.0916748046875,300.4299011230469,-189.166015625
3190,161.74319458007812,172.19435119628906,311.933837890625,-189.4091033935547
3191,154.7907257080078,163.61126708984375,312.4798583984375,-197.81265258789062
3192,156.74668884277344,170.61610412597656,308.7250061035156,-194.6748809814453
3193,156.02114868164062,175.9641571044922,305.7555236816406,-191.00978088378903
3194,158.384765625,175.0404052734375,309.8432312011719,-192.6478576660156
3195,158.44459533691406,165.14837646484375,312.89874267578125,-192.3075256347656
3196,150.56463623046875,154.1007080078125,305.7293395996094,-197.5209503173828
3197,145.5344696044922,162.03677368164062,292.7967529296875,-189.9700927734375
3198,145.50828552246094,164.03762817382812,302.5504150390625,-187.1950836181641
3199,149.79046630859375,168.70501708984375,304.0987548828125,-186.50320434570312
3200,154.51022338867188,159.51234436035156,294.03466796875,-193.3883514404297
3201,149.44639587402344,160.29397583007812,290.9081115722656,-192.44216918945312
3202,151.10317993164062,173.87730407714844,304.0501403808594,-178.67184448242188
3203,147.71482849121094,172.8338623046875,309.28973388671875,-180.79237365722656
3204,146.84716796875,171.442626953125,302.86456298828125,-187.52420043945312
3205,150.2542266845703,179.2926788330078,303.17498779296875,-186.3162078857422
3206,152.2288818359375,177.7667999267578,308.4258117675781,-181.01303100585938
3207,149.36038208007812,162.2723846435547,311.7243957519531,-197.0946044921875
3208,152.9544219970703,163.35696411132812,305.1534118652344,-198.4970550537109
3209,151.98953247070312,167.51199340820312,299.34906005859375,-201.87045288085938
3210,160.44918823242188,164.88658142089844,305.58721923828125,-196.6645050048828
3211,150.89747619628906,166.16561889648438,310.60992431640625,-202.0873565673828
3212,151.62303161621094,165.53732299804688,302.1166076660156,-206.9267883300781
3213,172.2410888671875,175.9267578125,304.7906188964844,-191.17807006835938
3214,151.6865997314453,170.71334838867188,310.5126647949219,-186.4732818603516
3215,146.6788787841797,162.13401794433594,317.1397705078125,-189.9139862060547
3216,145.64292907714844,161.5973358154297,303.8818359375,-183.11297607421875
3217,143.21946716308594,164.24143981933594,299.28924560546875,-173.4677734375
3218,147.92425537109375,162.73800659179688,306.17437744140625,-177.57044982910156
3219,143.70565795898438,162.52857971191406,310.01153564453125,-179.4852752685547
3220,139.96949768066406,165.44943237304688,297.2734375,-186.2133636474609
3221,149.3903045654297,160.64366149902344,293.7467041015625,-188.12071228027344
3222,152.91702270507812,164.62290954589844,303.80328369140625,-185.6074981689453
3223,158.3436279296875,166.24603271484375,318.0149230957031,-190.1851348876953
3224,152.3261260986328,163.83006286621094,305.2095031738281,-196.8384094238281
3225,157.38247680664062,168.31045532226562,302.1726989746094,-195.84359741210938
3226,165.21755981445312,174.97869873046875,316.511474609375,-183.561767578125
3227,182.00596618652344,168.36656188964844,316.86676025390625,-197.24606323242188
3228,136.94017028808594,170.19161987304688,309.0877685546875,-191.92417907714844
3229,149.7792510986328,174.56356811523438,303.60882568359375,-190.42074584960938
3230,156.26797485351562,175.76034545898438,311.9001770019531,-193.2144470214844
3231,149.79421997070312,163.78143310546875,315.2623596191406,-188.80511474609372
3232,146.79481506347656,167.05010986328125,304.65972900390625,-191.77833557128903
3233,152.94320678710938,168.57225036621094,296.8358459472656,-186.6621398925781
3234,150.55715942382812,167.86166381835938,301.0694274902344,-182.39117431640625
3235,149.34169006347656,163.78892517089844,296.2412109375,-186.00018310546875
3236,140.84463500976562,160.2771453857422,288.5370178222656,-190.70872497558597
3237,145.3998260498047,164.37608337402344,283.6302795410156,-187.8551788330078
3238,149.46510314941406,163.71786499023438,295.92706298828125,-182.9409484863281
3239,150.86756896972656,166.93043518066406,303.4891357421875,-182.9259796142578
3240,147.09774780273438,166.3395233154297,294.73028564453125,-188.92105102539062
3241,165.09788513183594,168.18704223632812,300.99462890625,-186.9127197265625
3242,149.9512939453125,163.26907348632812,300.9347839355469,-188.6592559814453
3243,152.37100219726562,169.3688507080078,309.9554138183594,-186.84913635253903
3244,145.7401580810547,163.9459991455078,292.1310729980469,-201.1617431640625
3245,145.93089294433594,168.5647735595703,289.17279052734375,-202.2313537597656
3246,163.6692352294922,175.51724243164062,304.6111145019531,-188.6068878173828
3247,148.67971801757812,166.2684783935547,310.6211242675781,-195.20407104492188
3248,156.8214874267578,174.571044921875,307.0345764160156,-189.1529235839844
3249,158.9345245361328,177.1740264892578,303.4891357421875,-185.4317169189453
3250,166.36196899414062,174.17462158203125,310.9053649902344,-188.1020050048828
3251,156.96360778808594,169.1070556640625,317.6633605957031,-183.6403045654297
3252,157.11318969726562,169.85504150390625,307.62921142578125,-184.6613006591797
3253,157.90231323242188,165.5055389404297,305.58721923828125,-182.60809326171875
3254,158.74378967285156,164.3648681640625,307.4833679199219,-186.29563903808597
3255,166.9453887939453,163.44859313964844,316.94903564453125,-181.16448974609372
3256,151.08447265625,157.68165588378906,301.8435974121094,-186.6584014892578
3257,147.91677856445312,165.83090209960938,294.2216796875,-185.49156188964844
3258,157.19921875,166.2572479248047,301.8211364746094,-184.077880859375
3259,153.92306518554688,163.56826782226562,309.903076171875,-185.61871337890625
3260,154.8542938232422,157.6629638671875,300.6019287109375,-193.4463195800781
3261,157.95468139648438,162.0648193359375,296.91815185546875,-195.3910675048828
3262,158.83355712890625,165.5391845703125,299.9661560058594,-200.93734741210938
3263,148.87794494628906,166.88182067871094,306.94482421875,-204.0713806152344
3264,148.455322265625,171.74368286132812,299.891357421875,-202.03314208984372
3265,151.66041564941406,172.68240356445312,296.5329284667969,-200.4062805175781
3266,163.09703063964844,177.01319885253906,312.13580322265625,-199.09732055664062
3267,162.47621154785156,173.40420532226562,317.5137634277344,-191.22108459472656
3268,162.22938537597656,167.48768615722656,312.4798583984375,-195.1853790283203
3269,153.81460571289062,168.0037841796875,305.9911193847656,-188.06460571289062
3270,181.5384826660156,168.044921875,316.78448486328125,-179.97146606445312
3271,144.37135314941406,161.87034606933594,314.985595703125,-182.00596618652344
3272,148.99388122558594,163.4261474609375,303.7808532714844,-185.5962677001953
3273,150.55340576171875,166.18994140625,301.3686218261719,-185.48033142089844
3274,153.32093811035156,168.83030700683594,305.5236511230469,-187.1595458984375
3275,155.54617309570312,169.3613739013672,313.9458923339844,-190.2300109863281
3276,153.81460571289062,161.74319458007812,305.2805480957031,-189.5456085205078
3277,154.37933349609375,168.96119689941406,303.1562805175781,-186.7967834472656
3278,155.49008178710938,163.65054321289062,302.3896179199219,-199.1010589599609
3279,157.22164916992188,158.96444702148438,307.5245056152344,-199.47129821777344
3280,154.6074676513672,161.19717407226562,298.3430480957031,-205.6982421875
3281,154.71592712402344,163.209228515625,289.0680847167969,-205.81044006347656
3282,156.96734619140625,161.15603637695312,301.87725830078125,-208.3236541748047
3283,151.6043243408203,161.82920837402344,305.0075378417969,-219.06837463378903
3284,153.0890655517578,167.7158203125,299.5472717285156,-206.93614196777344
3285,174.55609130859375,175.74537658691406,302.87579345703125,-201.0757141113281
3286,137.42636108398438,181.8638610839844,312.0048828125,-192.0513458251953
3287,149.0088348388672,171.1939239501953,319.398681640625,-185.3905792236328
3288,140.6202392578125,168.05613708496094,314.1702880859375,-182.8549346923828
3289,145.7476348876953,168.5984344482422,303.3058776855469,-179.57504272460938
3290,147.43807983398438,164.94081115722656,305.6208801269531,-183.28501892089844
3291,143.74305725097656,167.02767944335938,307.4609069824219,-185.1474914550781
3292,141.43179321289062,165.0343017578125,303.3694763183594,-195.62294006347656
3293,143.13719177246094,159.82089233398438,295.1865539550781,-194.48602294921875
3294,149.60348510742188,166.12261962890625,309.903076171875,-191.2958831787109
3295,148.5862274169922,163.94973754882812,310.8791809082031,-194.08958435058597
3296,151.96334838867188,160.1948699951172,295.3062438964844,-201.81622314453125
3297,149.1771240234375,165.83837890625,302.4681396484375,-197.43679809570312
3298,154.54762268066406,169.4847869873047,313.6018371582031,-199.7704925537109
3299,157.76019287109375,166.52651977539062,311.4700927734375,-209.0379638671875
3300,151.1331024169922,165.87203979492188,302.789794921875,-201.531982421875
3301,147.37449645996094,175.27789306640625,302.8084716796875,-198.4129180908203
3302,155.80796813964844,173.03768920898438,304.33062744140625,-198.71209716796875
3303,151.4771728515625,170.4945526123047,314.2675476074219,-188.8387756347656
3304,152.17279052734375,169.07713317871094,304.2633056640625,-188.2254180908203
3305,143.05117797851562,172.73849487304688,302.87579345703125,-194.3663330078125
3306,148.72459411621094,177.1740264892578,308.0592956542969,-187.6831359863281
3307,144.49102783203125,161.5225372314453,307.8012390136719,-197.8519287109375
3308,143.24191284179688,162.97361755371094,298.7245178222656,-196.0305938720703
3309,144.41998291015625,163.51589965820312,296.91815185546875,-190.1739196777344
3310,148.1636199951172,163.17556762695312,299.71185302734375,-191.8119964599609
3311,155.38162231445312,162.85394287109375,313.89727783203125,-193.2144470214844
3312,136.80180358886722,160.4529266357422,298.3953857421875,-196.4083251953125
3313,145.7401580810547,164.1068115234375,299.4388427734375,-194.16812133789062
3314,161.27197265625,164.54811096191406,310.88665771484375,-191.7446746826172
3315,150.31031799316406,165.98049926757812,312.3564453125,-193.94747924804688
3316,137.16456604003906,161.2196044921875,302.5541687011719,-206.56588745117188
3317,147.29969787597656,167.95143127441406,296.4244689941406,-205.615966796875
3318,157.25531005859375,173.15736389160156,309.3832092285156,-207.8711242675781
3319,153.81460571289062,169.1631622314453,308.9007873535156,-215.9642639160156
3320,143.68695068359375,161.88531494140625,302.2961120605469,-221.52175903320312
3321,155.99122619628906,171.9792938232422,301.1816101074219,-212.9012908935547
3322,163.67298889160156,170.87977600097656,314.0805358886719,-205.55612182617188
3323,158.69891357421875,169.18185424804688,320.8908996582031,-199.2020263671875
3324,156.98977661132812,167.93272399902344,313.37744140625,-195.5182342529297
3325,159.8545379638672,169.3688507080078,310.2845458984375,-190.1327667236328
3326,161.59359741210938,173.83055114746094,317.779296875,-182.6604461669922
3327,154.08387756347656,162.0685577392578,313.1231384277344,-189.1678771972656
3328,157.98085021972656,154.08013916015625,299.1882629394531,-189.7587890625
3329,136.21089172363278,153.89688110351562,296.4132385253906,-192.5113525390625
3330,145.14552307128906,160.6174774169922,304.67095947265625,-187.8776092529297
3331,143.0063018798828,154.44290161132812,310.5538024902344,-184.98667907714844
3332,141.19992065429688,160.93911743164062,307.5132751464844,-191.6436920166016
3333,148.98638916015625,167.88784790039062,304.4615173339844,-186.8341827392578
3334,155.5012969970703,162.63328552246094,316.19732666015625,-180.3940734863281
3335,150.05226135253906,159.20379638671875,316.6236572265625,-189.3847961425781
3336,152.28872680664062,159.11404418945312,305.4712829589844,-196.72994995117188
3337,150.90122985839844,158.8447723388672,294.10198974609375,-204.86050415039062
3338,172.30841064453125,168.8115997314453,310.8380432128906,-199.8041534423828
3339,136.32682800292972,164.2751007080078,311.8478088378906,-209.0791015625
3340,161.71701049804688,171.8334503173828,312.45367431640625,-204.1835784912109
3341,149.34542846679688,174.7019500732422,305.84527587890625,-199.58349609375
3342,146.01316833496094,180.98123168945312,325.3713073730469,-180.0013885498047
3343,154.27835083007812,173.03768920898438,323.8753356933594,-182.47720336914062
3344,150.4150390625,165.78228759765625,313.68035888671875,-183.40843200683597
3345,152.79360961914062,165.33349609375,308.9344482421875,-188.17306518554688
3346,161.3953857421875,164.67153930664062,322.0091247558594,-187.974853515625
3347,157.86117553710938,156.8439178466797,322.768310546875,-188.6592559814453
3348,150.90870666503906,156.41009521484375,317.87652587890625,-190.3833465576172
3349,140.18266296386722,161.2345733642578,310.5089416503906,-190.521728515625
3350,163.6056671142578,167.53256225585938,319.7577209472656,-185.63742065429688
3351,150.6581268310547,154.42794799804688,320.88714599609375,-194.9647216796875
3352,159.03550720214844,157.04962158203125,310.1461486816406,-197.27224731445312
3353,158.01451110839844,163.8450164794922,314.88836669921875,-189.86349487304688
3354,174.05120849609375,163.60940551757812,318.5497131347656,-194.31398010253903
3355,158.1828155517578,162.55101013183594,319.4472961425781,-194.99838256835938
3356,148.95272827148438,157.59564208984375,305.5348815917969,-203.03916931152344
3357,136.0426025390625,164.00582885742188,302.5205078125,-204.7782287597656
3358,165.87203979492188,171.2200927734375,311.3990173339844,-204.52764892578125
3359,133.58174133300778,168.11598205566406,316.75830078125,-207.87860107421875
3360,142.89784240722656,168.3403778076172,307.8236999511719,-206.9548492431641
3361,146.77984619140625,171.08920288085938,306.66058349609375,-200.9410858154297
3362,154.4391632080078,167.8242645263672,313.90850830078125,-200.1183013916016
3363,152.7075958251953,163.84127807617188,315.7261047363281,-198.21469116210938
3364,149.82412719726562,162.364013671875,308.4669494628906,-202.3360748291016
3365,155.16844177246094,167.7008514404297,301.7126770019531,-196.4943389892578
3366,163.31394958496094,168.1421661376953,318.4188232421875,-184.72488403320312
3367,149.1322479248047,163.07833862304688,320.7076416015625,-198.7420196533203
3368,168.74803161621094,166.8631134033203,312.4574279785156,-199.73683166503903
3369,141.89927673339844,165.4531707763672,310.6959228515625,-193.92877197265625
3370,152.31117248535156,173.56875610351562,322.16619873046875,-192.387939453125
3371,155.00762939453125,166.6574249267578,325.1132507324219,-191.84564208984372
3372,149.28184509277344,163.1306915283203,318.2841796875,-193.5286102294922
3373,158.9345245361328,166.70603942871094,315.4942321777344,-197.635009765625
3374,158.45582580566406,162.76419067382812,313.5756530761719,-201.00840759277344
3375,151.99700927734375,163.05215454101562,320.5094299316406,-202.81851196289062
3376,148.8854217529297,172.3607635498047,311.32421875,-209.4904937744141
3377,154.04273986816406,166.68359375,303.5340270996094,-214.7675018310547
3378,157.8424835205078,172.76467895507812,313.3475036621094,-210.21229553222656
3379,150.91244506835938,166.75839233398438,318.86761474609375,-207.53826904296875
3380,150.17942810058594,162.93247985839844,311.3691101074219,-205.3130340576172
3381,158.57923889160156,166.28717041015625,298.6646728515625,-195.7014923095703
3382,133.93704223632812,159.5703125,310.01153564453125,-188.3974609375
3383,140.12283325195312,157.94345092773438,318.201904296875,-182.64923095703125
3384,158.9345245361328,159.08786010742188,315.95050048828125,-185.37188720703125
3385,141.33456420898438,159.68251037597656,307.531982421875,-186.13482666015625
3386,151.71278381347656,159.42819213867188,315.89813232421875,-183.62535095214844
3387,147.16506958007812,158.9756622314453,320.5243835449219,-185.7309112548828
3388,143.2456512451172,160.77081298828125,317.2931213378906,-192.51882934570312
3389,149.76803588867188,168.43760681152344,312.4312438964844,-192.79931640625
3390,149.0985870361328,164.09933471679688,312.0048828125,-200.6044921875
3391,169.2342071533203,166.10391235351562,322.1474914550781,-199.25439453125
3392,137.3515625,161.2196044921875,307.67034912109375,-214.3748016357422
3393,147.2024688720703,174.85528564453125,307.4459533691406,-202.2500457763672
3394,153.8856658935547,174.94503784179688,318.2916564941406,-203.03916931152344
3395,155.76309204101562,172.82077026367188,324.1072082519531,-204.36309814453125
3396,146.8995361328125,171.68385314941406,317.01263427734375,-203.54405212402344
3397,158.807373046875,176.0296173095703,313.6766357421875,-202.82598876953125
3398,146.1253662109375,172.80955505371094,318.3552551269531,-196.46067810058597
3399,145.72520446777344,168.73306274414062,323.48638916015625,-197.0852508544922
3400,136.74195861816406,162.08726501464844,306.90740966796875,-194.97593688964844
3401,153.01800537109375,164.45462036132812,300.912353515625,-196.954345703125
3402,141.8431854248047,163.57948303222656,311.9712219238281,-190.5478973388672
3403,137.52734375,164.7874755859375,321.71368408203125,-187.35777282714844
3404,143.8328094482422,158.14541625976562,308.93817138671875,-192.40663146972656
3405,147.41937255859375,159.15518188476562,307.7489013671875,-192.46273803710938
3406,150.87130737304688,167.31564331054688,321.6239013671875,-185.45042419433597
3407,145.01461791992188,155.6172332763672,322.0203552246094,-192.84420776367188
3408,148.45907592773438,158.11549377441406,311.4252014160156,-198.5288543701172
3409,152.39718627929688,162.38272094726562,306.170654296875,-198.6522674560547
3410,152.73004150390625,166.12261962890625,318.86761474609375,-192.26824951171875
3411,153.37704467773438,165.4195098876953,323.93890380859375,-198.88787841796875
3412,160.2509765625,164.08436584472656,312.790283203125,-205.79920959472656
3413,158.07061767578125,161.78433227539062,309.1476135253906,-204.2396697998047
3414,156.4736785888672,172.06532287597656,323.43402099609375,-199.60968017578125
3415,156.74668884277344,157.69662475585938,328.3819274902344,-203.8769073486328
3416,158.5941925048828,164.09933471679688,316.32073974609375,-208.33860778808597
3417,154.88233947753906,167.98509216308594,314.8322448730469,-198.52511596679688
3418,154.38868713378906,170.66659545898438,318.9049987792969,-191.33328247070312
3419,151.28456115722656,161.64968872070312,318.4412536621094,-197.87811279296875
3420,150.6113739013672,165.4943084716797,311.4812927246094,-192.212158203125
3421,157.2796173095703,164.1853485107422,305.4039611816406,-198.38673400878903
3422,147.1893768310547,164.92584228515625,323.5948486328125,-188.85372924804688
3423,148.1243438720703,158.39224243164062,324.40264892578125,-191.0303497314453
3424,159.9835662841797,158.66525268554688,318.3253173828125,-202.1415863037109
3425,143.2924041748047,165.0380401611328,311.0250549316406,-200.29782104492188
3426,152.55612182617188,170.44967651367188,323.800537109375,-191.9952392578125
3427,147.85507202148438,154.2334747314453,318.0036926269531,-196.3671875
3428,141.72537231445312,159.71243286132812,309.67120361328125,-193.2368927001953
3429,140.17706298828122,159.16265869140625,304.4316101074219,-199.5535888671875
3430,152.38035583496094,162.90255737304688,313.3699645996094,-198.0800628662109
3431,159.02615356445312,164.72763061523438,328.4193115234375,-195.65660095214844
3432,142.8997039794922,164.1442108154297,313.5457458496094,-205.84783935546875
3433,155.11422729492188,163.41867065429688,305.4488525390625,-208.1291656494141
3434,155.3236541748047,168.4712677001953,319.3949279785156,-208.3086853027344
3435,151.4341583251953,165.4606475830078,321.66131591796875,-209.36334228515625
3436,157.02157592773438,165.72618103027344,309.46551513671875,-204.39675903320312
3437,137.88450622558594,169.6568145751953,308.4519958496094,-194.1980438232422
3438,152.75808715820312,169.58201599121094,322.0390319824219,-185.5065155029297
3439,148.34500122070312,165.09788513183594,324.7093200683594,-194.35137939453125
3440,148.31881713867188,165.86082458496094,323.07501220703125,-194.68423461914062
3441,143.7150115966797,167.08377075195312,313.1941833496094,-196.2288055419922
3442,151.04147338867188,170.61798095703125,322.7047424316406,-189.55308532714844
3443,155.63406372070312,167.281982421875,330.3715515136719,-186.8753204345703
3444,146.3852996826172,160.65487670898438,321.253662109375,-193.6968994140625
3445,150.749755859375,164.13299560546875,315.232421875,-188.21420288085938
3446,149.48941040039062,170.14300537109375,324.1632995605469,-191.31832885742188
3447,153.57337951660156,164.82113647460938,330.74554443359375,-191.47540283203125
3448,156.5540771484375,163.5458221435547,322.966552734375,-197.15257263183597
3449,147.47360229492188,163.9684295654297,310.0451965332031,-204.60618591308597
3450,153.01239013671875,161.19342041015625,319.41363525390625,-204.68472290039062
3451,158.81298828125,159.91812133789062,320.9544677734375,-204.56504821777344
3452,150.4056854248047,161.6160430908203,318.4599609375,-207.9309539794922
3453,153.66688537597656,170.32626342773438,316.8031921386719,-202.3472900390625
3454,156.07911682128906,175.932373046875,328.43426513671875,-204.0938262939453
3455,149.92698669433594,170.591796875,330.56976318359375,-206.19190979003903
3456,148.543212890625,165.64390563964844,322.11383056640625,-201.21783447265625
3457,149.3547821044922,169.76901245117188,313.1268615722656,-198.4727478027344
3458,149.96812438964844,164.4097442626953,323.4676818847656,-194.61691284179688
3459,142.7351531982422,165.87203979492188,321.8296203613281,-192.35427856445312
3460,139.50013732910156,154.93283081054688,312.0123596191406,-198.41665649414062
3461,166.33766174316406,162.8277587890625,307.7750549316406,-194.0147857666016
3462,129.08078002929688,162.8838653564453,311.2569274902344,-195.088134765625
3463,143.93939208984375,162.49118041992188,320.28875732421875,-196.51678466796875
3464,143.23629760742188,160.5015411376953,311.13348388671875,-196.7486572265625
3465,143.0418243408203,165.94309997558594,309.7684326171875,-195.0806579589844
3466,152.80296325683594,167.31190490722656,318.80029296875,-193.46502685546875
3467,157.96401977539062,159.95925903320312,326.0594482421875,-194.60943603515625
3468,145.9552001953125,161.71701049804688,313.6466979980469,-197.3096466064453
3469,156.5914764404297,162.3677520751953,310.6323547363281,-195.74636840820312
3470,160.25283813476562,165.64016723632812,318.3739318847656,-197.3433074951172
3471,153.6818389892578,157.17677307128906,321.4930114746094,-209.9804229736328
3472,147.90744018554688,165.74488830566406,316.2122802734375,-214.7787170410156
3473,162.05174255371094,158.90835571289062,313.1231384277344,-216.6748504638672
3474,161.32244873046875,167.77938842773438,327.884521484375,-218.1558380126953
3475,156.45684814453125,167.2782440185547,335.6260986328125,-211.95135498046875
3476,166.3862762451172,170.0420379638672,331.8188781738281,-207.3101348876953
3477,142.85482788085938,172.22239685058594,321.39202880859375,-195.0582275390625
3478,157.21978759765625,166.92295837402344,333.37469482421875,-188.28152465820312
3479,149.17152404785156,157.4423065185547,328.25848388671875,-194.7627716064453
3480,153.6781005859375,154.36436462402344,321.5865173339844,-198.4764862060547
3481,174.8608856201172,158.15289306640625,317.0574951171875,-193.51364135742188
3482,136.72886657714844,147.86068725585938,318.1495361328125,-195.73887634277344
3483,147.02481079101562,153.9305419921875,323.9239501953125,-191.51654052734372
3484,149.2201385498047,150.9610595703125,310.20599365234375,-196.54296875
3485,157.358154296875,157.38621520996094,313.90850830078125,-191.9541015625
3486,154.9907989501953,158.7512664794922,323.5237731933594,-195.7276611328125
3487,153.77159118652344,159.4394073486328,325.4535827636719,-191.74093627929688
3488,152.89271545410156,160.7595977783203,322.7309265136719,-196.25498962402344
3489,152.3317413330078,160.05276489257812,319.91851806640625,-197.36947631835938
3490,153.9398956298828,161.55245971679688,329.0999755859375,-207.4335479736328
3491,152.2344970703125,157.621826171875,326.8971862792969,-209.0828399658203
3492,149.48193359375,154.95901489257812,312.087158203125,-212.1009521484375
3493,160.26780700683594,159.23745727539062,308.28369140625,-217.55746459960938
3494,165.7093505859375,159.62640380859375,323.295654296875,-215.0966033935547
3495,145.08755493164062,166.3582305908203,333.2886657714844,-204.44537353515625
3496,155.30120849609375,163.71786499023438,328.202392578125,-197.4741973876953
3497,159.11965942382812,167.62979125976562,320.2663269042969,-198.98138427734372
3498,152.89271545410156,168.02249145507812,327.11407470703125,-196.40084838867188
3499,153.7154998779297,162.0648193359375,330.7193603515625,-191.4866180419922
3500,143.7224884033203,156.8626251220703,314.9631652832031,-197.20118713378903
3501,146.9761962890625,161.53750610351562,310.54632568359375,-200.33148193359372
3502,162.35841369628906,168.82656860351562,333.03436279296875,-182.30142211914062
3503,144.65371704101562,164.17413330078125,331.0409851074219,-192.78810119628903
3504,145.0838165283203,157.67791748046875,319.0134582519531,-195.9819793701172
3505,144.84445190429688,160.69601440429688,312.03106689453125,-201.8199615478516
3506,162.1489715576172,164.9894256591797,323.03759765625,-199.95748901367188
3507,153.18069458007812,163.90859985351562,326.46710205078125,-203.5328369140625
3508,139.10371398925778,166.23855590820312,319.38372802734375,-206.13206481933597
3509,150.83203125,167.5026397705078,312.7304382324219,-208.6303253173828
3510,155.95196533203125,167.4989013671875,320.408447265625,-219.11700439453125
3511,155.26380920410156,168.8489990234375,323.2059020996094,-226.35369873046875
