,T7,F8,Cz,P4
2000,150.1943817138672,158.66525268554688,326.75506591796875,-189.43902587890625
2001,158.3398895263672,155.40406799316406,329.63104248046875,-182.7259063720703
2002,150.10836791992188,151.03585815429688,314.0954895019531,-181.51043701171875
2003,149.0499725341797,146.45822143554688,311.2307434082031,-186.09555053710938
2004,160.94659423828125,145.92715454101562,321.6575622558594,-192.5618438720703
2005,142.91653442382812,141.45423889160156,317.54742431640625,-188.41429138183597
2006,143.31297302246094,144.0085906982422,314.2525634765625,-189.4091033935547
2007,152.41961669921875,154.22225952148438,315.0080261230469,-180.8222961425781
2008,156.28294372558594,155.8004913330078,323.2507629394531,-187.8046875
2009,181.9087371826172,151.69407653808594,324.75421142578125,-186.43588256835938
2010,128.75727844238278,151.97457885742188,309.92926025390625,-195.62294006347656
2011,151.56692504882812,154.4840545654297,319.16680908203125,-191.22482299804688
2012,138.3314208984375,144.9772186279297,322.2297668457031,-194.14942932128903
2013,151.7202606201172,151.17050170898438,321.9156188964844,-188.68544006347656
2014,131.31536865234378,150.78529357910156,304.7681884765625,-201.0869445800781
2015,148.01028442382812,157.43109130859375,316.60870361328125,-195.73887634277344
2016,148.13369750976562,163.9048614501953,330.091064453125,-192.79183959960938
2017,158.31370544433594,151.0807342529297,326.2427062988281,-182.58566284179688
2018,132.74026489257812,151.11439514160156,312.2218017578125,-197.27598571777344
2019,160.52772521972656,161.56741333007812,322.5626220703125,-187.23434448242188
2020,144.88372802734375,168.044921875,337.00238037109375,-180.8989562988281
2021,149.135986328125,147.281005859375,329.1897277832031,-187.2418365478516
2022,156.66067504882812,150.92739868164062,317.00140380859375,-182.24159240722656
2023,151.2153778076172,153.57525634765625,317.2220458984375,-181.0747375488281
2024,149.28184509277344,148.4216766357422,321.96051025390625,-186.8827972412109
2025,140.14901733398438,150.1121063232422,325.4685363769531,-183.4383544921875
2026,147.13514709472656,145.3175506591797,314.4507751464844,-184.2873077392578
2027,172.58889770507812,154.8730010986328,320.1167297363281,-184.3995056152344
2028,161.28318786621094,156.08847045898438,325.74530029296875,-189.4446258544922
2029,144.14695739746094,154.03152465820312,320.7113952636719,-196.1951446533203
2030,155.59854125976562,165.9169158935547,322.2821350097656,-181.7890625
2031,141.63375854492188,154.9777069091797,314.3460693359375,-192.22337341308597
2032,159.61892700195312,152.79360961914062,324.68316650390625,-181.5384826660156
2033,143.11474609375,151.4248046875,316.1112976074219,-183.59542846679688
2034,148.68345642089844,153.6276092529297,308.82598876953125,-187.04360961914062
2035,158.6876983642578,151.11439514160156,307.4160461425781,-185.1923675537109
2036,153.50045776367188,146.79855346679688,314.83599853515625,-188.6031494140625
2037,149.07615661621094,150.4150390625,317.5923156738281,-189.34739685058597
2038,158.03321838378906,149.70819091796875,310.8754577636719,-186.56491088867188
2039,160.931640625,156.88131713867188,311.8702697753906,-185.6299285888672
2040,170.3487091064453,152.65524291992188,318.7479248046875,-184.26112365722656
2041,145.38113403320312,148.39923095703125,324.5634765625,-177.48443603515625
2042,154.97396850585938,157.35629272460938,316.66107177734375,-182.34629821777344
2043,145.72894287109375,153.02548217773438,311.94879150390625,-188.2441253662109
2044,153.74354553222656,159.7498321533203,326.16790771484375,-178.8569793701172
2045,158.01077270507812,153.05166625976562,325.06463623046875,-184.0292510986328
2046,163.2503662109375,152.20645141601562,321.3284606933594,-189.9345550537109
2047,151.7763671875,160.21731567382812,319.36126708984375,-185.1250457763672
2048,151.177978515625,158.85598754882812,319.27899169921875,-186.07872009277344
2049,146.2226104736328,152.9619140625,321.8819580078125,-184.48178100585938
2050,155.35543823242188,149.96624755859375,310.8343200683594,-201.8199615478516
2051,147.20994567871094,154.64486694335938,309.24859619140625,-190.24122619628903
2052,150.16819763183594,159.40576171875,318.3702087402344,-182.2378387451172
2053,157.38995361328125,152.9918212890625,317.9251403808594,-192.52256774902344
2054,147.07156372070312,148.2945098876953,308.8297119140625,-190.46188354492188
2055,150.48609924316406,151.82498168945312,305.1421813964844,-185.33822631835938
2056,156.6943359375,156.4213104248047,321.9642333984375,-172.14385986328125
2057,145.21656799316406,146.8060302734375,311.6346435546875,-190.44692993164062
2058,151.76513671875,148.114990234375,309.211181640625,-183.3112030029297
2059,157.33010864257812,151.9035186767578,303.0777587890625,-186.88653564453125
2060,144.61819458007812,142.62857055664062,318.4973449707031,-180.27066040039062
2061,150.91244506835938,145.13803100585938,321.70245361328125,-187.8963165283203
2062,158.35110473632812,148.62362670898438,316.66107177734375,-184.1788482666016
2063,155.60975646972656,153.45932006835938,314.0992431640625,-190.2187957763672
2064,153.90809631347656,146.49188232421875,320.8908996582031,-190.36090087890625
2065,163.01101684570312,148.97891235351562,325.0459289550781,-186.07872009277344
2066,162.5435333251953,158.6876983642578,314.8397521972656,-188.59567260742188
2067,161.2981414794922,143.0736083984375,308.8222351074219,-190.74986267089844
2068,149.6558380126953,154.9552764892578,321.4107360839844,-185.06146240234372
2069,160.1649627685547,150.86383056640625,316.0290222167969,-190.3908233642578
2070,139.28135681152344,147.12017822265625,309.9442138671875,-193.36778259277344
2071,148.66102600097656,145.58682250976562,309.70111083984375,-195.8473358154297
2072,148.44410705566406,145.10438537597656,320.7824401855469,-185.33822631835938
2073,147.17628479003906,150.84512329101562,319.8212890625,-188.3638000488281
2074,155.5536651611328,144.8126678466797,308.9007873535156,-191.10140991210938
2075,155.72943115234375,146.86587524414062,309.4393310546875,-184.9305725097656
2076,150.73292541503906,143.19703674316406,315.51666259765625,-182.34255981445312
2077,145.06698608398438,161.02139282226562,316.77325439453125,-177.6377716064453
2078,154.87673950195312,140.76609802246094,313.31011962890625,-180.5474090576172
2079,161.49261474609375,149.0499725341797,310.3593444824219,-180.14349365234375
2080,164.9557647705078,149.41275024414062,317.9139404296875,-174.81040954589844
2081,157.4049072265625,141.259765625,311.11480712890625,-183.96568298339844
2082,145.7513885498047,155.8790283203125,302.91693115234375,-190.47683715820312
2083,156.4624481201172,157.09823608398438,305.9986267089844,-199.5086975097656
2084,160.497802734375,156.6045684814453,316.2571716308594,-192.6572113037109
2085,153.87069702148438,156.9860382080078,320.3336486816406,-189.90463256835938
2086,159.817138671875,154.19981384277344,306.61944580078125,-198.3343811035156
2087,162.54727172851562,167.95143127441406,313.8374328613281,-191.44174194335938
2088,151.30886840820312,151.78384399414062,319.6866455078125,-183.6403045654297
2089,169.148193359375,161.12237548828125,329.6684265136719,-181.94239807128903
2090,147.38197326660156,152.72628784179688,307.2028503417969,-189.60919189453125
2091,148.05516052246094,153.94175720214844,309.3495788574219,-179.05519104003906
2092,155.54617309570312,147.7073516845703,315.6138916015625,-181.3701934814453
2093,141.78334045410156,147.76718139648438,311.758056640625,-188.89112854003903
2094,146.15528869628906,147.6886444091797,309.4318542480469,-190.03927612304688
2095,166.2647247314453,142.52011108398438,308.59783935546875,-186.64718627929688
2096,142.7706756591797,148.43289184570312,315.1987609863281,-187.3353271484375
2097,162.868896484375,144.14321899414062,319.92974853515625,-187.19320678710938
2098,155.6583709716797,147.11643981933594,306.7241516113281,-191.73719787597656
2099,150.0784454345703,149.62217712402344,304.19598388671875,-190.81716918945312
2100,147.19497680664062,150.1943817138672,309.1064758300781,-195.23399353027344
2101,149.42396545410156,146.61155700683594,316.511474609375,-197.4480133056641
2102,151.177978515625,154.9477996826172,307.1318054199219,-196.71499633789062
2103,168.69192504882812,156.67562866210938,309.4281005859375,-202.2911834716797
2104,147.6063690185547,148.51516723632812,303.799560546875,-208.1890106201172
2105,137.21319580078122,156.8027801513672,312.4798583984375,-197.07028198242188
2106,143.0736083984375,159.68624877929688,313.5120849609375,-186.16847229003903
2107,160.53146362304688,159.24493408203125,310.7969055175781,-189.2838134765625
2108,159.76478576660156,164.05445861816406,324.0062255859375,-183.80487060546875
2109,155.48634338378906,142.71832275390625,317.9476013183594,-189.38853454589844
2110,149.9550323486328,155.8939971923828,307.3935852050781,-190.3422088623047
2111,148.31695556640625,144.16192626953125,306.64935302734375,-193.6407928466797
2112,156.53350830078125,146.56668090820312,313.4784240722656,-179.47406005859375
2113,146.764892578125,149.02752685546875,314.7051086425781,-185.3868408203125
2114,152.2438507080078,139.43843078613278,305.17584228515625,-196.8683319091797
2115,149.4800567626953,146.00942993164062,307.49456787109375,-183.3186798095703
2116,150.80398559570312,147.105224609375,317.2519836425781,-188.67794799804688
2117,146.2562713623047,146.00942993164062,313.7476806640625,-188.1992492675781
2118,151.31634521484375,141.88058471679688,307.7264404296875,-192.10369873046875
2119,159.51046752929688,144.3900604248047,305.23193359375,-195.96327209472656
2120,157.37124633789062,150.08592224121094,308.8185119628906,-195.01333618164062
2121,150.46365356445312,146.1702423095703,309.46923828125,-203.34210205078125
2122,153.87818908691406,151.2976531982422,309.6936340332031,-203.6674652099609
2123,167.37548828125,155.34048461914062,312.8650817871094,-205.5598602294922
2124,156.66815185546875,159.4730682373047,315.7896728515625,-196.97679138183597
2125,147.1014862060547,161.0400848388672,320.3897399902344,-197.6537170410156
2126,155.17593383789062,164.17787170410156,314.304931640625,-198.6597442626953
2127,152.33734130859375,166.777099609375,311.44390869140625,-192.09996032714844
2128,163.91233825683594,159.17762756347656,321.67254638671875,-191.0752258300781
2129,149.8129119873047,146.99676513671875,318.97979736328125,-182.5146026611328
2130,162.6669464111328,147.9093017578125,311.06243896484375,-188.3077087402344
2131,149.65957641601562,145.3773956298828,307.2851257324219,-188.0945281982422
2132,144.46485900878906,145.3175506591797,313.74395751953125,-202.96437072753903
2133,155.46389770507812,145.90846252441406,316.5750427246094,-187.39517211914062
2134,156.095947265625,148.0738525390625,310.43414306640625,-188.1917724609375
2135,154.88047790527344,152.3074188232422,308.4108581542969,-183.0494079589844
2136,163.74029541015625,151.02090454101562,323.0974426269531,-182.211669921875
2137,142.42660522460938,155.23202514648438,326.9383239746094,-180.27813720703125
2138,150.56837463378906,148.2496337890625,308.2088928222656,-191.8082427978516
2139,155.64341735839844,150.85633850097656,308.6539306640625,-187.3016662597656
2140,171.68385314941406,147.6624755859375,320.8348083496094,-195.13302612304688
2141,143.48873901367188,146.9780731201172,312.7603454589844,-197.6424865722656
2142,141.10269165039062,152.34107971191406,304.1361389160156,-203.1887664794922
2143,155.01136779785156,155.60975646972656,305.42266845703125,-207.0894775390625
2144,158.94200134277344,158.15663146972656,312.8127136230469,-201.00840759277344
2145,152.17279052734375,163.67672729492188,317.3043212890625,-201.5245056152344
2146,152.8646697998047,164.17039489746094,314.1740417480469,-189.2538909912109
2147,176.70652770996094,173.32940673828125,323.6846008300781,-177.77987670898438
2148,154.6934814453125,160.35943603515625,319.16680908203125,-184.93431091308597
2149,162.2368621826172,147.92425537109375,320.51690673828125,-180.05374145507812
2150,155.4938201904297,141.09519958496094,311.73187255859375,-187.9224853515625
2151,163.901123046875,147.2772674560547,303.16375732421875,-184.7435760498047
2152,160.68479919433594,142.24710083007812,318.96112060546875,-181.34027099609372
2153,152.6589813232422,139.13175964355472,314.23760986328125,-194.93479919433597
2154,165.7972412109375,146.11041259765625,311.66455078125,-182.9933013916016
2155,177.5517578125,145.0370635986328,311.2830810546875,-180.41651916503903
2156,157.1431121826172,143.31671142578125,316.6685485839844,-192.6310272216797
2157,162.42759704589844,150.78903198242188,322.4055480957031,-190.3048095703125
2158,160.7595977783203,149.24444580078125,313.4971008300781,-191.4155578613281
2159,164.2676239013672,147.6587371826172,309.3345947265625,-198.8616943359375
2160,174.42144775390625,152.75621032714844,321.3995361328125,-196.47938537597656
2161,164.7912139892578,142.79685974121094,314.8434753417969,-201.85736083984372
2162,172.364501953125,149.4314422607422,308.54547119140625,-199.3404083251953
2163,161.002685546875,149.58477783203125,303.48541259765625,-208.6116180419922
2164,162.1433563232422,156.94863891601562,312.3564453125,-198.7345428466797
2165,170.62545776367188,159.4394073486328,317.47637939453125,-195.7725372314453
2166,166.11138916015625,151.57814025878906,307.3113098144531,-205.3205108642578
2167,164.52194213867188,151.0994415283203,306.6269226074219,-197.728515625
2168,162.8427276611328,154.0988311767578,317.7605895996094,-189.0631561279297
2169,169.67552185058594,167.2445831298828,325.6181335449219,-176.12310791015625
2170,157.42735290527344,142.07879638671875,302.3671569824219,-191.92417907714844
2171,160.86431884765625,153.4293975830078,310.9726867675781,-180.45391845703125
2172,165.34097290039062,151.83993530273438,319.4996643066406,-183.81982421875
2173,175.80148315429688,153.73606872558594,319.48095703125,-174.84780883789062
2174,155.66586303710938,152.58792114257812,310.50518798828125,-180.79425048828125
2175,171.94189453125,154.06143188476562,310.7258605957031,-186.81173706054688
2176,161.55245971679688,154.0913543701172,323.8080139160156,-180.8540802001953
2177,163.33639526367188,150.8787841796875,315.7447814941406,-190.19261169433597
2178,153.78468322753906,150.48609924316406,308.7998046875,-191.8793029785156
2179,173.8455047607422,156.0510711669922,309.1700439453125,-194.8600006103516
2180,154.4728240966797,151.4397735595703,319.0882568359375,-190.1664276123047
2181,160.5127716064453,152.75621032714844,318.10467529296875,-189.0220184326172
2182,164.45835876464844,153.3321533203125,305.23193359375,-186.7481689453125
2183,163.5046844482422,152.6178436279297,304.2034606933594,-189.6129302978516
2184,181.16075134277344,150.76284790039062,312.2517395019531,-189.6204071044922
2185,154.34567260742188,145.96829223632812,310.4678039550781,-187.69810485839844
2186,146.8845672607422,155.9351348876953,301.0432434082031,-189.9457855224609
2187,159.11778259277344,157.96963500976562,305.2955017089844,-187.64573669433597
2188,157.281494140625,160.7184600830078,321.9792175292969,-175.1282958984375
2189,159.54039001464844,146.5030975341797,314.5854187011719,-184.85577392578125
2190,156.5634307861328,154.44290161132812,310.1012878417969,-186.7705993652344
2191,165.21755981445312,146.16650390625,308.6315002441406,-189.4969940185547
2192,173.138671875,162.42385864257812,327.5030517578125,-176.2165985107422
2193,174.3092498779297,158.90460205078125,326.7737731933594,-179.20852661132812
2194,164.41348266601562,152.68515014648438,318.4786682128906,-186.3966064453125
2195,165.77854919433594,161.97506713867188,317.1285705566406,-180.70074462890625
2196,150.42251586914062,152.37474060058594,322.5289611816406,-185.11756896972656
2197,160.3369903564453,164.77999877929688,325.7303161621094,-179.85926818847656
2198,167.5363006591797,159.30477905273438,313.6728820800781,-185.0839080810547
2199,162.72679138183594,160.86058044433594,317.89898681640625,-188.51339721679688
2200,156.79904174804688,159.15518188476562,324.08477783203125,-187.60086059570312
2201,157.7901153564453,160.70724487304688,323.0600280761719,-194.53463745117188
2202,152.09425354003906,155.98374938964844,313.1792297363281,-198.2446136474609
2203,156.50733947753906,152.9544219970703,306.4885559082031,-200.19683837890625
2204,163.05215454101562,154.8617706298828,317.2818908691406,-182.9933013916016
2205,166.20489501953125,154.0165557861328,321.3247375488281,-184.3471527099609
2206,151.342529296875,152.5654754638672,307.89849853515625,-190.71620178222656
2207,163.01849365234375,152.63653564453125,312.4985656738281,-190.03553771972656
2208,154.4803009033203,152.84971618652344,324.5859069824219,-189.0444641113281
2209,168.0823211669922,157.0758056640625,326.8074035644531,-183.6590118408203
2210,137.44132995605472,157.4086456298828,303.64996337890625,-192.60858154296875
2211,162.93995666503906,158.14166259765625,307.91717529296875,-180.2295227050781
2212,153.5453338623047,148.0028076171875,314.0693054199219,-185.62619018554688
2213,147.20620727539062,153.1638641357422,313.02587890625,-184.3995056152344
2214,162.24807739257812,151.75018310546875,309.45428466796875,-187.4288330078125
2215,159.53665161132812,154.558837890625,306.83636474609375,-194.2354431152344
2216,163.1306915283203,158.11175537109375,319.234130859375,-185.20358276367188
2217,143.58224487304688,155.2769012451172,318.86761474609375,-187.2829742431641
2218,169.07713317871094,158.09678649902344,311.0287780761719,-190.0018768310547
2219,160.6698455810547,155.86407470703125,306.8700256347656,-195.1442413330078
2220,164.89593505859375,168.31419372558594,321.8445739746094,-184.20877075195312
2221,152.37100219726562,151.7801055908203,317.3641662597656,-192.0850067138672
2222,159.71617126464844,150.2841339111328,303.9005432128906,-197.1114196777344
2223,157.1618194580078,157.30392456054688,307.8797912597656,-200.0248107910156
2224,155.22454833984375,153.2050018310547,314.5405578613281,-189.26885986328125
2225,151.02464294433594,150.17193603515625,311.9001770019531,-194.00357055664062
2226,148.1224822998047,156.7728729248047,306.92236328125,-191.78207397460938
2227,139.37858581542972,151.95960998535156,303.06280517578125,-187.27923583984372
2228,155.2133331298828,160.40805053710938,315.9878845214844,-185.52896118164062
2229,152.77491760253906,162.08352661132812,317.9326477050781,-181.8002777099609
2230,162.68191528320312,151.69407653808594,303.4292907714844,-190.3048095703125
2231,146.589111328125,164.49949645996094,308.44451904296875,-193.397705078125
2232,163.95347595214844,167.4427947998047,321.9418029785156,-186.6023101806641
2233,142.99880981445312,159.12525939941406,315.77471923828125,-187.48492431640625
2234,162.9661407470703,171.43701171875,314.7051086425781,-186.7519073486328
2235,166.23855590820312,162.71556091308594,317.4988098144531,-186.6733703613281
2236,147.98036193847656,169.9073944091797,323.2545166015625,-189.1566619873047
2237,164.6116943359375,159.87698364257812,322.13629150390625,-195.7575836181641
2238,150.56837463378906,167.14735412597656,314.5854187011719,-196.4569396972656
2239,168.77793884277344,165.43447875976562,317.779296875,-191.7558898925781
2240,166.58636474609375,166.4816436767578,324.5036315917969,-185.8730316162109
2241,162.75296020507812,155.7593536376953,320.7038879394531,-188.1356658935547
2242,163.47476196289062,156.15203857421875,313.38116455078125,-198.0725860595703
2243,164.65283203125,160.36317443847656,307.9246520996094,-189.93829345703125
2244,154.94032287597656,161.54124450683594,317.4988098144531,-183.02322387695312
2245,154.7794952392578,156.3465118408203,307.99945068359375,-189.21275329589844
2246,159.63389587402344,157.33010864257812,304.6372985839844,-190.7910003662109
2247,179.4628448486328,158.291259765625,308.201416015625,-187.26052856445312
2248,175.1245574951172,161.7357177734375,321.6164245605469,-177.0730438232422
2249,149.89892578125,149.07989501953125,311.9114074707031,-201.7489013671875
2250,168.127197265625,165.62147521972656,307.4870910644531,-196.02685546875
2251,188.2628173828125,155.1721954345703,304.8953552246094,-200.2304992675781
2252,141.92172241210938,165.39334106445312,311.3541564941406,-194.2317047119141
2253,153.889404296875,151.24154663085938,309.8095703125,-198.9589385986328
2254,151.23406982421875,152.363525390625,297.42303466796875,-204.1611328125
2255,160.68106079101562,159.33843994140625,300.62811279296875,-190.65635681152344
2256,151.27146911621094,157.13189697265625,307.3973388671875,-196.92068481445312
2257,170.3898468017578,157.9060516357422,312.65936279296875,-192.3318328857422
2258,155.3180389404297,154.82437133789062,300.8263244628906,-201.4871063232422
2259,157.47222900390625,164.79869079589844,304.0688171386719,-196.6215057373047
2260,153.31719970703125,159.63389587402344,317.8952331542969,-186.47889709472656
2261,158.10426330566406,155.5536651611328,317.8503723144531,-183.4981842041016
2262,164.76129150390625,157.1206817626953,314.71258544921875,-179.12625122070312
2263,156.96734619140625,154.36436462402344,309.6001281738281,-181.6880798339844
2264,162.7454833984375,161.79554748535156,321.6575622558594,-175.39756774902344
2265,168.28427124023438,159.26364135742188,321.3284606933594,-176.0183868408203
2266,151.18919372558594,150.5010528564453,303.201171875,-186.7107696533203
2267,151.71278381347656,159.25616455078125,303.8743591308594,-186.0226287841797
2268,163.65428161621094,151.99700927734375,309.9105529785156,-183.63282775878903
2269,157.37498474121094,149.23696899414062,312.6893005371094,-182.8437042236328
2270,151.3948974609375,145.56439208984375,299.046142578125,-195.8061981201172
2271,162.29669189453125,155.591064453125,302.2662048339844,-192.60484313964844
2272,168.6844482421875,160.28089904785156,318.8863220214844,-190.8096923828125
2273,171.49685668945312,146.929443359375,308.77362060546875,-199.8041534423828
2274,144.2628936767578,157.9210205078125,296.7498474121094,-200.59327697753903
2275,151.5594482421875,155.22454833984375,298.14483642578125,-195.3087921142578
2276,167.47645568847656,165.60650634765625,314.41339111328125,-180.74188232421875
2277,141.78334045410156,154.02403259277344,302.8907470703125,-188.7789306640625
2278,159.9966583251953,157.7415008544922,295.4857482910156,-188.72657775878903
2279,157.67417907714844,156.95985412597656,299.8614501953125,-191.1986389160156
2280,152.01197814941406,156.12586975097656,307.3973388671875,-184.077880859375
2281,158.971923828125,158.87469482421875,316.7059631347656,-186.273193359375
2282,156.49237060546875,161.50758361816406,311.02130126953125,-184.1788482666016
2283,152.07554626464844,158.9345245361328,306.006103515625,-183.88340759277344
2284,157.6592254638672,161.79180908203125,318.1271057128906,-176.5569305419922
2285,163.02598571777344,162.37149047851562,325.9173278808594,-176.777587890625
2286,160.1537322998047,159.03550720214844,304.7906188964844,-185.87677001953125
2287,160.56138610839844,159.5291748046875,306.0135803222656,-195.24522399902344
2288,162.34532165527344,167.43905639648438,317.8241882324219,-184.1638946533203
2289,159.85079956054688,157.28897094726562,315.3558349609375,-193.4351043701172
2290,152.84971618652344,152.71133422851562,303.5938720703125,-203.84698486328125
2291,157.2403564453125,159.2262420654297,307.1430358886719,-192.2158966064453
2292,164.4845428466797,157.46849060058594,313.7102966308594,-190.28610229492188
2293,172.08775329589844,157.05709838867188,316.44415283203125,-185.28585815429688
2294,175.592041015625,153.7659912109375,301.85479736328125,-197.15257263183597
2295,150.09713745117188,158.87843322753906,304.4278564453125,-200.25294494628903
2296,167.7943572998047,163.83380126953125,316.69097900390625,-187.7953338623047
2297,152.59913635253906,155.16844177246094,310.4864807128906,-191.59507751464844
2298,162.26304626464844,153.35833740234375,306.57830810546875,-195.4434356689453
2299,156.2978973388672,154.1736297607422,302.6551513671875,-191.9279327392578
2300,170.1243133544922,157.33010864257812,320.65155029296875,-187.44378662109372
2301,154.4915313720703,157.43109130859375,318.026123046875,-190.3496856689453
2302,165.0343017578125,154.59999084472656,307.6366882324219,-195.9483184814453
2303,161.70205688476562,150.60203552246094,314.0506286621094,-188.8088531494141
2304,162.24807739257812,150.94236755371094,314.6228332519531,-192.47769165039062
2305,153.1676025390625,148.47776794433594,315.6961669921875,-192.6646881103516
2306,162.96987915039062,154.98146057128906,308.6464538574219,-192.61231994628903
2307,170.69277954101562,160.68479919433594,308.56793212890625,-190.47683715820312
2308,163.31021118164062,159.17013549804688,316.8031921386719,-190.43569946289062
2309,166.87059020996094,160.1200714111328,321.6538391113281,-194.77772521972656
2310,160.580078125,158.7138671875,305.4825134277344,-194.5121917724609
2311,154.87673950195312,158.14166259765625,305.149658203125,-197.0029754638672
2312,159.20753479003906,149.1733856201172,309.07281494140625,-188.0795745849609
2313,151.94091796875,143.85525512695312,307.79376220703125,-198.8729248046875
2314,168.60964965820312,147.54653930664062,302.7710876464844,-197.2872009277344
2315,151.20790100097656,149.63339233398438,299.0124816894531,-203.3944549560547
2316,170.591796875,159.25242614746094,315.6363220214844,-194.3813018798828
2317,150.2392578125,150.83016967773438,311.7618103027344,-203.48422241210938
2318,158.49322509765625,156.64944458007812,301.7500915527344,-203.46551513671875
2319,162.41262817382812,165.53170776367188,305.1534118652344,-191.4080810546875
2320,164.6154327392578,162.34906005859375,323.17596435546875,-188.139404296875
2321,159.22998046875,150.97227478027344,322.7010192871094,-198.90658569335938
2322,147.3184051513672,156.86636352539062,312.0198669433594,-191.5277557373047
2323,157.47222900390625,164.17039489746094,314.2413635253906,-186.6210021972656
2324,152.04563903808594,155.39283752441406,327.1851501464844,-179.52267456054688
2325,155.6247100830078,165.1726837158203,324.9374694824219,-175.54342651367188
2326,153.73233032226562,152.5430450439453,311.5037536621094,-187.6719207763672
2327,159.6937255859375,161.46644592285156,319.0059814453125,-179.1973114013672
2328,170.90968322753906,154.90292358398438,318.0298767089844,-189.7886962890625
2329,154.45787048339844,154.70843505859375,319.9409484863281,-191.3706817626953
2330,172.54776000976562,163.11947631835938,311.5448913574219,-190.9817352294922
2331,189.8373260498047,159.05419921875,319.563232421875,-187.92623901367188
2332,161.53750610351562,144.62193298339844,318.9049987792969,-189.52316284179688
2333,161.15228271484375,142.41539001464844,322.4841003417969,-187.3016662597656
2334,157.65174865722656,147.3221435546875,309.562744140625,-190.41700744628903
2335,174.6121826171875,150.9236602783203,306.7091979980469,-181.0560302734375
2336,147.7447509765625,138.03596496582028,308.1378479003906,-191.89427185058597
2337,160.24349975585938,150.35145568847656,311.15966796875,-189.73634338378903
2338,156.8177490234375,149.67453002929688,302.3447265625,-192.1672821044922
2339,154.70843505859375,145.16795349121094,297.32952880859375,-197.4592437744141
2340,159.54786682128906,151.2565155029297,314.8434753417969,-186.3292999267578
2341,149.16217041015625,149.3155059814453,311.9300842285156,-189.26885986328125
2342,154.65982055664062,147.00424194335938,304.480224609375,-196.5467071533203
2343,141.91050720214844,153.208740234375,306.9111633300781,-190.73863220214844
2344,154.1848602294922,156.22683715820312,310.95025634765625,-191.7484130859375
2345,159.7498321533203,155.08242797851562,317.7044982910156,-191.67735290527344
2346,151.79505920410156,152.65524291992188,298.8927917480469,-197.8556671142578
2347,169.64559936523438,155.920166015625,309.8993225097656,-190.8657989501953
2348,158.807373046875,152.3186492919922,312.42376708984375,-182.8212738037109
2349,153.90061950683594,158.642822265625,307.5506591796875,-189.4034881591797
2350,153.44808959960938,154.07266235351562,298.52630615234375,-190.03927612304688
2351,186.7855682373047,168.7667236328125,319.2640380859375,-183.03070068359372
2352,166.3582305908203,162.3228759765625,321.66131591796875,-189.1416931152344
2353,166.71725463867188,164.20030212402344,319.0508728027344,-184.76976013183597
2354,162.1583251953125,156.02114868164062,303.88555908203125,-194.89739990234372
2355,190.1028594970703,152.7861328125,310.71087646484375,-191.1649932861328
2356,150.68057250976562,154.13623046875,321.0030822753906,-190.8882293701172
2357,159.30104064941406,154.6074676513672,316.9415588378906,-193.6669769287109
2358,174.21949768066406,155.93887329101562,308.21636962890625,-198.33062744140625
2359,162.7006072998047,158.99810791015625,307.8311767578125,-196.5055694580078
2360,163.07460021972656,151.07699584960938,318.4150695800781,-193.0050201416016
2361,162.1209259033203,158.93826293945312,318.6170349121094,-183.3037109375
2362,159.94056701660156,154.80567932128906,309.98907470703125,-189.43341064453125
2363,176.71026611328125,159.83958435058594,316.2160339355469,-183.10923767089844
2364,165.2138214111328,161.02513122558594,323.5088195800781,-188.67794799804688
2365,173.0189971923828,162.38645935058594,320.5131530761719,-182.2191467285156
2366,163.2054901123047,156.8551483154297,306.6979675292969,-198.9776306152344
2367,151.1817169189453,161.64968872070312,304.3642883300781,-196.7935333251953
2368,162.52857971191406,160.68106079101562,320.1429138183594,-194.89366149902344
2369,156.26797485351562,155.91268920898438,313.34002685546875,-189.55682373046875
2370,161.91897583007812,162.78662109375,304.3381042480469,-198.66722106933597
2371,163.20175170898438,164.51446533203125,309.9105529785156,-194.8076477050781
2372,179.85926818847656,166.58262634277344,327.2786560058594,-186.4527130126953
2373,163.0820770263672,163.82632446289062,324.1371154785156,-184.3658447265625
2374,161.38790893554688,164.20404052734375,317.9027099609375,-181.6880798339844
2375,189.8859405517578,155.6696014404297,316.2048034667969,-186.3180694580078
2376,156.52603149414062,156.5970916748047,324.87762451171875,-190.24871826171875
2377,160.14999389648438,150.2766571044922,323.4153137207031,-187.4774475097656
2378,157.8424835205078,154.71592712402344,305.3067321777344,-190.3870849609375
2379,170.99195861816406,147.13140869140625,310.9427490234375,-185.00537109375
2380,152.2363739013672,149.2556610107422,314.5180969238281,-187.4288330078125
2381,160.2135772705078,157.8275146484375,321.1414794921875,-183.42713928222656
2382,139.39729309082028,146.14781188964844,303.6985778808594,-181.11587524414062
2383,158.69891357421875,154.71592712402344,305.8789367675781,-195.57806396484372
2384,152.25880432128906,152.10546875,311.5224609375,-186.2694549560547
2385,140.11161804199222,156.3053741455078,312.3078308105469,-185.8169250488281
2386,158.9270477294922,147.28848266601562,293.0735168457031,-198.0613555908203
2387,142.26953125,158.87095642089844,293.3203430175781,-203.3607940673828
2388,144.6780242919922,157.47970581054688,303.6050720214844,-204.14617919921875
2389,145.18292236328125,157.81256103515625,308.3173522949219,-199.9462738037109
2390,156.67562866210938,160.9279022216797,305.6470642089844,-203.0765686035156
2391,148.99388122558594,158.1715850830078,305.3553466796875,-202.86712646484372
2392,162.8838653564453,167.26702880859375,324.50738525390625,-188.3226623535156
2393,155.59854125976562,165.40081787109375,321.9567565917969,-189.5082092285156
2394,170.15797424316406,154.94406127929688,313.4933776855469,-194.5982208251953
2395,172.2859649658203,156.28294372558594,315.06787109375,-189.29129028320312
2396,144.16566467285156,162.8651580810547,320.00079345703125,-175.18064880371094
2397,153.8332977294922,157.1842498779297,326.4296875,-178.44558715820312
2398,155.1123504638672,145.7064971923828,306.6942443847656,-182.7950897216797
2399,154.66729736328125,148.806884765625,303.376953125,-191.21734619140625
2400,146.11041259765625,152.3186492919922,315.0454406738281,-181.90499877929688
2401,154.33445739746094,145.3773956298828,322.1175842285156,-182.40614318847656
2402,148.09255981445312,145.92715454101562,308.0667724609375,-195.5930328369141
2403,157.0234375,154.07640075683594,314.24884033203125,-193.58843994140625
2404,169.68673706054688,152.38970947265625,319.5408020019531,-195.1853790283203
2405,153.39573669433594,145.5344696044922,308.5492248535156,-203.7572326660156
2406,146.06179809570312,151.7763671875,294.86492919921875,-205.91140747070312
2407,156.5634307861328,153.23866271972656,301.4396667480469,-203.1102294921875
2408,169.93357849121094,149.50997924804688,313.212890625,-193.2294158935547
2409,175.98098754882812,148.50021362304688,318.39263916015625,-188.5732421875
2410,163.32891845703125,147.42311096191406,309.9853515625,-190.3085479736328
2411,154.36810302734375,155.00389099121094,308.9830627441406,-189.6129302978516
2412,159.71055603027344,149.50811767578125,316.73773193359375,-190.5591278076172
2413,160.45480346679688,142.84735107421875,314.0749206542969,-186.9463806152344
2414,169.24356079101562,145.3231658935547,309.63568115234375,-190.01683044433597
2415,157.58628845214844,151.4266815185547,313.89166259765625,-190.5703430175781
2416,170.41041564941406,153.67062377929688,327.3740234375,-178.95046997070312
2417,172.13824462890625,154.2652587890625,325.765869140625,-184.97918701171875
2418,150.33462524414062,154.79632568359375,316.0047302246094,-183.6851806640625
2419,153.78282165527344,157.5788116455078,316.2403259277344,-184.1638946533203
2420,175.4368438720703,157.3170166015625,327.86767578125,-183.2999725341797
2421,149.63153076171875,161.65530395507812,321.0610656738281,-185.05398559570312
2422,152.64962768554688,149.29867553710938,309.0484924316406,-190.8396148681641
2423,168.96681213378906,160.77642822265625,308.19207763671875,-196.48312377929688
2424,138.99151611328122,150.85073852539062,309.826416015625,-197.32460021972656
2425,153.89501953125,156.20252990722656,321.0049743652344,-187.14459228515625
2426,173.7351837158203,158.07247924804688,312.6051330566406,-192.53753662109372
2427,151.5575714111328,163.40557861328125,301.8230285644531,-200.92987060546875
2428,167.21279907226562,157.97525024414062,320.2083740234375,-196.6327209472656
2429,151.95774841308594,156.2249755859375,319.2920837402344,-192.26824951171875
2430,158.7606201171875,158.33053588867188,313.48028564453125,-186.4265289306641
2431,167.97573852539062,149.97186279296875,313.86175537109375,-194.10081481933597
2432,166.13571166992188,158.65589904785156,325.6910705566406,-192.1298828125
2433,153.1993865966797,146.5087127685547,313.4952392578125,-192.19720458984372
2434,161.3074951171875,154.49713134765625,312.7435302734375,-192.15606689453125
2435,150.53659057617188,147.54466247558594,309.8114318847656,-186.1946563720703
2436,165.5074005126953,155.90333557128906,322.4560546875,-176.777587890625
2437,168.5142822265625,154.6504669189453,333.23443603515625,-178.59144592285156
2438,161.06814575195312,161.4458770751953,318.6675109863281,-183.8160858154297
2439,160.85496520996094,163.34573364257812,320.64593505859375,-185.68603515625
2440,151.8492889404297,167.42222595214844,321.4462585449219,-185.9702606201172
2441,175.02919006347656,158.87281799316406,325.4778747558594,-189.3212127685547
2442,152.11856079101562,163.8506317138672,309.41876220703125,-192.52630615234372
2443,146.6732635498047,154.57566833496094,308.55108642578125,-198.24087524414062
2444,175.91180419921875,157.9528045654297,326.3754577636719,-186.80799865722656
2445,155.49569702148438,155.1179656982422,314.8603210449219,-194.6318664550781
2446,154.11566162109375,156.08285522460938,308.7306213378906,-194.94602966308597
2447,146.98367309570312,160.60813903808594,306.1351318359375,-189.2538909912109
2448,153.76785278320312,157.9602813720703,316.96588134765625,-185.33822631835938
2449,152.04376220703125,149.98681640625,312.1002502441406,-191.1874237060547
2450,152.14100646972656,150.4131622314453,302.78790283203125,-197.77713012695312
2451,157.66482543945312,152.21205139160156,311.7449645996094,-191.17247009277344
2452,174.01193237304688,150.99659729003906,316.8387145996094,-194.7627716064453
2453,153.44622802734375,152.28684997558594,316.4572448730469,-186.7855682373047
2454,145.9589385986328,147.40628051757812,304.4259948730469,-193.30047607421875
2455,173.308837890625,154.6205596923828,314.3329772949219,-189.7625274658203
2456,147.017333984375,156.01927185058594,317.3585510253906,-192.49264526367188
2457,148.67037963867188,160.60440063476562,322.0259704589844,-181.6432037353516
2458,167.710205078125,158.4576873779297,315.1781921386719,-185.5476531982422
2459,153.99224853515625,160.9222869873047,310.6828308105469,-196.9618377685547
2460,151.8941650390625,168.83216857910156,321.9623718261719,-193.63331604003903
2461,145.68966674804688,162.38084411621094,318.93304443359375,-190.57408142089844
2462,148.99574279785156,157.8293914794922,306.6100769042969,-203.21868896484372
2463,157.89671325683594,167.09312438964844,313.48028564453125,-206.35272216796875
2464,168.77981567382812,161.442138671875,334.74908447265625,-195.39480590820312
2465,189.30812072753903,168.20387268066406,335.8860168457031,-190.23374938964844
2466,154.37745666503906,155.37600708007812,315.5035705566406,-202.2163848876953
2467,161.20277404785156,159.4861602783203,321.0423583984375,-193.8352813720703
2468,154.0969696044922,152.94882202148438,326.20343017578125,-187.3315887451172
2469,161.25888061523438,150.51788330078125,323.7425842285156,-178.14639282226562
2470,152.38035583496094,143.14654541015625,317.9195556640625,-171.23880004882812
2471,159.08226013183594,142.04701232910156,317.9083251953125,-173.8455047607422
2472,156.24740600585938,143.52801513671875,324.2773742675781,-168.74053955078125
2473,146.512451171875,139.82176208496094,317.26507568359375,-178.46803283691406
2474,160.9634246826172,142.98947143554688,307.0813293457031,-183.87217712402344
2475,145.00152587890625,160.35382080078125,311.8085632324219,-177.5928955078125
2476,147.71295166015625,141.82261657714844,308.8465576171875,-186.93890380859372
2477,156.07164001464844,144.5677032470703,308.8166198730469,-188.00851440429688
2478,146.4563446044922,138.71475219726562,293.453125,-206.38638305664062
2479,178.78030395507812,155.1254425048828,301.1835021972656,-197.2872009277344
2480,154.15306091308594,156.1763458251953,306.9765930175781,-196.42327880859372
2481,156.23245239257812,159.83396911621094,311.9356994628906,-206.85760498046875
2482,157.7471160888672,162.16392517089844,302.4251403808594,-211.79052734375
2483,174.04933166503906,157.10011291503906,312.2909851074219,-200.7802734375
2484,164.34429931640625,160.17430114746094,323.91461181640625,-194.01104736328125
2485,158.07247924804688,158.10987854003906,328.6605529785156,-197.1263885498047
2486,159.91250610351562,152.3616485595703,315.1146240234375,-191.6848297119141
2487,153.4237823486328,150.51040649414062,310.9483642578125,-190.6900177001953
2488,159.67315673828125,156.2548828125,323.970703125,-172.17002868652344
2489,157.68353271484375,153.14329528808594,322.4635314941406,-176.9384002685547
2490,150.48048400878906,145.3231658935547,309.1719055175781,-183.6066436767578
2491,160.0022735595703,147.46238708496094,308.1359558105469,-179.7470703125
2492,148.86859130859375,153.82022094726562,321.60333251953125,-178.90185546875
2493,158.2557373046875,148.16921997070312,319.2509460449219,-181.55718994140625
2494,159.3627471923828,134.70184326171878,304.556884765625,-187.55972290039062
2495,161.50196838378906,144.75469970703125,299.3883361816406,-187.8140411376953
2496,164.5724334716797,139.96388244628906,305.6302490234375,-196.8945159912109
2497,146.28431701660156,145.4465789794922,305.484375,-194.95724487304688
2498,154.76266479492188,143.26995849609375,296.1159362792969,-204.74082946777344
2499,166.0459442138672,151.90164184570312,306.23236083984375,-198.75698852539062
2500,178.9523468017578,164.06005859375,321.66693115234375,-194.82260131835938
2501,149.61656188964844,149.24258422851562,315.7017822265625,-202.24256896972656
2502,160.90731811523438,154.59063720703125,306.99530029296875,-208.1703186035156
2503,165.41390991210938,157.22726440429688,312.4667663574219,-201.93589782714844
2504,164.9576416015625,162.6538543701172,323.5780029296875,-196.2624664306641
2505,169.3632354736328,162.3172607421875,325.9416198730469,-188.6106414794922
2506,158.0911865234375,157.39181518554688,313.020263671875,-183.7637176513672
2507,166.25538635253906,160.53707885742188,313.5812683105469,-185.43919372558597
2508,144.1002197265625,159.482421875,323.18157958984375,-183.7151031494141
2509,147.0958709716797,154.2802276611328,315.7503967285156,-185.7608337402344
2510,153.36021423339844,149.5679473876953,304.62420654296875,-184.60894775390625
2511,156.32594299316406,155.89959716796875,308.5286560058594,-175.49855041503906
2512,149.0555877685547,137.1402587890625,306.5166015625,-185.8805084228516
2513,154.08575439453125,143.7224884033203,314.8752746582031,-182.47720336914062
2514,167.75881958007812,135.326416015625,302.9075927734375,-192.0438690185547
2515,148.18792724609375,138.58012390136722,298.1990661621094,-188.56948852539062
2516,158.5511932373047,145.59243774414062,311.47943115234375,-190.9892120361328
2517,143.59158325195312,144.1002197265625,309.0111083984375,-191.4155578613281
2518,158.7568817138672,142.46961975097656,297.4622802734375,-195.72018432617188
2519,161.23269653320312,150.86569213867188,299.4294738769531,-195.83612060546875
2520,159.75917053222656,149.08175659179688,314.5087585449219,-193.32290649414062
2521,162.22750854492188,153.90997314453125,311.670166015625,-191.34075927734372
2522,145.71585083007812,160.43609619140625,303.5957336425781,-203.21868896484372
2523,153.27792358398438,157.9976806640625,304.5344543457031,-200.1781463623047
2524,160.94847106933594,168.52549743652344,322.4635314941406,-190.31976318359372
2525,156.52041625976562,165.21194458007812,326.3230895996094,-189.74755859375
2526,158.8054962158203,160.7240753173828,318.40948486328125,-191.93540954589844
2527,156.57652282714844,165.02120971679688,325.23480224609375,-190.07293701171875
2528,150.30470275878906,158.39785766601562,324.95428466796875,-181.7890625
2529,149.4781951904297,166.63685607910156,329.3935546875,-173.7669677734375
2530,147.56710815429688,168.0542755126953,320.0438232421875,-179.39178466796875
2531,152.1484832763672,151.7744903564453,314.03753662109375,-189.7700042724609
2532,151.11253356933594,159.02989196777344,326.2221374511719,-182.0770263671875
2533,152.36538696289062,156.74481201171875,322.8861389160156,-189.7550506591797
2534,147.24920654296875,163.91046142578125,311.57666015625,-198.74575805664062
2535,163.2933807373047,152.4888153076172,311.8796081542969,-194.4112243652344
2536,162.34718322753906,156.5092010498047,317.70635986328125,-191.38189697265625
2537,151.9801788330078,153.461181640625,315.4512023925781,-200.9897003173828
2538,160.8026123046875,155.6228485107422,304.4671325683594,-197.84071350097656
2539,147.09213256835938,154.29518127441406,303.7191467285156,-199.87521362304688
2540,154.9421844482422,158.03134155273438,318.31597900390625,-197.7247772216797
2541,157.04774475097656,155.4994354248047,316.259033203125,-198.16607666015625
2542,160.3426055908203,149.85592651367188,304.28387451171875,-201.4945831298828
2543,153.22183227539062,152.780517578125,308.0350036621094,-197.4143524169922
2544,169.8232421875,156.7335968017578,321.2106628417969,-193.1807861328125
2545,156.64010620117188,150.6712188720703,313.9814453125,-196.625244140625
2546,149.45948791503906,144.4442901611328,303.7303771972656,-198.45779418945312
2547,158.3006134033203,152.9001922607422,311.54302978515625,-184.54910278320312
2548,173.2115936279297,155.9220428466797,327.3702697753906,-179.91162109375
2549,154.13063049316406,159.38143920898438,323.9071350097656,-183.9394989013672
2550,153.22557067871094,149.25753784179688,316.46099853515625,-190.9443359375
2551,173.84738159179688,164.11990356445312,322.22418212890625,-187.48118591308597
2552,152.7393798828125,156.00057983398438,315.226806640625,-190.42822265625
2553,155.49569702148438,156.7335968017578,325.3843994140625,-179.1860809326172
2554,156.81961059570312,159.87136840820312,312.07781982421875,-184.8707275390625
2555,160.1219482421875,158.48387145996094,311.1578063964844,-189.89715576171875
2556,156.53538513183594,152.15969848632812,321.0461120605469,-182.74647521972656
2557,157.62368774414062,151.31822204589844,314.6022644042969,-182.8362274169922
2558,151.4266815185547,149.7811279296875,305.9481201171875,-189.35487365722656
2559,154.17550659179688,147.6605987548828,304.6915283203125,-191.75962829589844
2560,146.9799346923828,150.21868896484375,314.7630615234375,-185.4691162109375
2561,177.59475708007812,153.67062377929688,323.383544921875,-194.86749267578125
2562,126.26463317871094,146.15342712402344,303.78271484375,-202.10044860839844
2563,155.49569702148438,153.5023193359375,310.6155090332031,-190.46188354492188
2564,170.5076446533203,153.73793029785156,320.22705078125,-191.6287384033203
2565,153.05728149414062,150.65252685546875,314.8789978027344,-191.96157836914062
2566,155.46951293945312,148.94712829589844,306.7858581542969,-190.5030212402344
2567,163.75338745117188,155.56300354003906,303.98468017578125,-191.04530334472656
2568,149.48941040039062,155.51812744140625,313.7532958984375,-186.4302673339844
2569,161.79368591308594,162.29483032226562,325.4516906738281,-176.24652099609375
2570,155.667724609375,154.2278594970703,308.9998779296875,-181.92742919921875
2571,156.33343505859375,163.3419952392578,308.2593688964844,-180.62594604492188
2572,157.07766723632812,157.9191436767578,312.5565185546875,-185.39431762695312
2573,155.7986297607422,151.69969177246094,316.7414855957031,-195.3200225830078
2574,151.2172393798828,155.92578125,303.4199523925781,-199.34788513183597
2575,144.99778747558594,163.0128936767578,305.2749328613281,-190.31602478027344
2576,163.91793823242188,153.43875122070312,316.7826232910156,-192.9002990722656
2577,154.21290588378906,149.66519165039062,315.08843994140625,-191.9316711425781
2578,163.67111206054688,153.5920867919922,312.93798828125,-188.6330718994141
2579,161.7338409423828,160.63804626464844,314.88275146484375,-188.54705810546875
2580,154.7776336669922,149.2612762451172,319.3406982421875,-195.4172515869141
2581,174.5729217529297,151.65855407714844,319.5052490234375,-193.6183624267578
2582,152.76556396484375,144.75096130371094,302.7841796875,-202.8222503662109
2583,190.5909118652344,154.00721740722656,314.88275146484375,-200.08090209960938
2584,151.4678192138672,154.35128784179688,315.7765808105469,-195.2414703369141
2585,160.51089477539062,152.55987548828125,319.87176513671875,-196.25498962402344
2586,166.62188720703125,154.5607147216797,313.4989929199219,-191.2435302734375
2587,170.78065490722656,153.10215759277344,315.1894226074219,-188.62185668945312
2588,163.96282958984375,155.40966796875,324.21380615234375,-183.9881134033203
2589,180.56797790527344,157.76580810546875,329.4234924316406,-182.0919952392578
2590,145.63731384277344,145.7046356201172,303.8388366699219,-197.4667205810547
2591,158.0537872314453,159.6993408203125,316.47967529296875,-191.79702758789062
2592,160.585693359375,162.56036376953125,320.0924377441406,-199.73309326171875
2593,169.916748046875,154.70657348632812,323.2376708984375,-193.03868103027344
2594,154.85243225097656,148.62548828125,308.02001953125,-201.0794677734375
2595,165.55601501464844,167.6690673828125,318.57403564453125,-193.50616455078125
2596,148.74142456054688,153.9623260498047,328.2117614746094,-195.263916015625
2597,175.1376495361328,158.1734619140625,326.02764892578125,-189.8335876464844
2598,156.8495330810547,154.89730834960938,312.37701416015625,-193.0947723388672
2599,150.9704132080078,163.79452514648438,314.0898742675781,-197.09646606445312
2600,162.968017578125,165.4587860107422,322.4223937988281,-203.54031372070312
2601,156.50172424316406,163.40931701660156,317.0182189941406,-207.48216247558597
2602,164.47518920898438,161.8684844970703,317.5605163574219,-201.6853179931641
2603,168.83590698242188,166.19180297851562,319.1387634277344,-197.294677734375
2604,166.1431884765625,161.36734008789062,324.8645324707031,-195.5668487548828
2605,152.9600372314453,153.461181640625,330.2799072265625,-195.97076416015625
2606,166.30026245117188,157.3132781982422,326.5101013183594,-181.90499877929688
2607,178.84388732910156,154.67291259765625,324.1801452636719,-182.26402282714844
2608,159.07102966308594,154.25030517578125,327.3852233886719,-179.6273956298828
2609,168.2674560546875,154.2203826904297,329.29632568359375,-189.7138977050781
2610,143.03060913085938,154.08200073242188,313.3531188964844,-203.2111968994141
2611,176.41668701171875,159.54974365234375,317.34735107421875,-200.5259552001953
2612,161.08309936523438,150.86569213867188,320.94512939453125,-201.4721527099609
2613,167.85418701171875,156.02862548828125,322.5850830078125,-199.4488677978516
2614,151.4771728515625,158.99063110351562,306.73162841796875,-208.8173065185547
2615,171.6539306640625,169.39877319335938,319.0957336425781,-208.3311309814453
2616,190.44692993164062,156.85888671875,330.47625732421875,-201.3599548339844
2617,148.49647521972656,162.34906005859375,319.27899169921875,-203.55902099609372
2618,178.23614501953125,166.8182373046875,317.47637939453125,-206.56588745117188
2619,176.4409942626953,168.9425048828125,316.0140686035156,-207.6953430175781
2620,177.69760131835938,159.40576171875,332.708984375,-195.7276611328125
2621,162.8240203857422,159.817138671875,325.6143798828125,-195.8286437988281
2622,165.96554565429688,157.84996032714844,320.9170837402344,-188.24038696289062
2623,167.0800323486328,163.74777221679688,324.4512939453125,-184.35836791992188
2624,164.5742950439453,160.08641052246094,321.3770751953125,-184.8595123291016
2625,176.23904418945312,150.89373779296875,317.9887390136719,-189.160400390625
2626,157.51336669921875,150.77780151367188,311.7804870605469,-191.39312744140625
2627,176.8972625732422,159.4917755126953,317.3903503417969,-188.6929168701172
2628,151.48838806152344,154.4840545654297,313.6018371582031,-187.4213409423828
2629,156.6943359375,141.57765197753906,316.3656311035156,-192.3804473876953
2630,168.45631408691406,151.77261352539062,311.89642333984375,-188.6629943847656
2631,165.8832550048828,155.92764282226562,309.78338623046875,-189.2389373779297
2632,163.31394958496094,153.37704467773438,324.8589172363281,-191.5763702392578
2633,160.05650329589844,151.0395965576172,323.4228210449219,-193.45005798339844
2634,164.54437255859375,153.93801879882812,312.5920715332031,-194.13072204589844
2635,142.91653442382812,156.91871643066406,307.21783447265625,-197.3433074951172
2636,151.86611938476562,155.86781311035156,322.7720642089844,-192.0289001464844
2637,155.09739685058594,159.94056701660156,324.1184387207031,-197.40313720703125
2638,166.49285888671875,154.72340393066406,320.3037414550781,-192.27574157714844
2639,161.002685546875,168.83030700683594,318.0672607421875,-193.4351043701172
2640,171.51181030273438,170.05699157714844,330.66326904296875,-179.59373474121094
2641,162.46499633789062,159.8582763671875,325.0496520996094,-191.43800354003903
2642,154.45787048339844,158.14915466308594,315.00054931640625,-193.30047607421875
2643,160.80447387695312,157.25157165527344,311.5187072753906,-188.6592559814453
2644,160.18365478515625,152.98434448242188,315.5316162109375,-192.8404541015625
2645,160.73716735839844,156.1408233642578,317.4726257324219,-185.5626220703125
2646,157.38247680664062,158.07809448242188,307.62921142578125,-192.8816070556641
2647,165.23626708984375,149.1920928955078,308.36224365234375,-188.76022338867188
2648,158.39224243164062,149.20704650878906,316.9565124511719,-194.4224395751953
2649,159.08412170410156,147.63629150390625,315.7709655761719,-194.00357055664062
2650,174.87771606445312,153.1302032470703,310.6323547363281,-197.8481903076172
2651,167.4615020751953,149.8727569580078,304.3455810546875,-203.97789001464844
2652,177.06930541992188,155.3741455078125,317.5960388183594,-201.65914916992188
2653,163.5645294189453,152.92825317382812,321.2574157714844,-200.54466247558597
2654,182.8437042236328,154.8131561279297,309.5851745605469,-201.3038482666016
2655,154.8954315185547,161.83294677734375,319.4398193359375,-202.5455017089844
2656,162.9998016357422,160.1200714111328,326.12677001953125,-194.81886291503903
2657,165.8907470703125,164.230224609375,325.40496826171875,-204.8006591796875
2658,176.24652099609375,157.4984130859375,320.54681396484375,-203.71609497070312
2659,183.91705322265625,161.6870880126953,326.0108337402344,-193.1022491455078
2660,178.54656982421875,157.3675079345703,332.9894714355469,-185.23724365234372
2661,181.4150695800781,152.5729522705078,338.1243591308594,-178.63258361816406
2662,158.69143676757812,148.85549926757812,320.9544677734375,-186.0861968994141
2663,181.6244964599609,150.04478454589844,317.5848388671875,-188.6816864013672
2664,151.8436737060547,147.41563415527344,319.4211120605469,-185.32325744628903
2665,161.88905334472656,157.46475219726562,324.4624938964844,-184.7099151611328
2666,164.29754638671875,158.2650909423828,317.61474609375,-193.5323486328125
2667,164.1442108154297,143.877685546875,311.44390869140625,-198.57373046875
2668,170.15423583984375,151.5444793701172,325.20672607421875,-189.63536071777344
2669,164.5294189453125,156.4213104248047,320.4794921875,-191.55393981933597
2670,163.37005615234375,151.07325744628906,308.5006103515625,-193.94747924804688
2671,174.33543395996094,162.1171875,309.37200927734375,-187.82151794433597
2672,181.07847595214844,160.39683532714844,318.7479248046875,-191.64743041992188
2673,161.6908416748047,155.5760955810547,319.6679382324219,-200.9822235107422
2674,154.910400390625,151.33131408691406,303.39190673828125,-209.28106689453125
2675,166.33204650878906,163.11573791503906,313.9047546386719,-206.19190979003903
2676,175.95481872558594,166.4741668701172,326.7737731933594,-201.8349151611328
2677,171.190185546875,169.71665954589844,335.8617248535156,-192.40289306640625
2678,176.1455535888672,170.27391052246094,327.0766906738281,-188.8986053466797
2679,164.0207977294922,172.05035400390625,324.3951721191406,-185.2185516357422
2680,169.11827087402344,167.05758666992188,339.75494384765625,-175.86878967285156
2681,157.0196990966797,156.52976989746094,325.9771728515625,-182.61557006835938
2682,158.22769165039062,153.27232360839844,314.151611328125,-187.892578125
2683,166.6910858154297,157.0384063720703,319.98583984375,-180.3267517089844
2684,179.72088623046875,152.2775115966797,326.3960266113281,-189.9196014404297
2685,141.7235107421875,152.88711547851562,315.5316162109375,-184.5453643798828
2686,154.8206329345703,150.6356964111328,310.4977111816406,-200.21554565429688
2687,163.95347595214844,151.26025390625,313.20166015625,-196.6514129638672
2688,170.4197540283203,155.48260498046875,315.759765625,-203.46177673339844
2689,163.48599243164062,153.9679412841797,315.6213684082031,-205.15594482421875
2690,152.81979370117188,152.71133422851562,302.48309326171875,-198.45779418945312
2691,192.3842010498047,158.05938720703125,314.985595703125,-204.4229278564453
2692,158.05191040039062,159.63763427734375,320.4608154296875,-202.2724914550781
2693,163.19801330566406,159.00184631347656,325.9547119140625,-196.2325439453125
2694,159.48056030273438,152.27377319335938,309.8133239746094,-200.3651428222656
2695,188.5395812988281,157.0758056640625,319.4285888671875,-188.90234375
2696,150.44869995117188,156.2230987548828,325.93975830078125,-185.2559509277344
2697,165.10162353515625,163.1306915283203,334.54901123046875,-182.0284118652344
2698,168.70689392089844,164.48828125,325.2254333496094,-184.25738525390625
2699,167.52508544921875,164.01705932617188,332.7613525390625,-178.10525512695312
2700,169.59698486328125,159.22998046875,336.5423889160156,-181.38514709472656
2701,171.1527862548828,157.92849731445312,332.24896240234375,-191.4940948486328
2702,163.2877655029297,160.0901641845703,318.048583984375,-190.3833465576172
2703,152.12417602539062,151.76513671875,310.8343200683594,-194.7141571044922
2704,161.54498291015625,159.84332275390625,320.93951416015625,-187.35028076171875
2705,159.3085174560547,150.8339080810547,318.14581298828125,-192.9788360595703
2706,157.38995361328125,140.01063537597656,308.8334655761719,-199.6358642578125
2707,161.12611389160156,152.35231018066406,308.1116638183594,-193.7754364013672
2708,152.63653564453125,153.3284149169922,312.3227844238281,-195.3050537109375
2709,157.18051147460938,146.7200164794922,310.9614562988281,-193.7305603027344
2710,160.56886291503906,150.4935760498047,308.08172607421875,-204.38926696777344
2711,173.8642120361328,155.14227294921875,311.32421875,-191.72222900390625
2712,158.7213592529297,154.0988311767578,314.1777648925781,-191.55393981933597
2713,167.00523376464844,148.20101928710938,320.0456848144531,-196.98426818847656
2714,174.9637451171875,148.15988159179688,311.17462158203125,-193.64454650878903
2715,157.7901153564453,157.1618194580078,316.48529052734375,-188.55079650878903
2716,163.6318359375,154.07640075683594,321.4219665527344,-197.09646606445312
2717,169.55584716796875,157.29644775390625,331.100830078125,-185.7159576416016
2718,161.91897583007812,154.84307861328125,315.7410583496094,-186.25823974609372
2719,155.67333984375,152.55799865722656,312.9922180175781,-183.42340087890625
2720,160.21731567382812,153.6276092529297,324.7168273925781,-180.19212341308597
2721,147.88311767578125,153.78842163085938,320.0195007324219,-189.6839904785156
2722,155.6284637451172,151.7801055908203,308.65020751953125,-188.0683441162109
2723,162.09100341796875,163.0858154296875,315.3745422363281,-190.71994018554688
2724,152.55799865722656,161.88905334472656,323.0563049316406,-192.810546875
2725,149.45762634277344,158.1678466796875,319.9259948730469,-198.22592163085938
2726,159.86203002929688,164.63787841796875,313.8935546875,-194.7852020263672
2727,163.40370178222656,147.0192108154297,306.23797607421875,-199.98367309570312
2728,158.57550048828125,158.86346435546875,317.0462646484375,-197.728515625
2729,150.9984588623047,150.63943481445312,312.53594970703125,-208.3348693847656
2730,176.93092346191406,154.0128173828125,307.943359375,-199.5199279785156
2731,168.81907653808594,152.9993133544922,312.2292785644531,-194.10081481933597
2732,167.1959686279297,156.776611328125,324.2007141113281,-184.55657958984372
2733,164.98194885253906,156.941162109375,324.3503112792969,-192.7656707763672
2734,168.47500610351562,160.25845336914062,319.2303771972656,-191.6997985839844
2735,176.94215393066406,157.42361450195312,325.5209045410156,-196.0679931640625
2736,161.9002685546875,166.75465393066406,326.2763671875,-195.15545654296875
2737,164.50323486328125,163.27281188964844,323.47515869140625,-203.8918609619141
2738,167.14361572265625,150.10836791992188,316.4067687988281,-197.54525756835938
2739,166.34327697753906,153.52662658691406,313.6691589355469,-191.10140991210938
2740,165.5504150390625,151.7801055908203,321.5416259765625,-192.34304809570312
2741,153.291015625,148.3057403564453,315.2212219238281,-191.4791412353516
2742,160.8531036376953,155.72943115234375,314.1067199707031,-189.8448028564453
2743,165.78228759765625,151.02464294433594,312.55841064453125,-196.9468688964844
2744,172.00921630859375,164.97073364257812,321.5752868652344,-193.54730224609372
2745,162.2443389892578,153.35086059570312,321.0404968261719,-192.2196350097656
2746,162.8240203857422,158.9270477294922,313.9047546386719,-193.30047607421875
2747,168.9799041748047,155.82293701171875,313.63922119140625,-194.61691284179688
2748,179.17112731933594,160.14625549316406,329.5263366699219,-184.99415588378903
2749,180.24073791503903,156.5222930908203,329.3954162597656,-185.2709045410156
2750,174.32421875,154.4765625,315.7821960449219,-182.72776794433597
2751,173.58746337890625,154.0090789794922,316.71343994140625,-180.6409149169922
2752,176.1530303955078,151.3013916015625,325.6368408203125,-193.83901977539062
2753,172.2373504638672,148.4254150390625,321.2873229980469,-201.03831481933597
2754,166.56765747070312,154.02403259277344,324.90380859375,-193.0648498535156
2755,189.81114196777344,161.48887634277344,330.4126892089844,-197.87435913085938
2756,152.75994873046875,156.2156219482422,324.492431640625,-192.9863128662109
2757,169.67552185058594,170.56187438964844,330.584716796875,-189.59048461914062
2758,164.50323486328125,157.27027893066406,315.68121337890625,-203.8694305419922
2759,167.05010986328125,150.24673461914062,310.6734924316406,-199.65081787109372
2760,171.5679168701172,153.99786376953125,313.9122314453125,-199.10479736328125
2761,177.87338256835938,154.4354248046875,316.3656311035156,-195.9857177734375
2762,162.4088897705078,152.58792114257812,302.1839294433594,-200.3614044189453
2763,166.91172790527344,157.59938049316406,306.15570068359375,-190.6675720214844
2764,170.43472290039062,151.6379852294922,317.6932678222656,-197.36573791503903
2765,157.446044921875,150.25796508789062,316.39178466796875,-182.7614288330078
2766,178.56900024414062,146.45448303222656,308.201416015625,-188.2740478515625
2767,157.5358123779297,152.03440856933594,315.1838073730469,-192.7619171142578
2768,172.94793701171875,157.7078399658203,322.3868408203125,-190.71620178222656
2769,171.178955078125,154.97023010253906,326.358642578125,-190.850830078125
2770,163.48973083496094,149.46136474609375,310.7183532714844,-202.69509887695312
2771,167.0650634765625,151.03585815429688,310.2658386230469,-205.0138397216797
2772,163.0484161376953,153.65005493164062,321.65008544921875,-200.58953857421875
2773,176.272705078125,159.8956756591797,316.29083251953125,-195.9258728027344
2774,147.89808654785156,150.09713745117188,307.5431823730469,-204.06390380859372
2775,171.530517578125,160.59878540039062,314.304931640625,-200.55213928222656
2776,167.0762939453125,157.09449768066406,319.78387451171875,-203.8619537353516
2777,165.22129821777344,150.17568969726562,320.8721923828125,-200.78775024414062
2778,169.6680450439453,145.89723205566406,304.9140319824219,-204.6735076904297
2779,162.55101013183594,155.42649841308594,313.19793701171875,-184.2386932373047
2780,168.2468719482422,153.64256286621094,316.6236572265625,-192.64971923828125
2781,161.683349609375,151.02464294433594,316.2309875488281,-198.2520904541016
2782,160.0901641845703,155.1123504638672,306.9298400878906,-195.97450256347656
2783,170.76382446289062,151.32009887695312,309.2411193847656,-188.10574340820312
2784,162.72679138183594,154.60372924804688,319.3912048339844,-185.84310913085938
2785,155.8790283203125,148.50021362304688,311.5972595214844,-193.37901306152344
2786,167.20718383789062,152.26254272460938,308.1827087402344,-185.6299285888672
2787,163.44859313964844,145.8748016357422,302.1053771972656,-195.0619659423828
2788,164.29006958007812,149.9026641845703,307.5394592285156,-191.7932891845703
2789,161.6534423828125,150.00364685058594,312.89874267578125,-189.9345550537109
2790,152.04188537597656,147.54278564453125,292.0525207519531,-202.2201232910156
2791,164.0619354248047,155.56114196777344,302.6439208984375,-195.0582275390625
2792,166.64620971679688,148.7993927001953,308.2051696777344,-200.11456298828125
2793,163.87867736816406,165.35968017578125,308.8484191894531,-197.57891845703125
2794,151.95213317871094,157.33384704589844,304.2595520019531,-206.2330474853516
2795,169.69796752929688,155.4938201904297,308.9419250488281,-199.0337371826172
2796,156.28294372558594,161.3392791748047,319.5146179199219,-184.85577392578125
2797,169.3277130126953,154.9964141845703,319.8138122558594,-179.09632873535156
2798,157.8723907470703,149.1920928955078,304.2445983886719,-188.53208923339844
2799,162.1134490966797,155.73316955566406,311.5635986328125,-177.30491638183594
2800,167.06881713867188,149.8615264892578,317.0649719238281,-180.5960235595703
2801,155.36293029785156,139.90591430664062,308.7698669433594,-184.49301147460938
2802,163.93850708007812,141.7646484375,303.9192199707031,-185.57383728027344
2803,165.2474822998047,154.07266235351562,307.70025634765625,-180.6072540283203
2804,171.83718872070312,147.6624755859375,319.16680908203125,-176.76263427734375
2805,154.78697204589844,148.31321716308594,313.8860778808594,-189.0257568359375
2806,180.76806640625,154.5326690673828,305.6582946777344,-197.3133850097656
2807,161.0999298095703,149.5174560546875,305.149658203125,-197.3993988037109
2808,168.4263916015625,152.41587829589844,319.8212890625,-193.5024261474609
2809,156.57090759277344,144.5172119140625,311.4700927734375,-206.87255859375
2810,161.66465759277344,152.5804443359375,300.4598083496094,-200.96353149414062
2811,175.39756774902344,165.76358032226562,312.85009765625,-189.6241455078125
2812,174.6121826171875,165.77481079101562,327.2225341796875,-188.56201171875
2813,183.6851806640625,152.59539794921875,317.24822998046875,-197.5751800537109
2814,157.35255432128906,153.99786376953125,304.369873046875,-200.0977325439453
2815,164.38729858398438,154.4092559814453,308.6782531738281,-193.03680419921875
2816,177.293701171875,157.51336669921875,323.218994140625,-183.88153076171875
2817,167.786865234375,144.80892944335938,312.04791259765625,-190.5946502685547
2818,152.5767059326172,144.96974182128906,303.9061279296875,-187.07540893554688
2819,163.77395629882812,144.7378692626953,306.3221130371094,-180.07431030273438
2820,163.70663452148438,143.73931884765625,313.4129638671875,-193.2425079345703
2821,170.35244750976562,153.0890655517578,317.0406799316406,-187.6737823486328
2822,158.3398895263672,140.8221893310547,300.132568359375,-190.06358337402344
2823,172.704833984375,151.9035186767578,306.49041748046875,-190.96116638183597
2824,167.20718383789062,147.89808654785156,315.2342834472656,-189.4053649902344
2825,174.71690368652344,148.0738525390625,318.1776123046875,-189.237060546875
2826,164.14047241210938,152.04937744140625,306.8868408203125,-194.1587829589844
2827,163.1643524169922,157.0758056640625,305.2450256347656,-205.40464782714844
2828,163.1306915283203,154.44290161132812,312.27978515625,-201.5824737548828
2829,175.02731323242188,151.3948974609375,313.90289306640625,-193.4220123291016
2830,168.28427124023438,159.00184631347656,307.0326843261719,-193.04428100585938
2831,173.8642120361328,157.16555786132812,308.15093994140625,-202.06118774414062
2832,166.8144989013672,155.60227966308594,321.93994140625,-186.20774841308597
2833,171.92694091796875,154.9141387939453,326.4951477050781,-183.57485961914062
2834,159.29730224609375,155.5125274658203,303.6817321777344,-187.5391540527344
2835,170.3300018310547,157.21417236328125,309.3290100097656,-176.51766967773438
2836,157.98458862304688,155.27316284179688,319.0340270996094,-172.03726196289062
2837,165.075439453125,151.11439514160156,308.94378662109375,-185.7589569091797
2838,147.29595947265625,151.74644470214844,302.7505187988281,-196.39523315429688
2839,171.98678588867188,151.11439514160156,303.8014221191406,-191.7876739501953
2840,157.4086456298828,159.828369140625,315.0959167480469,-186.1404266357422
2841,156.99725341796875,159.57778930664062,313.7420654296875,-190.4787139892578
2842,160.10511779785156,162.52108764648438,306.00421142578125,-188.4965667724609
2843,169.9672393798828,164.85479736328125,309.81890869140625,-186.73133850097656
2844,158.9868927001953,161.24205017089844,312.021728515625,-196.12969970703125
2845,168.29176330566406,156.7728729248047,318.0766296386719,-198.25396728515625
2846,162.98483276367188,152.7861328125,299.1714172363281,-207.1811065673828
2847,169.42868041992188,159.00558471679688,304.7027282714844,-197.9472961425781
2848,154.4092559814453,158.3697967529297,311.5953674316406,-194.7646331787109
2849,172.80955505371094,160.87179565429688,316.53204345703125,-196.22320556640625
2850,167.4839324951172,161.7731170654297,306.47918701171875,-189.73448181152344
2851,168.5161590576172,168.983642578125,311.5579833984375,-183.03257751464844
2852,167.22589111328125,158.48573303222656,318.5852355957031,-182.98020935058597
2853,146.58163452148438,152.90206909179688,318.3645935058594,-185.6355438232422
2854,154.8580322265625,158.28004455566406,308.8540344238281,-188.13754272460938
2855,165.849609375,160.3706512451172,308.52117919921875,-186.66775512695312
2856,169.13697814941406,151.0807342529297,315.8999938964844,-181.0653839111328
2857,156.08847045898438,144.62940979003906,308.5548400878906,-190.40017700195312
2858,156.436279296875,152.04188537597656,304.01458740234375,-185.93099975585938
2859,167.25579833984375,154.56259155273438,311.2138977050781,-190.69937133789062
2860,158.90086364746094,153.6724853515625,313.7532958984375,-185.27651977539062
2861,178.93177795410156,152.07928466796875,315.98602294921875,-190.49742126464844
2862,153.53411865234375,158.09678649902344,307.0962829589844,-197.67428588867188
2863,169.46607971191406,163.44110107421875,307.37677001953125,-203.49729919433597
2864,168.54232788085938,161.16351318359375,315.22308349609375,-198.1829071044922
2865,171.2574920654297,154.46908569335938,315.4549560546875,-198.88975524902344
2866,170.27017211914062,164.85479736328125,303.8949279785156,-197.01980590820312
2867,167.6671905517578,165.1203155517578,313.3306884765625,-186.8734436035156
2868,169.46983337402344,167.7494659423828,319.8081970214844,-182.49403381347656
2869,168.6881866455078,161.76564025878906,317.104248046875,-177.7144317626953
2870,153.7285919189453,160.61373901367188,301.6173095703125,-188.24598693847656
2871,180.58106994628903,158.17532348632812,310.9969787597656,-175.25732421875
2872,143.70565795898438,153.88192749023438,309.1644287109375,-184.85015869140625
2873,158.82232666015625,150.63943481445312,304.51947021484375,-181.3234405517578
2874,139.23648071289062,158.94949340820312,303.4049987792969,-180.8933563232422
2875,162.93621826171875,162.43881225585938,307.2608337402344,-180.69512939453125
2876,160.8007354736328,158.07809448242188,314.16094970703125,-178.29037475585938
2877,156.1221160888672,155.39657592773438,309.8899841308594,-184.89878845214844
2878,151.86611938476562,154.08761596679688,301.23583984375,-183.17843627929688
2879,159.1888427734375,149.9475555419922,301.3330993652344,-188.53396606445312
2880,164.1105499267578,156.36148071289062,307.5076599121094,-199.49562072753903
2881,170.81993103027344,157.83499145507812,307.9826354980469,-198.7850341796875
2882,149.3566436767578,151.23406982421875,293.8046569824219,-203.8226776123047
2883,163.26907348632812,160.59130859375,304.06695556640625,-194.76089477539062
2884,180.78302001953125,167.00523376464844,316.0084533691406,-196.96743774414062
2885,150.2429962158203,156.44375610351562,309.4935607910156,-195.8492126464844
2886,170.4571533203125,165.6700897216797,307.32440185546875,-199.0056915283203
2887,167.35678100585938,170.89846801757812,314.2095642089844,-192.95452880859372
2888,163.96469116210938,159.80218505859375,319.1686706542969,-189.8504180908203
2889,167.02767944335938,157.18051147460938,321.7304992675781,-185.5046539306641
2890,192.7207794189453,157.25904846191406,313.1361999511719,-187.7485809326172
2891,152.29620361328125,158.1229705810547,308.4351501464844,-180.9419708251953
2892,161.6384735107422,155.25820922851562,319.7034912109375,-178.62696838378906
2893,154.30079650878906,154.38307189941406,311.8160400390625,-188.0178680419922
2894,173.09005737304688,156.57090759277344,307.021484375,-188.227294921875
2895,175.12081909179688,148.7919158935547,301.1872253417969,-190.2730255126953
2896,145.77755737304688,157.05335998535156,304.4035339355469,-187.3259735107422
2897,162.21067810058594,152.11294555664062,303.12451171875,-190.45626831054688
2898,156.70181274414062,147.105224609375,299.1826477050781,-190.88262939453125
2899,164.26014709472656,150.5347137451172,290.91748046875,-200.8980712890625
2900,172.68988037109375,147.0266876220703,311.011962890625,-199.6938323974609
2901,157.27027893066406,158.35110473632812,305.26373291015625,-193.84088134765625
2902,173.25460815429688,158.24264526367188,297.1406555175781,-201.1636047363281
2903,164.0694122314453,152.43458557128906,298.1055603027344,-205.8459625244141
2904,169.1855926513672,163.8861541748047,305.46942138671875,-198.88226318359372
2905,172.6674346923828,163.06338500976562,304.8448486328125,-202.4276885986328
2906,161.75067138671875,161.1335906982422,301.1872253417969,-200.29595947265625
2907,172.89556884765625,160.98399353027344,304.369873046875,-192.18785095214844
2908,177.35726928710938,159.312255859375,311.9169921875,-191.6231231689453
2909,191.2285614013672,156.92245483398438,314.228271484375,-190.17578125
2910,162.30792236328125,160.43797302246094,303.7191467285156,-188.5751037597656
2911,150.94610595703125,153.99412536621094,293.1875915527344,-183.9862518310547
2912,164.6902313232422,157.01596069335938,312.9679260253906,-173.5107879638672
2913,164.29380798339844,145.82992553710938,302.0436706542969,-186.6565399169922
2914,162.09474182128906,154.04273986816406,300.94415283203125,-187.8159027099609
2915,163.74029541015625,161.97132873535156,295.6260070800781,-184.13584899902344
2916,174.4476318359375,154.93283081054688,310.25274658203125,-172.875
2917,149.6558380126953,141.79083251953125,300.9403991699219,-185.2989501953125
2918,158.2987518310547,145.25022888183594,288.56134033203125,-184.2929229736328
2919,159.55160522460938,145.90097045898438,292.8023681640625,-180.88961791992188
2920,167.43905639648438,151.60806274414062,308.72686767578125,-188.8181915283203
2921,152.4046630859375,149.90640258789062,306.34454345703125,-187.90940856933597
2922,167.00897216796875,160.4940643310547,299.3434753417969,-195.23960876464844
2923,168.7293243408203,153.12646484375,304.3063049316406,-192.3075256347656
2924,163.1793212890625,155.9762725830078,317.455810546875,-187.23995971679688
2925,152.1204376220703,153.19752502441406,316.1580505371094,-180.24261474609372
2926,161.40286254882812,154.75706481933594,302.15960693359375,-186.94076538085938
2927,165.8346405029297,160.52772521972656,311.4682312011719,-179.82748413085938
2928,174.04373168945312,156.37269592285156,313.5812683105469,-177.43020629882812
2929,157.68539428710938,156.14456176757812,311.0830078125,-183.78054809570312
2930,163.79640197753906,150.09713745117188,295.2893981933594,-184.6220245361328
2931,152.59539794921875,158.65029907226562,299.1116027832031,-184.88755798339844
2932,166.436767578125,151.41732788085938,305.8845520019531,-184.00868225097656
2933,166.3021240234375,145.05575561523438,304.50079345703125,-184.09844970703125
2934,175.9884796142578,151.27894592285156,296.8414611816406,-186.04693603515625
2935,159.4506378173828,154.70469665527344,296.0224304199219,-183.6421813964844
2936,160.2958526611328,149.6969757080078,300.6374816894531,-195.7781524658203
2937,168.5572967529297,150.76284790039062,303.95477294921875,-195.2246551513672
2938,173.09005737304688,154.68600463867188,298.7450866699219,-198.46714782714844
2939,160.74464416503906,151.4771728515625,297.3575744628906,-194.55894470214844
2940,162.8240203857422,151.54823303222656,305.55169677734375,-191.8737030029297
2941,158.6876983642578,150.837646484375,302.8215637207031,-192.8086700439453
2942,173.31069946289062,162.64076232910156,299.2761535644531,-188.82568359375
2943,180.3491973876953,168.6059112548828,309.5234680175781,-184.7529296875
2944,165.415771484375,150.89373779296875,308.6520690917969,-185.8113250732422
2945,166.44798278808594,148.1112518310547,309.91241455078125,-184.85015869140625
2946,170.10934448242188,148.38427734375,301.0077209472656,-187.0342712402344
2947,168.07858276367188,162.9062957763672,306.6998596191406,-176.4391326904297
2948,169.17811584472656,157.61061096191406,315.8887939453125,-174.9581298828125
2949,160.509033203125,153.30972290039062,310.8436584472656,-183.9376220703125
2950,166.8144989013672,158.87095642089844,297.8848876953125,-180.597900390625
2951,174.03250122070312,157.76394653320312,300.1512756347656,-180.0369110107422
2952,163.27655029296875,158.23143005371094,310.62298583984375,-177.91639709472656
2953,162.0274200439453,155.7406463623047,307.11871337890625,-187.15768432617188
2954,162.87265014648438,154.65982055664062,293.4007568359375,-194.1101531982422
2955,175.62196350097656,157.25531005859375,300.46917724609375,-189.3754425048828
2956,155.34422302246094,151.49586486816406,305.566650390625,-182.74459838867188
2957,156.7354736328125,150.01486206054688,301.5387878417969,-186.3648223876953
2958,173.25086975097656,146.27122497558594,293.8981628417969,-191.6567840576172
2959,159.68624877929688,155.08990478515625,295.65966796875,-190.16456604003903
2960,163.15687561035156,150.55340576171875,309.31402587890625,-189.9738311767578
2961,163.209228515625,148.66102600097656,309.0896301269531,-190.34408569335938
2962,162.31166076660156,151.18919372558594,296.44879150390625,-184.8800811767578
2963,166.11514282226562,158.35484313964844,298.6403503417969,-186.93328857421875
2964,172.7085723876953,162.73800659179688,318.4954833984375,-182.2509307861328
2965,164.6565704345703,161.26821899414062,309.2654113769531,-186.34613037109372
2966,164.00209045410156,155.47137451171875,296.95367431640625,-191.80638122558597
2967,173.55380249023438,165.23251342773438,302.99359130859375,-178.66810607910156
2968,176.777587890625,151.96710205078125,312.04791259765625,-189.98504638671875
2969,157.84996032714844,151.12936401367188,302.9599304199219,-191.0696258544922
2970,169.05096435546875,155.35169982910156,295.5325012207031,-186.10302734375
2971,165.64390563964844,150.65065002441406,285.8611145019531,-192.1429748535156
2972,160.0340576171875,163.74029541015625,303.2292175292969,-187.49801635742188
2973,166.28343200683594,162.57345581054688,299.1714172363281,-184.80902099609372
2974,163.55703735351562,154.62989807128906,292.5592956542969,-191.73532104492188
2975,170.5057830810547,161.74319458007812,298.3898010253906,-183.3280334472656
2976,182.01719665527344,159.93307495117188,308.9250793457031,-191.0621337890625
2977,151.41358947753906,147.92800903320312,299.7286682128906,-197.7116851806641
2978,166.0926971435547,151.30886840820312,300.0577697753906,-187.13150024414062
2979,162.71556091308594,163.1232147216797,303.95477294921875,-186.7088928222656
2980,157.9135284423828,162.75296020507812,303.01605224609375,-189.4913787841797
2981,162.1433563232422,160.21731567382812,307.38800048828125,-186.39474487304688
2982,156.27920532226562,145.81121826171875,285.80877685546875,-196.2344207763672
2983,163.87867736816406,156.61578369140625,297.3164367675781,-187.40826416015625
2984,167.05010986328125,154.7757568359375,310.04705810546875,-183.24948120117188
2985,167.34182739257812,153.8445281982422,303.3264465332031,-190.7704315185547
2986,155.35169982910156,158.93826293945312,296.1308898925781,-196.48873901367188
2987,166.96409606933594,154.46908569335938,294.1749267578125,-190.29171752929688
2988,165.1315460205078,150.6656036376953,297.2079772949219,-190.6769256591797
2989,175.37887573242188,150.44496154785156,292.5443115234375,-192.3262176513672
2990,148.29824829101562,154.4503936767578,283.3179931640625,-186.22645568847656
2991,161.07000732421875,152.2849884033203,288.17987060546875,-181.25238037109372
2992,176.34376525878906,156.4736785888672,298.13922119140625,-174.39340209960938
2993,146.35723876953125,155.08616638183594,294.02532958984375,-177.12353515625
2994,158.45208740234375,145.0220947265625,286.16778564453125,-190.2318878173828
2995,165.4718780517578,152.7449951171875,289.6309509277344,-180.2987060546875
2996,155.09365844726562,143.9150848388672,295.29315185546875,-187.0828857421875
2997,160.82691955566406,146.85464477539062,295.68585205078125,-193.2724151611328
2998,162.1844940185547,146.4208221435547,285.565673828125,-194.0764923095703
2999,159.33096313476562,152.96939086914062,295.9102478027344,-186.1179962158203
3000,167.5774383544922,155.82293701171875,310.1069030761719,-189.5325164794922
3001,168.5049285888672,147.25856018066406,306.6923522949219,-195.10870361328125
3002,169.4922637939453,162.12466430664062,303.8575134277344,-185.4448089599609
3003,182.0957336425781,171.2313232421875,308.90264892578125,-176.39051818847656
3004,165.8944854736328,151.66416931152344,306.2286071777344,-190.7180633544922
3005,159.26364135742188,150.0373077392578,302.0324401855469,-192.7675323486328
3006,145.68406677246094,153.15638732910156,292.2974853515625,-187.26988220214844
3007,158.40345764160156,160.78952026367188,295.237060546875,-178.7354278564453
3008,156.0585479736328,155.84910583496094,299.17889404296875,-182.65484619140625
3009,164.4508819580078,154.11753845214844,303.3264465332031,-177.17962646484375
3010,162.25555419921875,149.9400634765625,291.16802978515625,-179.64422607421875
3011,164.76502990722656,147.50540161132812,291.4111328125,-179.7003173828125
3012,149.9138946533203,145.53073120117188,303.11328125,-189.6185302734375
3013,167.56996154785156,151.18919372558594,302.7804260253906,-184.9922790527344
3014,166.55270385742188,153.57525634765625,294.3095703125,-189.4913787841797
3015,161.66839599609375,158.8896484375,302.1278076171875,-188.8574676513672
3016,177.08799743652344,153.81460571289062,309.891845703125,-178.91680908203125
3017,154.97023010253906,151.40237426757812,307.872314453125,-189.25015258789062
3018,162.12466430664062,140.44819641113278,295.3099670410156,-192.4963836669922
3019,165.58033752441406,153.05914306640625,306.0173034667969,-183.4046936035156
3020,159.8657684326172,153.65005493164062,309.8394775390625,-193.2593231201172
3021,164.60047912597656,160.81195068359375,312.3078308105469,-189.69894409179688
3022,169.37258911132812,150.76658630371094,303.1974182128906,-200.05099487304688
3023,170.75634765625,163.52713012695312,308.4482421875,-184.77723693847656
3024,168.54232788085938,168.1309356689453,316.4591064453125,-186.9575958251953
3025,171.50807189941406,175.8912353515625,318.9985046386719,-174.6907196044922
3026,166.5340118408203,144.41249084472656,298.67962646484375,-181.3290557861328
3027,162.1171875,145.18292236328125,293.6756591796875,-176.72897338867188
3028,170.06820678710938,149.74185180664062,302.5840759277344,-178.1763153076172
3029,155.1721954345703,147.87564086914062,294.8050842285156,-179.73211669921875
3030,155.2095947265625,142.4901885986328,286.6221923828125,-184.21250915527344
3031,156.71302795410156,142.98385620117188,296.1925964355469,-181.1682281494141
3032,164.29380798339844,149.652099609375,308.02191162109375,-181.6432037353516
3033,160.2098388671875,149.66331481933594,309.90679931640625,-179.4927520751953
3034,166.53025817871094,148.94151306152344,300.302734375,-184.77349853515625
3035,169.54087829589844,165.64390563964844,304.5736999511719,-190.6675720214844
3036,166.4741668701172,145.3175506591797,315.0791015625,-187.716796875
3037,159.46559143066406,163.69541931152344,315.8382873535156,-182.5819091796875
3038,164.67527770996094,143.09231567382812,296.6264343261719,-187.9711151123047
3039,171.9456329345703,161.0101776123047,306.4660949707031,-182.5332946777344
3040,167.98135375976562,143.78419494628906,308.0181579589844,-190.20008850097656
3041,167.63352966308594,148.38052368164062,302.2400207519531,-194.1905670166016
3042,167.6185760498047,165.8346405029297,304.8467102050781,-189.05941772460938
3043,169.12200927734375,147.07530212402344,294.962158203125,-184.69869995117188
3044,171.5716552734375,154.49900817871094,310.62860107421875,-184.87448120117188
3045,166.78457641601562,152.29620361328125,309.562744140625,-183.32241821289062
3046,164.1890869140625,150.7179718017578,298.4253234863281,-179.8817138671875
3047,171.17147827148438,158.40719604492188,302.943115234375,-182.2528076171875
3048,178.5203857421875,155.1983642578125,309.26727294921875,-175.87252807617188
3049,154.2746124267578,142.351806640625,304.117431640625,-177.76492309570312
3050,163.58322143554688,149.9400634765625,295.51568603515625,-177.82476806640625
3051,166.45921325683594,154.6112060546875,295.6727600097656,-179.37307739257812
3052,187.31663513183597,153.91184997558594,311.0848693847656,-174.12974548339844
3053,153.84078979492188,143.0848388671875,298.80303955078125,-191.0714874267578
3054,171.78855895996094,152.4009246826172,298.1485595703125,-186.4078369140625
3055,156.83644104003906,141.37570190429688,290.395751953125,-194.6019592285156
3056,170.31504821777344,156.95611572265625,316.66107177734375,-194.64683532714844
3057,164.6116943359375,152.4832000732422,304.4054260253906,-198.72706604003903
3058,171.33229064941406,149.5735626220703,299.3415832519531,-196.7262115478516
3059,169.05470275878906,158.8036346435547,304.3642883300781,-198.0725860595703
3060,162.97361755371094,160.52772521972656,311.1484680175781,-191.3519744873047
3061,164.58177185058594,171.3958740234375,304.72705078125,-193.8315277099609
3062,170.06446838378906,138.47354125976562,294.89111328125,-197.41061401367188
3063,181.58335876464844,154.71592712402344,297.5987854003906,-189.61666870117188
3064,174.1933135986328,150.7067413330078,306.7914733886719,-182.8773651123047
3065,168.60964965820312,152.69264221191406,303.6050720214844,-184.29478454589844
3066,167.30816650390625,149.46510314941406,292.6247253417969,-187.4138641357422
3067,166.20863342285156,151.54823303222656,300.77398681640625,-176.45970153808594
3068,173.1237030029297,150.69178771972656,311.4588623046875,-177.48069763183594
3069,166.9902801513672,146.75741577148438,303.96783447265625,-186.03384399414062
3070,161.83668518066406,150.14576721191406,294.0758056640625,-181.1196136474609
3071,165.33349609375,146.7686309814453,298.52630615234375,-181.3514862060547
3072,172.9666290283203,149.32298278808594,306.13323974609375,-184.9604949951172
3073,175.8089599609375,149.02005004882812,309.9853515625,-181.9124755859375
3074,167.94020080566406,138.66801452636722,296.6862487792969,-187.98980712890625
3075,161.85165405273438,147.8644256591797,293.0697937011719,-190.20382690429688
3076,168.83404541015625,147.73727416992188,307.6254577636719,-192.45150756835938
3077,164.68275451660156,143.21946716308594,306.7652893066406,-189.6690216064453
3078,166.5153045654297,150.05226135253906,298.52630615234375,-189.3847961425781
3079,185.20358276367188,152.7898712158203,308.2874450683594,-188.7041320800781
3080,164.1516876220703,155.5012969970703,311.593505859375,-185.5663604736328
3081,163.84127807617188,153.4705352783203,308.4370422363281,-182.2041931152344
3082,171.62026977539062,146.84716796875,306.6119689941406,-182.8287506103516
3083,168.0897979736328,153.63882446289062,308.7511901855469,-182.10694885253903
3084,170.06820678710938,161.2981414794922,312.45367431640625,-178.06411743164062
3085,183.19900512695312,151.8175048828125,309.3832092285156,-181.68060302734372
3086,146.001953125,140.38836669921878,290.33966064453125,-184.0142974853516
3087,165.4569091796875,144.88372802734375,295.39599609375,-178.17257690429688
3088,166.17123413085938,152.63653564453125,309.5103759765625,-176.36619567871094
3089,161.58985900878906,153.17881774902344,303.36199951171875,-178.6475372314453
3090,167.13986206054688,152.5318145751953,299.4463195800781,-185.28585815429688
3091,166.04408264160156,145.66162109375,293.20068359375,-193.5211181640625
3092,175.07968139648438,147.88311767578125,314.8696594238281,-183.1017608642578
3093,167.7943572998047,150.156982421875,307.03082275390625,-186.448974609375
3094,165.2886199951172,168.53858947753906,302.2026062011719,-190.5890350341797
3095,171.41082763671875,142.66970825195312,304.3381042480469,-194.16064453125
3096,161.77685546875,153.36581420898438,314.6864013671875,-184.48178100585938
3097,182.0732879638672,157.5769500732422,312.2030944824219,-180.70074462890625
3098,160.580078125,149.8129119873047,298.1822204589844,-192.7133026123047
3099,157.8275146484375,153.6874542236328,305.8677062988281,-179.6236572265625
3100,166.94912719726562,158.06312561035156,310.9427490234375,-180.5174865722656
3101,163.5084228515625,143.2456512451172,308.2238464355469,-183.08306884765625
3102,162.77166748046875,143.8328094482422,298.859130859375,-185.0240631103516
3103,160.2135772705078,153.7211151123047,300.5421142578125,-185.19610595703125
3104,178.03793334960938,156.95611572265625,308.953125,-182.96337890625
3105,154.29331970214844,143.806640625,302.273681640625,-180.7269287109375
3106,160.1612091064453,149.4389190673828,292.12359619140625,-182.8362274169922
3107,169.49974060058594,167.3380889892578,292.75189208984375,-177.61158752441406
3108,158.74378967285156,139.73762512207028,298.2906799316406,-184.066650390625
3109,153.78094482421875,152.2288818359375,295.72137451171875,-184.59397888183597
3110,144.9772186279297,153.91184997558594,281.42745971679693,-188.1020050048828
3111,161.24205017089844,149.75306701660156,292.261962890625,-189.78121948242188
3112,160.10511779785156,149.2706298828125,299.31915283203125,-186.6023101806641
3113,184.9268341064453,142.87539672851562,307.5431823730469,-181.38140869140625
3114,158.971923828125,145.69528198242188,294.3413391113281,-182.81753540039062
3115,161.14854431152344,148.1299591064453,295.13421630859375,-186.87905883789062
3116,159.80966186523438,149.135986328125,302.74114990234375,-181.9162139892578
3117,168.84152221679688,155.04876708984375,306.0958557128906,-176.11936950683594
3118,154.0950927734375,152.4906768798828,300.1269836425781,-179.489013671875
3119,154.4915313720703,154.2147674560547,301.27886962890625,-182.39866638183597
3120,163.4710235595703,151.51083374023438,312.6556396484375,-181.59458923339844
3121,175.6892852783203,148.06637573242188,308.0592956542969,-185.57009887695312
3122,147.11643981933594,140.26121520996094,296.6039733886719,-190.10659790039062
3123,160.14251708984375,144.34518432617188,299.57720947265625,-189.60919189453125
3124,167.59239196777344,146.6377410888672,307.5394592285156,-186.8827972412109
3125,151.61553955078125,157.11318969726562,308.63897705078125,-176.2165985107422
3126,158.8522491455078,143.79541015625,296.9517822265625,-184.13771057128903
3127,167.89158630371094,151.06204223632812,300.4710388183594,-188.88365173339844
3128,161.0513153076172,152.9619140625,304.8392333984375,-189.3324279785156
3129,160.0714569091797,151.86985778808594,302.438232421875,-189.7774810791016
3130,160.20236206054688,160.89797973632812,297.95782470703125,-199.0898284912109
3131,164.07315063476562,147.59515380859375,296.9817199707031,-199.3815460205078
3132,179.61244201660156,157.8275146484375,314.2039489746094,-178.39697265625
3133,162.0274200439453,158.99436950683594,313.48590087890625,-184.4556121826172
3134,159.63389587402344,163.1232147216797,309.6824035644531,-175.8052215576172
3135,150.57958984375,151.8436737060547,302.8009948730469,-184.54910278320312
3136,163.2167205810547,159.42071533203125,321.23870849609375,-172.98533630371094
3137,153.82208251953125,146.98928833007812,311.1521911621094,-184.3022766113281
3138,148.23094177246094,159.15892028808594,302.03057861328125,-183.81234741210938
3139,168.643310546875,153.91558837890625,305.7854309082031,-180.23699951171875
3140,157.99581909179688,150.36642456054688,310.243408203125,-192.7694091796875
3141,159.652587890625,153.50045776367188,308.9306945800781,-193.1695709228516
3142,172.30467224121094,153.3433837890625,300.5682678222656,-191.8269500732422
3143,175.12081909179688,154.97023010253906,303.5078430175781,-193.45005798339844
3144,173.50143432617188,157.27027893066406,318.93865966796875,-182.06581115722656
3145,148.8928985595703,153.60891723632812,299.4911804199219,-192.23460388183597
3146,173.92030334472656,144.7303924560547,295.4857482910156,-188.8088531494141
3147,176.7327117919922,154.36810302734375,301.97821044921875,-179.61244201660156
3148,147.2398681640625,156.3053741455078,305.8938903808594,-188.315185546875
3149,155.4938201904297,156.44749450683594,304.9402160644531,-195.75384521484372
3150,166.08895874023438,152.26254272460938,295.7288513183594,-194.7552947998047
3151,166.15628051757812,159.96673583984375,299.046142578125,-186.0301055908203
3152,166.19741821289062,152.7861328125,312.5957946777344,-184.52291870117188
3153,172.08401489257812,155.40032958984375,312.37139892578125,-175.28163146972656
3154,158.1715850830078,149.79795837402344,307.74139404296875,-179.81439208984375
3155,178.808349609375,157.33758544921875,316.2833251953125,-180.2182922363281
3156,157.81629943847656,159.7834930419922,324.3128967285156,-175.45741271972656
3157,160.90919494628906,154.83934020996094,320.0606384277344,-183.3897399902344
3158,169.6082000732422,149.8615264892578,307.1579895019531,-197.8481903076172
3159,157.71905517578125,147.21368408203125,311.33172607421875,-189.56056213378903
3160,180.8391265869141,157.2029571533203,329.88909912109375,-185.67481994628903
3161,162.47621154785156,147.6250762939453,316.79571533203125,-188.8761749267578
3162,162.92874145507812,152.85719299316406,309.06158447265625,-189.4558563232422
3163,178.06411743164062,152.97312927246094,318.7890625,-187.94119262695312
3164,170.27391052246094,147.8270263671875,321.7473449707031,-191.4080810546875
3165,183.83477783203125,155.16844177246094,321.56781005859375,-185.29335021972656
3166,167.59613037109375,153.56402587890625,305.20574951171875,-196.9281768798828
3167,185.06895446777344,158.6839599609375,313.7514343261719,-197.4293212890625
3168,165.9580535888672,151.03585815429688,312.42376708984375,-186.5723876953125
3169,152.33360290527344,152.71133422851562,312.3377380371094,-190.2187957763672
3170,166.5639190673828,159.9069061279297,306.10333251953125,-185.7570953369141
3171,164.09185791015625,153.0815887451172,306.851318359375,-186.1535186767578
3172,161.42530822753906,155.18714904785156,316.3282165527344,-182.7240295410156
3173,160.77081298828125,143.7093963623047,315.9317932128906,-181.7815704345703
3174,167.13986206054688,148.5039520263672,306.45489501953125,-187.2119140625
3175,168.02249145507812,153.9754180908203,316.3768310546875,-183.14663696289062
3176,177.74623107910156,148.65354919433594,326.2464294433594,-185.48033142089844
3177,174.23446655273438,151.8436737060547,319.82501220703125,-177.13662719726562
3178,168.37030029296875,149.67453002929688,304.5998840332031,-189.078125
3179,156.94863891601562,153.69119262695312,308.05181884765625,-187.3989105224609
3180,170.06446838378906,153.82582092285156,319.9970703125,-188.08331298828125
3181,161.83294677734375,151.98953247070312,313.56817626953125,-189.47080993652344
3182,171.23880004882812,158.20150756835938,308.4893798828125,-190.36090087890625
3183,167.14361572265625,161.3804168701172,308.9718322753906,-188.90234375
3184,167.68963623046875,142.7332763671875,307.367431640625,-191.30709838867188
3185,165.2474822998047,141.93667602539062,314.76495361328125,-186.12359619140625
3186,167.7532196044922,146.95936584472656,302.2213134765625,-193.8951110839844
3187,167.59613037109375,153.85948181152344,306.8849792480469,-183.6739654541016
3188,164.80990600585938,157.64801025390625,320.0606384277344,-172.64126586914062
3189,167.0613250732422,150.98350524902344,314.71630859375,-172.9666290283203
3190,171.88954162597656,144.3563995361328,306.8587951660156,-178.74478149414062
3191,161.3916473388672,151.24530029296875,309.67120361328125,-176.36619567871094
3192,161.0587921142578,152.7861328125,318.15704345703125,-175.56961059570312
3193,159.59649658203125,149.6782684326172,318.4075927734375,-170.17666625976562
3194,153.0404510498047,146.79107666015625,302.38214111328125,-177.1216583251953
3195,169.23794555664062,149.25941467285156,312.4088134765625,-179.34315490722656
3196,163.17556762695312,148.61241149902344,314.5928955078125,-176.54945373535156
3197,148.72085571289062,140.76235961914062,307.8161926269531,-180.6334228515625
3198,166.02537536621094,151.95587158203125,298.26824951171875,-191.60255432128903
3199,163.73655700683594,145.95333862304688,299.4762268066406,-193.28550720214844
3200,156.2230987548828,152.5804443359375,318.8190002441406,-180.7269287109375
3201,156.50733947753906,148.1523895263672,312.4985656738281,-182.3949279785156
3202,167.7606964111328,152.29994201660156,307.0943908691406,-187.69061279296875
3203,178.5652618408203,154.99267578125,307.0495300292969,-184.8445587158203
3204,161.09619140625,156.8962860107422,319.08453369140625,-180.6296844482422
3205,160.22479248046875,155.44894409179688,313.3325500488281,-182.0732879638672
3206,176.46343994140625,155.02633666992188,313.3736877441406,-182.0845031738281
3207,168.478759765625,151.4285430908203,309.94793701171875,-180.8054656982422
3208,163.57200622558594,153.65753173828125,318.8638610839844,-177.7537078857422
3209,160.3369903564453,147.69613647460938,316.0888671875,-179.6236572265625
3210,154.9477996826172,147.1875,302.9206848144531,-192.9713592529297
3211,155.4115447998047,155.94635009765625,311.5448913574219,-178.25111389160156
3212,169.08836364746094,158.3473663330078,326.33245849609375,-180.9475860595703
3213,151.79132080078125,154.12875366210938,314.2600402832031,-185.7271728515625
3214,167.09872436523438,162.0199432373047,308.2201232910156,-181.3701934814453
3215,165.22129821777344,149.32672119140625,312.6332092285156,-170.0495147705078
3216,143.48126220703125,150.1121063232422,319.1574401855469,-183.144775390625
3217,156.0996856689453,147.49790954589844,319.826904296875,-181.97418212890625
3218,164.7912139892578,152.17652893066406,310.86236572265625,-182.8119201660156
3219,157.80508422851562,145.7401580810547,305.9593505859375,-189.02389526367188
3220,155.04502868652344,139.97697448730472,308.6408386230469,-195.97262573242188
3221,159.39453125,143.06239318847656,309.6842956542969,-186.67523193359372
3222,152.0605926513672,145.86732482910156,296.31787109375,-190.50115966796875
3223,157.67044067382812,145.48959350585938,294.12255859375,-184.8913116455078
3224,159.37957763671875,155.80422973632812,315.3240661621094,-178.20062255859375
3225,161.178466796875,153.06288146972656,312.2498474121094,-173.6940460205078
3226,152.08677673339844,154.00534057617188,300.0129089355469,-171.07611083984375
3227,169.2042999267578,149.74185180664062,305.56292724609375,-179.80130004882812
3228,152.6253204345703,154.88047790527344,316.88360595703125,-182.6473693847656
3229,160.32577514648438,158.8859100341797,320.5561828613281,-178.76161193847656
3230,152.88711547851562,144.8949432373047,302.26806640625,-185.8599395751953
3231,162.77914428710938,152.89085388183594,312.691162109375,-179.6554412841797
3232,157.37872314453125,144.8126678466797,310.56317138671875,-185.7626953125
3233,161.79554748535156,154.5177001953125,316.5395202636719,-176.42416381835938
3234,150.08966064453125,160.42674255371094,301.1012268066406,-189.33056640625
3235,157.0234375,161.7357177734375,307.57122802734375,-187.1988220214844
3236,161.94888305664062,148.56378173828125,310.0919494628906,-192.49078369140625
3237,162.73800659179688,157.4909210205078,315.52227783203125,-188.4329833984375
3238,157.18798828125,153.5864715576172,302.5223693847656,-185.4747314453125
3239,153.77346801757812,156.8140106201172,309.7142028808594,-183.20834350585938
3240,165.7187042236328,154.7383575439453,321.1433410644531,-176.21847534179688
3241,162.4425506591797,147.7297821044922,314.6209411621094,-183.0998992919922
3242,149.7381134033203,158.208984375,307.1822814941406,-170.49269104003906
3243,151.4809112548828,154.49900817871094,304.7850036621094,-176.1810760498047
3244,162.80532836914062,150.96853637695312,316.51708984375,-176.9851531982422
3245,149.64088439941406,143.4999542236328,310.14056396484375,-181.17758178710938
3246,150.4000701904297,154.24095153808594,303.73785400390625,-174.69259643554688
3247,160.0751953125,146.56668090820312,306.4978942871094,-182.49029541015625
3248,153.40321350097656,147.56149291992188,311.52056884765625,-171.96995544433594
3249,152.91702270507812,142.84921264648438,309.7815246582031,-188.41802978515625
3250,154.07266235351562,147.80831909179688,310.8174743652344,-184.3677215576172
3251,165.98797607421875,157.57321166992188,316.61431884765625,-188.3245391845703
3252,163.82257080078125,155.81919860839844,329.9470520019531,-175.61260986328125
3253,161.2607421875,153.5079345703125,320.7768249511719,-191.42117309570312
3254,161.23831176757812,151.94091796875,309.4524230957031,-192.99940490722656
3255,161.86660766601562,153.60891723632812,311.692626953125,-185.9422149658203
3256,175.5135040283203,155.05999755859375,318.76849365234375,-183.54867553710938
3257,156.42880249023438,140.908203125,311.77862548828125,-195.07879638671875
3258,156.2567596435547,142.58367919921875,298.9395446777344,-199.5030975341797
3259,172.27474975585938,134.557861328125,299.2911071777344,-197.69297790527344
3260,161.2570037841797,136.19219970703122,314.310546875,-182.6436309814453
3261,161.1335906982422,138.14442443847656,311.1578063964844,-186.2825469970703
3262,159.1851043701172,141.39065551757812,295.5362548828125,-198.6803131103516
3263,162.25929260253906,135.45542907714844,309.19061279296875,-184.1171417236328
3264,163.85997009277344,143.94126892089844,318.2935485839844,-194.34576416015625
3265,160.1649627685547,146.67140197753906,315.226806640625,-191.1107635498047
3266,161.2345733642578,152.5804443359375,312.1413879394531,-190.9275054931641
3267,161.9862823486328,149.70071411132812,317.5081481933594,-186.7612609863281
3268,158.8522491455078,149.6147003173828,319.8568115234375,-186.78369140625
3269,162.98483276367188,154.21852111816406,318.2972717285156,-193.5229949951172
3270,162.45751953125,155.20584106445312,313.0651550292969,-197.3788299560547
3271,165.21755981445312,149.91763305664062,310.96331787109375,-193.27615356445312
3272,160.01910400390625,156.4774169921875,317.3174133300781,-192.36737060546875
3273,168.03370666503906,151.21163940429688,314.5386657714844,-198.8673095703125
3274,153.13394165039062,157.4909210205078,311.8534240722656,-187.41574096679688
3275,163.39996337890625,158.27256774902344,317.5306091308594,-179.13934326171875
3276,163.53460693359375,155.05625915527344,325.1749572753906,-179.50584411621094
3277,152.8646697998047,145.9645538330078,323.5443420410156,-181.2336883544922
3278,158.2052459716797,156.45497131347656,312.96044921875,-183.83665466308597
3279,156.84767150878906,151.3387908935547,311.8908386230469,-171.49871826171875
3280,149.83535766601562,143.9188232421875,316.3338317871094,-178.06973266601562
3281,157.51336669921875,145.86732482910156,309.8899841308594,-190.5572509765625
3282,158.5119171142578,143.0698699951172,302.7505187988281,-195.7295379638672
3283,160.93911743164062,140.39958190917972,295.7381896972656,-198.3998260498047
3284,154.5962371826172,156.75416564941406,314.17218017578125,-190.92376708984372
3285,162.8427276611328,150.50479125976562,314.7294006347656,-197.7416076660156
3286,154.8580322265625,158.21646118164062,300.6112976074219,-195.71083068847656
3287,160.50527954101562,154.67478942871094,306.17626953125,-193.85211181640625
3288,159.5291748046875,147.4829559326172,322.16058349609375,-188.61997985839844
3289,147.25856018066406,154.4803009033203,316.86114501953125,-196.6308441162109
3290,155.1534881591797,142.867919921875,312.2723083496094,-201.7881774902344
3291,164.3536376953125,151.1817169189453,317.92327880859375,-190.57969665527344
3292,169.4099884033203,155.13853454589844,327.8190612792969,-182.26589965820312
3293,141.57391357421875,145.5419464111328,319.4379577636719,-194.1924285888672
3294,151.3051300048828,152.5804443359375,308.1770935058594,-186.55929565429688
3295,162.8277587890625,148.2047576904297,310.1891784667969,-187.0006103515625
3296,161.27197265625,155.89773559570312,324.2250061035156,-179.0346221923828
3297,154.36436462402344,152.42710876464844,315.12957763671875,-185.57196044921875
3298,150.29910278320312,163.06338500976562,307.3954772949219,-187.41200256347656
3299,162.2032012939453,139.95079040527344,305.6825866699219,-185.6766815185547
3300,159.828369140625,141.35699462890625,315.72796630859375,-175.8033447265625
3301,153.291015625,144.31900024414062,310.8586120605469,-183.55990600585938
3302,156.2193603515625,144.92112731933594,310.55194091796875,-188.9528350830078
3303,163.54208374023438,154.80567932128906,312.2685546875,-182.72216796875
3304,162.50613403320312,156.74295043945312,325.1375427246094,-176.45034790039062
3305,162.0199432373047,155.8790283203125,321.8988037109375,-182.9615173339844
3306,154.7308807373047,147.80831909179688,308.5062255859375,-193.1265563964844
3307,170.10186767578125,156.75416564941406,317.8372802734375,-188.2646942138672
3308,153.7547607421875,152.35231018066406,321.3826904296875,-190.32911682128903
3309,158.91209411621094,154.66729736328125,321.8165283203125,-193.55291748046875
3310,165.4943084716797,148.47402954101562,315.754150390625,-194.3756866455078
3311,160.83065795898438,152.51686096191406,317.6016540527344,-187.61769104003903
3312,169.50347900390625,155.86407470703125,324.8346252441406,-181.4842529296875
3313,161.55245971679688,161.5150604248047,329.3411865234375,-176.3082275390625
3314,146.7274932861328,157.5769500732422,314.8378601074219,-187.53167724609372
3315,151.35000610351562,151.65667724609375,313.0015869140625,-184.8127593994141
3316,153.75851440429688,153.8108673095703,322.2054748535156,-186.71263122558597
3317,152.9469451904297,150.29910278320312,317.4109191894531,-180.79237365722656
3318,157.38247680664062,149.1098175048828,316.094482421875,-182.7146759033203
3319,159.1327362060547,150.6656036376953,313.3942565917969,-184.51731872558597
3320,161.2233428955078,150.89373779296875,327.4375915527344,-182.5912628173828
3321,158.57550048828125,143.032470703125,322.7103576660156,-185.75521850585938
3322,162.9586639404297,144.06094360351562,315.86260986328125,-185.5046539306641
3323,167.21841430664062,154.08013916015625,319.0826416015625,-178.40631103515625
3324,164.81739807128906,144.53965759277344,323.80615234375,-193.6912841796875
3325,165.49057006835938,143.4999542236328,324.5204772949219,-196.8627166748047
3326,159.6077117919922,149.27810668945312,313.5999755859375,-196.9150848388672
3327,155.04129028320312,151.24530029296875,315.73919677734375,-198.49331665039062
3328,161.0513153076172,155.68455505371094,325.2721862792969,-189.1847076416016
3329,156.58213806152344,151.52578735351562,322.43359375,-190.0486297607422
3330,157.83499145507812,149.38656616210938,313.56256103515625,-187.5054931640625
3331,155.837890625,151.71278381347656,308.8240966796875,-193.60153198242188
3332,152.89085388183594,150.34771728515625,317.0182189941406,-188.2759094238281
3333,156.60830688476562,157.9247589111328,319.991455078125,-179.81251525878906
3334,152.45327758789062,153.10401916503906,302.6607666015625,-189.71951293945312
3335,160.72593688964844,146.1814727783203,305.2151184082031,-186.55555725097656
3336,175.18438720703125,151.98953247070312,323.1741027832031,-177.22450256347656
3337,149.21078491210938,144.2554168701172,313.3344421386719,-181.33091735839844
3338,141.75343322753906,144.2142791748047,301.57244873046875,-183.9189300537109
3339,154.70843505859375,151.20790100097656,306.5465087890625,-185.9609222412109
3340,152.2849884033203,157.13937377929688,312.8968505859375,-182.1275177001953
3341,153.8931427001953,139.82363891601562,314.8490905761719,-188.4404754638672
3342,147.9915771484375,147.6250762939453,306.1725158691406,-195.692138671875
3343,155.77430725097656,159.24119567871094,314.8453369140625,-190.79286193847656
3344,152.868408203125,151.97084045410156,319.9465637207031,-189.51382446289062
3345,143.713134765625,145.50828552246094,318.85076904296875,-199.61155700683597
3346,162.1209259033203,145.90097045898438,312.8594665527344,-200.5390472412109
3347,159.87698364257812,151.61553955078125,323.69769287109375,-191.7053985595703
3348,170.4571533203125,152.64027404785156,331.1026916503906,-187.8645172119141
3349,160.9241485595703,145.919677734375,316.05706787109375,-200.24359130859372
3350,143.0362091064453,151.79879760742188,311.05682373046875,-194.51780700683597
3351,162.2406005859375,158.87095642089844,318.2524108886719,-189.166015625
3352,153.95672607421875,158.39598083496094,327.1234436035156,-181.783447265625
3353,153.80712890625,150.07470703125,324.2661437988281,-181.9367828369141
3354,145.42601013183594,145.50454711914062,308.8540344238281,-183.7543792724609
3355,169.79893493652344,152.5804443359375,315.3390197753906,-181.8956451416016
3356,143.00254821777344,154.66729736328125,321.2069091796875,-184.2405548095703
3357,149.37535095214844,149.0163116455078,321.0722961425781,-183.4813690185547
3358,150.3589324951172,142.46026611328125,306.3221130371094,-190.7292938232422
3359,163.37005615234375,153.466796875,320.8890380859375,-183.96380615234372
3360,157.116943359375,149.3080291748047,322.2578430175781,-176.53636169433594
3361,144.53591918945312,149.70071411132812,313.5027160644531,-194.7982940673828
3362,163.90859985351562,156.95985412597656,312.10400390625,-194.2447967529297
3363,151.44725036621094,150.99472045898438,312.32464599609375,-194.7908172607422
3364,159.62266540527344,162.65573120117188,322.60565185546875,-183.6272125244141
3365,168.83778381347656,152.91702270507812,324.28485107421875,-185.42236328125
3366,145.17918395996094,148.9676971435547,307.1374206542969,-189.21836853027344
3367,158.4259033203125,156.436279296875,314.9051818847656,-183.309326171875
3368,163.66549682617188,155.2469940185547,324.9879455566406,-175.41065979003906
3369,141.31211853027344,137.25059509277344,314.84161376953125,-185.07455444335938
3370,147.6624755859375,149.92510986328125,312.17132568359375,-181.2075042724609
3371,159.25990295410156,151.23780822753906,317.8709411621094,-180.9419708251953
3372,149.24070739746094,157.00100708007812,329.72265625,-170.3019561767578
3373,171.3996124267578,154.9889373779297,335.01837158203125,-170.47772216796875
3374,155.8827667236328,151.6865997314453,314.0225830078125,-178.45120239257812
3375,144.06842041015625,151.98953247070312,314.47509765625,-175.57894897460938
3376,169.50347900390625,155.23202514648438,331.3495178222656,-166.02725219726562
3377,140.70999145507812,146.01690673828125,317.79986572265625,-177.02255249023438
3378,151.62677001953125,155.13853454589844,316.9696044921875,-181.2411651611328
3379,148.69468688964844,159.488037109375,315.1781921386719,-183.3691711425781
3380,153.44435119628906,154.41299438476562,329.00836181640625,-191.7801971435547
3381,138.25288391113278,152.01571655273438,314.7855224609375,-202.8203887939453
3382,154.570068359375,154.8655242919922,318.9106140136719,-192.5618438720703
3383,153.07411193847656,158.26882934570312,320.0288391113281,-193.08917236328125
3384,169.58201599121094,162.7080841064453,338.48150634765625,-187.41574096679688
3385,151.10317993164062,152.0605926513672,328.1668701171875,-192.14671325683597
3386,149.476318359375,149.29306030273438,320.3841247558594,-186.6154022216797
3387,156.0548095703125,159.147705078125,322.1905212402344,-183.6982727050781
3388,169.77650451660156,155.98374938964844,326.35675048828125,-181.2374267578125
3389,174.6907196044922,146.49188232421875,326.0089416503906,-177.59849548339844
3390,142.79685974121094,151.6791229248047,315.8588562011719,-176.58872985839844
3391,161.83668518066406,157.42361450195312,325.4591979980469,-175.23861694335938
3392,145.47088623046875,145.2951202392578,327.1084899902344,-185.9571685791016
3393,148.93777465820312,147.35205078125,328.630615234375,-181.42442321777344
3394,157.41238403320312,153.9268035888672,321.857666015625,-180.6016387939453
3395,171.0181427001953,151.7763671875,324.6588439941406,-180.4183807373047
3396,176.46717834472656,149.6782684326172,327.34783935546875,-180.71383666992188
3397,136.07252502441406,149.3080291748047,320.5599060058594,-179.80877685546875
3398,152.12791442871094,155.5012969970703,319.0976257324219,-176.43165588378906
3399,148.33938598632812,152.00450134277344,315.64569091796875,-175.5078887939453
3400,157.5432891845703,150.1532440185547,324.0006103515625,-185.82254028320312
3401,163.6393280029297,149.11355590820312,322.8150634765625,-188.41802978515625
3402,153.53038024902344,147.5689697265625,317.2351379394531,-197.5059814453125
3403,169.20803833007812,158.11175537109375,321.9324645996094,-190.7779083251953
3404,159.42819213867188,161.96759033203125,332.01898193359375,-188.14501953125
3405,158.47451782226562,150.6356964111328,326.73822021484375,-189.38291931152344
3406,147.88311767578125,155.96878051757812,322.9422302246094,-183.1223297119141
3407,149.78298950195312,146.70880126953125,317.4109191894531,-186.6228790283203
3408,152.73751831054688,147.75222778320312,331.1475830078125,-182.4192352294922
3409,146.00942993164062,149.6483612060547,324.5279541015625,-179.2328338623047
3410,158.0481719970703,149.2967987060547,319.7558288574219,-183.6309509277344
3411,144.80145263671875,141.6674041748047,312.3022155761719,-179.21788024902344
3412,147.8719024658203,148.10751342773438,327.4974365234375,-176.8617401123047
3413,155.57235717773438,150.3290252685547,322.3176574707031,-177.80419921875
3414,155.05625915527344,150.93487548828125,310.0096435546875,-189.82797241210938
3415,142.8118133544922,148.2458953857422,316.20294189453125,-186.37229919433597
3416,166.4330291748047,147.87937927246094,326.53253173828125,-181.2635955810547
3417,133.47142028808594,148.97705078125,321.08349609375,-184.74171447753903
3418,147.76905822753906,153.0946807861328,317.8597106933594,-180.79611206054688
3419,158.61102294921875,157.03652954101562,319.06396484375,-182.01531982421875
3420,185.5121307373047,158.0836944580078,336.1702575683594,-178.32403564453125
3421,147.42124938964844,146.49749755859375,323.99688720703125,-192.51695251464844
3422,140.1920166015625,157.52645874023438,322.0446472167969,-193.4033203125
3423,150.1177215576172,156.28480529785156,328.0359802246094,-188.17868041992188
3424,166.99961853027344,160.87741088867188,337.445556640625,-183.55990600585938
3425,164.62852478027344,158.03134155273438,336.5779113769531,-179.24404907226562
3426,146.19082641601562,153.8837890625,314.65087890625,-196.0736083984375
3427,151.7557830810547,156.2287139892578,326.4652099609375,-187.51670837402344
3428,159.81153869628906,158.5511932373047,340.5982971191406,-169.34454345703125
3429,152.00262451171875,151.46034240722656,323.95574951171875,-175.69862365722656
3430,153.00865173339844,155.6303253173828,318.7198791503906,-184.13958740234372
3431,159.51608276367188,149.92698669433594,320.1260986328125,-177.40028381347656
3432,150.9217987060547,148.77882385253906,328.4585876464844,-171.12472534179688
3433,144.89682006835938,153.7229766845703,324.17266845703125,-172.2317352294922
3434,149.75494384765625,138.95785522460938,303.7490539550781,-189.3604888916016
3435,153.7603759765625,138.14630126953122,311.90203857421875,-184.46868896484372
3436,146.8976593017578,143.19515991210938,318.03173828125,-184.91000366210938
3437,149.5230712890625,146.9724578857422,317.7325439453125,-184.2405548095703
3438,160.69041442871094,145.59991455078125,309.1569519042969,-187.1950836181641
3439,146.37033081054688,144.91551208496094,309.9460754394531,-184.3116149902344
3440,177.25442504882812,157.56385803222656,333.032470703125,-178.53721618652344
3441,142.5780792236328,151.090087890625,327.0000305175781,-183.8291778564453
3442,154.49339294433594,154.93844604492188,317.97564697265625,-187.9468078613281
3443,162.26490783691406,150.9928436279297,325.0552673339844,-184.154541015625
3444,172.8899688720703,157.1524658203125,334.6144714355469,-185.23912048339844
3445,141.31399536132812,149.88958740234375,326.1248779296875,-184.8277282714844
3446,151.46408081054688,150.8058624267578,318.30474853515625,-185.63180541992188
3447,154.41485595703125,156.79344177246094,319.8642883300781,-178.5596466064453
3448,159.84893798828125,159.42633056640625,332.6023864746094,-162.9193878173828
3449,148.73768615722656,152.20083618164062,319.7745361328125,-177.93508911132812
3450,175.85195922851562,152.33547973632812,314.1385192871094,-175.2947235107422
3451,142.71644592285156,156.07164001464844,310.6005554199219,-187.83834838867188
3452,156.92059326171875,154.14932250976562,325.590087890625,-179.27023315429688
3453,141.37008666992188,156.74481201171875,319.3406982421875,-179.4160919189453
3454,148.47215270996094,146.48626708984375,312.7098693847656,-187.30728149414062
3455,156.68124389648438,141.91236877441406,315.5708923339844,-182.53517150878903
3456,167.45962524414062,140.83154296875,323.27880859375,-179.1991729736328
3457,155.55926513671875,145.52511596679688,321.01617431640625,-178.95608520507812
3458,140.31918334960938,138.04158020019528,306.8868408203125,-186.08433532714844
3459,154.6205596923828,152.72068786621094,315.6943054199219,-180.34732055664062
3460,159.9573974609375,147.29034423828125,322.2353820800781,-184.10592651367188
3461,136.87098693847656,142.38734436035156,310.8960266113281,-187.3746032714844
3462,148.038330078125,151.50521850585938,314.0823974609375,-190.8190460205078
3463,142.88101196289062,154.04835510253906,316.73773193359375,-194.5888671875
3464,157.2796173095703,155.1665802001953,328.76898193359375,-191.7876739501953
3465,150.85447692871094,155.55926513671875,331.42059326171875,-185.4522857666016
3466,149.58290100097656,154.19419860839844,326.32684326171875,-186.525634765625
3467,154.54202270507812,159.00372314453125,329.8909606933594,-173.9109649658203
3468,156.06040954589844,157.08888244628906,329.73016357421875,-178.33526611328125
3469,146.20204162597656,150.37576293945312,327.4001770019531,-171.65579223632812
3470,138.718505859375,148.6666259765625,309.2691650390625,-174.38966369628906
3471,142.275146484375,146.57229614257812,312.350830078125,-171.0499267578125
3472,141.90115356445312,139.43281555175778,316.84246826171875,-175.03292846679688
3473,152.3728790283203,142.1143341064453,320.8852844238281,-180.74002075195312
3474,143.2063751220703,145.06137084960938,306.0603332519531,-183.9937286376953
3475,152.1484832763672,148.30760192871094,310.649169921875,-177.030029296875
3476,145.09503173828125,140.49494934082028,323.2937927246094,-173.53323364257812
3477,142.9184112548828,140.85023498535156,317.257568359375,-183.16720581054688
3478,143.9618377685547,155.64154052734375,318.0953063964844,-181.9405212402344
3479,164.50885009765625,143.284912109375,317.6166076660156,-187.82711791992188
3480,153.31906127929688,146.22447204589844,330.8184509277344,-183.0251007080078
3481,152.62718200683594,146.336669921875,325.2721862792969,-189.35675048828125
3482,156.83457946777344,163.50282287597656,320.9600830078125,-192.93582153320312
3483,165.06610107421875,153.21435546875,321.74920654296875,-188.67608642578125
3484,170.01771545410156,150.64503479003906,326.6746520996094,-182.0863800048828
3485,133.108642578125,147.5371856689453,318.4730529785156,-193.9979553222656
3486,150.21495056152344,154.63925170898438,317.4782409667969,-188.64990234375
3487,164.20965576171875,159.2729949951172,327.29547119140625,-176.9440155029297
3488,150.71983337402344,151.31822204589844,333.5822448730469,-171.41270446777344
3489,148.18792724609375,149.14907836914062,329.8797607421875,-173.02833557128906
3490,144.20867919921875,144.0067138671875,319.9577941894531,-174.13160705566406
3491,158.9738006591797,148.36370849609375,323.53314208984375,-179.29641723632812
3492,150.90309143066406,151.254638671875,327.8901062011719,-179.5806427001953
3493,139.25331115722656,145.89537048339844,319.7333984375,-178.2305450439453
3494,149.7698974609375,145.61862182617188,310.4920959472656,-183.6309509277344
3495,151.99888610839844,149.66519165039062,312.8220520019531,-176.5662841796875
3496,147.50726318359375,154.20916748046875,330.848388671875,-177.4488983154297
3497,149.61282348632812,139.28695678710938,319.0452575683594,-183.8628387451172
3498,152.93011474609375,150.00926208496094,317.8073425292969,-186.79116821289062
3499,159.25428771972656,147.37637329101562,311.8085632324219,-186.4022216796875
3500,148.0420684814453,141.30650329589844,322.42987060546875,-185.2952117919922
3501,151.13870239257812,142.6416473388672,324.92437744140625,-185.88612365722656
3502,154.91973876953125,146.3404083251953,319.5164794921875,-184.13211059570312
3503,156.96173095703125,154.3026580810547,323.4433898925781,-187.06417846679688
3504,161.37855529785156,147.873779296875,335.7513732910156,-181.7123870849609
3505,165.3241424560547,140.83154296875,337.2436218261719,-184.4425201416016
3506,164.66592407226562,143.74118041992188,319.3406982421875,-183.19712829589844
3507,156.27359008789062,146.24691772460938,325.34698486328125,-179.6591796875
3508,160.31268310546875,156.1800994873047,334.1544494628906,-179.09071350097656
3509,143.85337829589844,145.52137756347656,321.5098571777344,-177.47882080078125
3510,151.06016540527344,139.02517700195312,319.2883605957031,-179.21414184570312
3511,156.24366760253906,149.1042022705078,325.6798400878906,-170.83676147460938
