,T7,F8,Cz,P4
0,-187.5503692626953,-130.80113220214844,223.8760223388672,-55.20466232299805
1,-193.08917236328125,-121.11105346679688,226.29946899414062,-61.708351135253906
2,-194.52528381347656,-132.15496826171878,224.94937133789062,-56.16581726074219
3,-191.2678375244141,-137.88076782226562,210.2665252685547,-55.23084259033203
4,-183.55990600585938,-135.35258483886722,217.0020904541016,-54.2509880065918
5,-189.48390197753903,-135.52088928222656,220.73825073242188,-47.71364212036133
6,-194.81326293945312,-119.716064453125,227.08111572265625,-43.266902923583984
7,-195.40415954589844,-129.60810852050778,220.15855407714844,-37.94502639770508
8,-182.09011840820312,-123.53450775146484,230.86962890625,-41.04914093017578
9,-187.2436981201172,-132.39433288574222,232.79568481445312,-45.62303924560547
10,-181.3047332763672,-119.10646057128906,243.8470916748047,-39.3961067199707
11,-185.4186248779297,-107.00788879394531,244.22482299804688,-39.24650955200195
12,-181.8320617675781,-110.39997863769531,240.3689727783203,-46.36727905273438
13,-186.73133850097656,-119.36077880859376,243.06170654296875,-55.83296585083008
14,-175.11520385742188,-113.77336883544922,253.7279052734375,-37.0960693359375
15,-187.40077209472656,-118.03311157226562,235.8399658203125,-51.96965026855469
16,-193.20135498046875,-125.6924285888672,229.57937622070312,-58.45837783813477
17,-192.0532073974609,-120.17981719970705,237.58274841308597,-51.1693115234375
18,-191.9185791015625,-129.10694885253906,237.67999267578125,-46.87964630126953
19,-198.49331665039062,-128.44873046875,222.32769775390625,-47.145179748535156
20,-197.18435668945312,-145.55503845214844,214.8965148925781,-48.49528121948242
21,-201.47776794433597,-142.39108276367188,214.94888305664062,-46.27752304077149
22,-178.87754821777344,-135.26283264160156,221.8377685546875,-38.96601867675781
23,-203.6880340576172,-138.99899291992188,204.18919372558597,-47.605186462402344
24,-197.01231384277344,-128.48612976074222,211.9232940673828,-45.48466491699219
25,-193.85958862304688,-129.83250427246094,224.13034057617188,-36.665977478027344
26,-196.1745758056641,-135.70039367675778,223.39356994628903,-51.6031379699707
27,-189.1622772216797,-126.95277404785156,226.01150512695312,-44.684326171875
28,-186.185302734375,-125.78592681884766,224.27993774414062,-48.027793884277344
29,-184.56593322753903,-124.64151763916016,238.4952850341797,-50.41385269165039
30,-182.92037963867188,-136.93830871582028,233.74935913085938,-59.27367401123047
31,-179.08697509765625,-131.97920227050778,234.83392333984372,-49.43025588989258
32,-188.5638885498047,-139.0887451171875,218.18389892578125,-75.22808837890625
33,-172.70297241210938,-116.48853302001952,243.69749450683597,-49.2507438659668
34,-181.36083984375,-120.20973205566406,245.68338012695312,-50.10343933105469
35,-184.7117919921875,-117.14675903320312,240.18946838378903,-51.40866470336914
36,-189.21836853027344,-121.9001693725586,237.49673461914062,-50.94491577148438
37,-183.9525909423828,-110.9198226928711,241.28900146484372,-51.9023323059082
38,-185.77392578125,-119.47297668457031,245.2607727050781,-45.1181526184082
39,-162.76231384277344,-113.41433715820312,239.9127197265625,-40.37596130371094
40,-191.48849487304688,-119.3308563232422,227.9076385498047,-49.37416076660156
41,-191.8250732421875,-132.44294738769528,226.4303741455078,-51.23289108276367
42,-188.15997314453125,-118.68011474609376,230.2263641357422,-45.47344207763672
43,-196.1110076904297,-127.77555084228516,216.44483947753903,-52.85974502563477
44,-188.6125030517578,-122.02732849121094,213.2023468017578,-35.88059997558594
45,-196.4139404296875,-137.61897277832028,211.85972595214844,-47.15266036987305
46,-186.8697052001953,-133.82670593261722,224.4968414306641,-44.73294448852539
47,-182.13873291015625,-137.70498657226562,215.7342529296875,-50.60832595825195
48,-178.25672912597656,-133.60980224609378,220.2782440185547,-48.29332733154297
49,-181.9105987548828,-131.83708190917972,233.5773162841797,-53.04299926757813
50,-180.1939849853516,-126.71341705322266,232.0290069580078,-53.7872428894043
51,-175.5527801513672,-132.0577392578125,233.9326171875,-55.8067855834961
52,-180.0406494140625,-131.20878601074222,232.148681640625,-58.70146942138672
53,-179.6217803955078,-130.48324584960938,238.7309112548828,-63.03227233886719
54,-173.74266052246094,-112.91319274902344,243.70123291015625,-58.417236328125
55,-171.16961669921875,-117.50578308105469,235.8025665283203,-60.60881805419922
56,-177.7967071533203,-122.00862884521484,237.2760772705078,-60.15629196166992
57,-172.0709228515625,-114.7569580078125,244.15750122070312,-50.16701889038086
58,-167.9121551513672,-122.12830352783205,243.5142364501953,-49.35171890258789
59,-183.7880401611328,-122.39757537841795,240.73922729492188,-45.48092269897461
60,-177.65460205078125,-127.72693634033205,237.94178771972656,-37.9300651550293
61,-189.2856903076172,-141.5907440185547,232.56007385253903,-46.000770568847656
62,-187.97671508789062,-136.841064453125,237.4555969238281,-34.55667495727539
63,-180.72879028320312,-126.80691528320312,235.67539978027344,-27.83607482910156
64,-184.40138244628903,-146.0861053466797,218.55413818359372,-49.41156005859375
65,-189.4577178955078,-136.1304931640625,222.6119384765625,-51.89859008789063
66,-176.17359924316406,-138.51280212402344,231.5054168701172,-35.55522918701172
67,-182.9054107666016,-132.33074951171878,227.2793273925781,-42.99388885498047
68,-183.68331909179688,-128.94987487792972,229.6579132080078,-48.8917121887207
69,-175.49293518066406,-129.60810852050778,243.7722930908203,-46.90582656860352
70,-179.412353515625,-129.09947204589844,237.6912078857422,-57.03347396850586
71,-163.2111053466797,-121.23072814941406,246.046142578125,-49.475135803222656
72,-166.13571166992188,-111.82487487792969,244.179931640625,-45.18921279907226
73,-177.39280700683594,-117.55440521240234,235.7427215576172,-56.44256973266602
74,-179.09820556640625,-115.7966537475586,236.78240966796875,-57.16810989379883
75,-176.25587463378906,-107.81570434570312,245.00271606445312,-50.234336853027344
76,-163.90672302246094,-109.86517333984376,245.7544403076172,-52.04444885253906
77,-181.12522888183597,-112.5466766357422,242.8260955810547,-57.72535705566406
78,-180.0518798828125,-115.38526153564452,243.7236633300781,-56.38647079467773
79,-173.2938690185547,-110.35509490966795,244.6848297119141,-44.35895156860352
80,-179.52828979492188,-121.52992248535156,236.2513427734375,-53.99667739868164
81,-181.68246459960938,-123.3250732421875,232.0327453613281,-50.35401153564453
82,-183.42526245117188,-124.30492401123048,228.1245422363281,-42.69469833374024
83,-181.0429534912109,-131.758544921875,222.2902984619141,-44.0335807800293
84,-178.38388061523438,-128.76287841796878,221.26556396484372,-41.25109481811523
85,-179.2515411376953,-132.42424011230472,227.8889312744141,-38.77902221679688
86,-178.2230682373047,-127.73441314697266,236.78990173339844,-36.50142288208008
87,-181.0653839111328,-129.41737365722656,226.91282653808597,-45.01343536376953
88,-178.0136260986328,-127.34920501708984,230.42459106445312,-47.89315795898438
89,-191.0322265625,-134.305419921875,237.2910461425781,-57.51592254638672
90,-176.42042541503906,-116.39129638671876,250.1263732910156,-46.13166427612305
91,-176.50645446777344,-103.14083099365234,243.35716247558597,-45.78385543823242
92,-180.14537048339844,-112.08293151855469,236.77867126464844,-54.51652145385742
93,-183.50753784179688,-110.99088287353516,247.4112091064453,-50.73922348022461
94,-166.84254455566406,-95.37306213378906,255.0443420410156,-39.86359405517578
95,-176.37181091308594,-101.52145385742188,247.7253570556641,-37.30550384521485
96,-182.9615173339844,-106.39080047607422,248.36114501953125,-42.39176559448242
97,-191.5408477783203,-114.92151641845705,246.92127990722656,-47.97169494628906
98,-183.4439697265625,-116.11454010009766,251.51388549804688,-44.05602264404297
99,-178.08094787597656,-118.54174041748048,247.8076477050781,-43.61471176147461
100,-179.1505584716797,-116.1407241821289,243.1626892089844,-38.82390213012695
101,-188.8855133056641,-123.95337677001952,239.6060333251953,-41.23239517211914
102,-201.4366149902344,-121.3990249633789,231.03419494628903,-45.52580261230469
103,-176.05392456054688,-111.2190170288086,240.22686767578125,-27.88095474243164
104,-185.14561462402344,-128.86386108398438,229.12684631347656,-33.54690170288086
105,-178.78030395507812,-122.57334899902344,237.5341339111328,-28.92438697814941
106,-188.09640502929688,-111.55186462402344,240.48117065429688,-29.42179298400879
107,-192.23272705078125,-133.72573852539062,228.65187072753903,-42.62363815307617
108,-185.99832153320312,-119.90679931640624,235.2789764404297,-38.304054260253906
109,-186.30123901367188,-110.42615509033205,244.76710510253903,-45.4884033203125
110,-178.28289794921875,-112.52050018310548,237.64259338378903,-45.237831115722656
111,-195.42286682128903,-103.54100036621094,237.08908081054688,-46.61785125732422
112,-174.05307006835938,-105.5829849243164,239.79676818847656,-48.1175537109375
113,-180.6352996826172,-109.26304626464844,241.74151611328125,-48.00161743164063
114,-180.8596954345703,-105.53062438964844,249.68133544921875,-47.23119735717773
115,-177.370361328125,-95.81810760498048,250.8818359375,-44.55342864990234
116,-181.34962463378903,-100.53411865234376,248.0769195556641,-51.65549850463867
117,-189.8803253173828,-107.85684204101562,248.36862182617188,-63.02853393554688
118,-177.98744201660156,-102.6322021484375,252.6021881103516,-52.44087600708008
119,-182.09385681152344,-109.880126953125,235.34629821777344,-59.04928207397461
120,-186.0805969238281,-108.7170181274414,226.94273376464844,-54.90172958374024
121,-184.9137420654297,-112.91319274902344,231.04541015625,-50.58588790893555
122,-193.6651153564453,-118.5716552734375,227.28306579589844,-50.90377807617188
123,-185.7178192138672,-112.8122100830078,222.25289916992188,-41.400691986083984
124,-191.25286865234372,-121.47382354736328,223.2552032470703,-41.03044128417969
125,-188.96778869628903,-124.36102294921876,226.6772003173828,-40.91450500488281
126,-196.8851623535156,-128.63572692871094,224.59408569335938,-37.197044372558594
127,-181.39450073242188,-114.2296371459961,229.7813262939453,-35.68612670898437
128,-184.84642028808597,-120.04518127441406,229.49334716796875,-37.02874755859375
129,-173.7763214111328,-119.85070037841795,240.8252410888672,-34.22382354736328
130,-186.25262451171875,-116.63439178466795,240.56719970703125,-44.4150505065918
131,-186.5817413330078,-116.6194305419922,232.56007385253903,-48.35690689086914
132,-180.7661895751953,-109.16954803466795,237.911865234375,-55.387916564941406
133,-182.1723937988281,-114.84297943115234,241.0458984375,-63.06593322753906
134,-178.8102264404297,-112.26618957519531,242.94577026367188,-60.16751098632813
135,-182.48654174804688,-102.00016021728516,242.72885131835938,-53.52544784545898
136,-191.85499572753903,-110.56827545166016,232.8106384277344,-65.62776184082031
137,-190.3964385986328,-103.2904281616211,241.03468322753903,-61.7382698059082
138,-175.64627075195312,-100.69867706298828,246.3154144287109,-46.09052658081055
139,-179.56942749023438,-101.40925598144531,234.0522918701172,-45.58563995361328
140,-186.16287231445312,-109.54354095458984,237.97544860839844,-40.48815536499024
141,-188.2160797119141,-109.89134979248048,237.20501708984372,-36.41166687011719
142,-191.619384765625,-117.7301788330078,239.34051513671875,-32.65680694580078
143,-185.1119537353516,-124.64899444580078,229.4409942626953,-33.550643920898445
144,-194.8319549560547,-138.9241943359375,215.012451171875,-41.38199234008789
145,-191.2678375244141,-137.5740966796875,217.2676239013672,-39.33252716064453
146,-182.6249237060547,-133.71450805664062,219.4330139160156,-42.13371276855469
147,-176.2633514404297,-125.3745346069336,219.7060394287109,-38.88747787475586
148,-166.69668579101562,-131.2012939453125,219.4629364013672,-42.06265640258789
149,-205.4495391845703,-148.77134704589844,220.88784790039062,-47.51543045043945
150,-174.9543914794922,-126.47032928466795,233.7680511474609,-44.418792724609375
151,-179.38243103027344,-150.63755798339844,221.43760681152344,-55.26824188232422
152,-179.72276306152344,-139.49266052246094,217.9969024658203,-56.551025390625
153,-174.93568420410156,-136.43342590332028,228.78651428222656,-64.92092132568361
154,-180.4819641113281,-141.5907440185547,224.62774658203125,-72.03795623779297
155,-175.1675567626953,-111.79869842529295,235.0396270751953,-64.180419921875
156,-174.8758544921875,-106.8059310913086,233.69699096679688,-66.25980377197266
157,-181.45433044433597,-105.54558563232422,241.07208251953125,-70.64671325683594
158,-175.56399536132812,-95.7620086669922,242.7101593017578,-54.471641540527344
159,-181.607666015625,-100.2424087524414,236.5131378173828,-48.87301254272461
160,-189.588623046875,-113.68734741210938,224.2200927734375,-53.55162811279297
161,-194.86187744140625,-123.2465362548828,222.75030517578125,-56.29671478271485
162,-183.8740539550781,-118.8334503173828,227.58226013183597,-47.51916885375977
163,-182.5052490234375,-128.68060302734378,222.8774719238281,-30.439044952392575
164,-182.87924194335938,-132.779541015625,215.37522888183597,-32.481029510498054
165,-185.60562133789062,-143.14654541015625,212.2935485839844,-29.5788688659668
166,-190.3702545166016,-141.32894897460938,215.3602752685547,-26.433612823486328
167,-175.37326049804688,-154.4784393310547,214.71327209472656,-27.271350860595703
168,-183.6047821044922,-155.99684143066406,214.94888305664062,-28.225025177001953
169,-190.8676605224609,-154.0969696044922,221.61712646484372,-36.26206970214844
170,-181.8619842529297,-141.1157684326172,226.40792846679688,-38.21803665161133
171,-183.9937286376953,-122.83514404296876,230.4993896484375,-36.57622146606445
172,-170.76943969726562,-105.65778350830078,237.2798156738281,-39.38862609863281
173,-186.16287231445312,-112.92066955566406,239.36294555664062,-48.64487838745117
174,-184.4986114501953,-101.27462005615234,238.70846557617188,-54.007896423339844
175,-184.0386047363281,-108.42530822753906,234.46368408203125,-59.5092887878418
176,-185.5121307373047,-107.34447479248048,236.8833923339844,-64.31131744384766
177,-180.87091064453125,-109.11344909667969,241.4311065673828,-51.9210319519043
178,-187.10906982421875,-114.32313537597656,242.8896789550781,-50.64946365356445
179,-188.69851684570312,-132.85060119628906,228.94732666015625,-60.20864868164063
180,-178.2716827392578,-143.37094116210938,234.0934295654297,-57.13819122314453
181,-175.3022003173828,-133.18717956542972,239.0899353027344,-47.754783630371094
182,-180.14163208007812,-136.74383544921878,238.5813140869141,-37.61591339111328
183,-192.7076873779297,-133.789306640625,223.3374786376953,-40.03189086914063
184,-187.3035430908203,-140.99609375,219.83692932128903,-43.18462371826172
185,-193.49681091308597,-133.25076293945312,231.53907775878903,-33.472103118896484
186,-196.64581298828125,-130.80487060546878,229.3848876953125,-27.80989646911621
187,-186.37229919433597,-122.59953308105469,229.91221618652344,-22.936805725097656
188,-173.76136779785156,-130.34486389160156,220.34181213378903,-32.26785659790039
189,-200.04537963867188,-121.39154052734376,231.87940979003903,-28.752351760864254
190,-185.2353820800781,-122.21057891845705,228.81268310546875,-22.92558670043945
191,-185.59814453125,-120.23217010498048,224.08920288085938,-34.44073867797852
192,-190.3777313232422,-128.17572021484378,223.2963409423828,-39.4970817565918
193,-189.10243225097656,-120.00404357910156,232.4777984619141,-37.28680419921875
194,-189.78309631347656,-127.39408111572266,237.0255126953125,-38.7341423034668
195,-177.68450927734375,-120.22843170166016,236.5131378173828,-29.593828201293945
196,-183.1859130859375,-121.68325805664062,234.29537963867188,-33.34494781494141
197,-190.36651611328125,-121.66455841064452,234.4412384033203,-42.66477966308594
198,-197.1320037841797,-122.27416229248048,225.76841735839844,-48.21479034423828
199,-176.51766967773438,-101.91414642333984,244.0041656494141,-26.755245208740234
200,-186.7612609863281,-115.0374526977539,235.55946350097656,-49.94262313842773
201,-193.309814453125,-115.0112762451172,232.45535278320312,-64.54319000244139
202,-181.64132690429688,-111.58552551269531,237.9679718017578,-58.51821517944336
203,-188.61997985839844,-117.48334503173828,228.251708984375,-60.18621063232422
204,-187.1651611328125,-108.6347427368164,231.468017578125,-41.29971694946289
205,-198.80372619628903,-109.8352508544922,229.96458435058597,-35.80206298828125
206,-201.0775909423828,-118.51930236816406,227.92633056640625,-29.070241928100586
207,-201.7096405029297,-116.159423828125,220.0949859619141,-27.85103416442871
208,-176.89540100097656,-127.27814483642578,230.85467529296875,-20.015945434570312
209,-193.9867401123047,-134.72802734375,229.57562255859372,-29.63122749328613
210,-198.9121856689453,-131.85578918457028,225.4093780517578,-27.8472957611084
211,-183.133544921875,-121.3803253173828,233.80918884277344,-21.43336677551269
212,-192.6889953613281,-135.25535583496094,222.2678680419922,-35.3121337890625
213,-192.44590759277344,-128.45246887207028,228.78651428222656,-35.02042388916016
214,-184.61080932617188,-118.58661651611328,231.127685546875,-34.066749572753906
215,-188.9939727783203,-116.23422241210938,221.0860595703125,-39.212852478027344
216,-192.07565307617188,-130.73007202148438,219.8892822265625,-41.03792190551758
217,-193.3247833251953,-127.03504943847656,230.5592193603516,-38.81642150878906
218,-194.5738983154297,-133.75564575195312,228.16567993164062,-46.48695755004883
219,-196.7056427001953,-122.83888244628906,228.77528381347656,-38.22925567626953
220,-201.1112518310547,-127.51375579833984,218.4606475830078,-44.10089874267578
221,-190.28424072265625,-123.3063735961914,221.1758117675781,-42.081356048583984
222,-183.0176086425781,-113.74718475341795,226.3331298828125,-35.01668167114258
223,-177.32174682617188,-118.25376892089844,228.06097412109372,-34.60903549194336
224,-185.91229248046875,-118.69507598876952,227.1858367919922,-38.02356338500977
225,-185.62432861328125,-109.26678466796876,240.3428039550781,-30.06505584716797
226,-188.70225524902344,-112.4457015991211,246.5398101806641,-28.094127655029297
227,-194.17747497558597,-100.39574432373048,235.0433654785156,-30.47644424438477
228,-185.57569885253903,-91.09835052490234,240.4213409423828,-26.160600662231445
229,-192.1841125488281,-108.52254486083984,240.3315734863281,-28.34470176696777
230,-197.10581970214844,-114.82427978515624,240.0398712158203,-28.26242446899414
231,-186.1740875244141,-100.7435531616211,242.665283203125,-21.149133682250977
232,-200.0079803466797,-106.37210083007812,234.80026245117188,-31.198246002197266
233,-183.1073760986328,-100.3246841430664,243.2898406982422,-32.34639358520508
234,-180.3024444580078,-110.95722198486328,240.4362945556641,-33.46088409423828
235,-196.3578338623047,-103.98230743408205,239.34051513671875,-29.930419921875
236,-198.31005859375,-128.1083984375,220.41287231445312,-42.156150817871094
237,-192.2888336181641,-114.80184173583984,234.9461212158203,-34.193904876708984
238,-191.1219787597656,-105.73632049560548,229.16424560546875,-36.98760986328125
239,-184.2667388916016,-97.2878875732422,228.44244384765625,-37.49249649047852
240,-187.57655334472656,-106.59649658203124,228.2367401123047,-53.25243377685547
241,-184.659423828125,-100.4219207763672,231.5727386474609,-50.619544982910156
242,-184.3340606689453,-94.5764617919922,242.56430053710938,-46.56923294067383
243,-187.32223510742188,-107.45667266845705,231.9916076660156,-49.744407653808594
244,-191.64556884765625,-109.29670715332031,224.6427001953125,-50.22311782836914
245,-180.19772338867188,-102.41155242919922,242.1940460205078,-30.267009735107425
246,-187.9281005859375,-104.32263946533205,238.34194946289062,-34.377159118652344
247,-175.86318969726562,-96.3678741455078,241.7377777099609,-30.81303596496582
248,-185.22789001464844,-109.38272094726562,234.6768493652344,-40.794830322265625
249,-183.1485137939453,-100.50045776367188,251.17355346679688,-30.55872344970703
250,-183.6047821044922,-91.73039245605469,252.47503662109372,-31.201984405517575
251,-178.19688415527344,-100.60891723632812,241.984619140625,-35.56270980834961
252,-187.30728149414062,-92.53447723388672,231.9803771972656,-39.3549690246582
253,-182.7670440673828,-109.95867156982422,232.63861083984372,-41.449310302734375
254,-188.5451812744141,-112.86083221435548,238.4990234375,-34.52675628662109
255,-189.89529418945312,-115.88641357421876,225.5028839111328,-35.5814094543457
256,-188.84811401367188,-114.43158721923828,220.12115478515625,-38.835121154785156
257,-189.928955078125,-122.58831024169922,218.075439453125,-44.83391952514648
258,-191.9559783935547,-107.7483901977539,226.7220916748047,-34.672611236572266
259,-194.43927001953125,-112.5279769897461,222.32769775390625,-40.61905288696289
260,-192.27386474609372,-123.81874084472656,214.71701049804688,-44.91993713378906
261,-191.1406707763672,-117.97701263427734,226.0077667236328,-40.83970642089844
262,-188.17120361328125,-120.96893310546876,229.8262023925781,-33.535682678222656
263,-189.27072143554688,-115.32168579101562,224.4220428466797,-40.630271911621094
264,-191.2753143310547,-112.1278076171875,225.1288909912109,-47.0853385925293
265,-193.3472137451172,-103.06603240966795,231.09776306152344,-39.56814193725586
266,-202.61094665527344,-99.53556823730469,230.1665344238281,-38.36389541625977
267,-199.61155700683597,-96.81291961669922,227.7243804931641,-43.16218566894531
268,-207.31201171875,-104.32637786865234,223.8460998535156,-40.592872619628906
269,-206.5864562988281,-99.5168685913086,229.48960876464844,-36.81183624267578
270,-215.3153839111328,-126.33943176269531,219.5601806640625,-43.06120681762695
271,-209.65692138671875,-120.15737915039062,224.20138549804688,-32.873722076416016
272,-208.97251892089844,-120.72958374023438,215.7828826904297,-36.60988235473633
273,-212.54412841796875,-126.8630142211914,218.7822723388672,-36.93525314331055
274,-199.8845672607422,-120.17233276367188,220.2857208251953,-25.775390625
275,-209.6943206787109,-135.87617492675778,205.2812347412109,-34.960586547851555
276,-216.0259704589844,-131.31349182128906,204.69407653808597,-37.17460632324219
277,-209.35772705078125,-131.14520263671878,207.2559051513672,-40.72751235961914
278,-197.3227386474609,-126.64236450195312,218.19137573242188,-41.0117416381836
279,-195.54627990722656,-126.159912109375,224.6053009033203,-39.07073593139648
280,-191.2566070556641,-124.5068817138672,226.5949249267578,-47.49298858642578
281,-194.7571563720703,-124.87712860107422,227.02127075195312,-57.84503173828125
282,-193.00314331054688,-113.48165130615234,229.3923797607422,-58.10682678222656
283,-185.1343994140625,-113.15628051757812,234.4973297119141,-57.59819793701172
284,-187.2661437988281,-100.95298767089844,230.9593963623047,-56.9212760925293
285,-194.31211853027344,-98.80254364013672,234.7366943359375,-52.93080520629883
286,-199.6676483154297,-96.19957733154295,233.82041931152344,-46.83476638793945
287,-192.2626495361328,-82.98651123046875,240.0623016357422,-37.79916763305664
288,-202.9737243652344,-89.65475463867188,230.05807495117188,-44.27667617797852
289,-204.1143951416016,-97.93115234375,229.52700805664062,-44.10837936401367
290,-198.1903839111328,-84.8078384399414,240.86639404296875,-35.009204864501946
291,-201.9489898681641,-102.76309967041016,232.7395782470703,-37.84778594970703
292,-205.70384216308597,-114.91777801513672,224.91197204589844,-46.80110931396485
293,-204.35748291015625,-117.4870834350586,223.7526092529297,-47.24241638183594
294,-198.75885009765625,-123.23905181884766,216.3700408935547,-49.134803771972656
295,-189.98504638671875,-118.56417846679688,214.1747131347656,-40.82100677490234
296,-194.43927001953125,-122.83514404296876,216.9347686767578,-40.95938491821289
297,-203.650634765625,-129.44354248046878,209.15951538085938,-45.49588394165039
298,-200.950439453125,-113.6499481201172,215.1171722412109,-25.51359748840332
299,-188.0066375732422,-107.51277160644531,214.5636749267578,-28.27738380432129
300,-191.4847412109375,-107.72220611572266,215.37522888183597,-37.22322463989258
301,-181.7123870849609,-108.9152374267578,223.72642517089844,-36.65102005004883
302,-209.1969146728516,-110.42615509033205,220.1099395751953,-44.83766174316406
303,-191.17433166503903,-95.45907592773438,233.78302001953125,-38.93983840942383
304,-192.86851501464844,-103.80279541015624,229.06326293945312,-50.25303649902344
305,-188.7733154296875,-101.37559509277344,241.0010223388672,-52.56055450439453
306,-194.4430084228516,-99.0531234741211,240.01742553710938,-54.68481826782226
307,-185.48968505859372,-100.44062042236328,241.0832977294922,-51.35256576538086
308,-177.8004608154297,-82.4554443359375,249.0193634033203,-42.81063461303711
309,-193.63519287109372,-89.87166595458984,245.376708984375,-42.496482849121094
310,-203.2018585205078,-77.52625274658203,243.3235015869141,-35.80580139160156
311,-197.73785400390625,-88.30838775634766,238.38682556152344,-34.721229553222656
312,-202.2631378173828,-86.96202087402344,240.76914978027344,-37.66453170776367
313,-207.8355865478516,-95.94900512695312,233.6184539794922,-32.286556243896484
314,-197.32647705078125,-94.29596710205078,239.66587829589844,-27.87721443176269
315,-196.1558837890625,-108.14481353759766,232.8779602050781,-29.485370635986328
316,-205.1765289306641,-110.7814483642578,224.8558807373047,-35.248558044433594
317,-213.38560485839844,-122.19187927246094,221.3478546142578,-37.24940490722656
318,-204.8249664306641,-110.4336395263672,225.3233642578125,-24.627241134643555
319,-188.4479522705078,-111.6042251586914,225.94044494628903,-22.087848663330078
320,-202.3977813720703,-109.40516662597656,220.87661743164062,-31.65825271606445
321,-209.5634307861328,-111.2788543701172,225.00547790527344,-30.30440902709961
322,-187.0828857421875,-107.61375427246094,231.7672119140625,-33.23649215698242
323,-205.1802673339844,-103.26424407958984,220.9551544189453,-37.64583206176758
324,-204.8399353027344,-109.19947052001952,218.8645477294922,-42.85551452636719
325,-195.8118133544922,-104.37126159667969,232.34689331054688,-41.49792861938477
326,-196.16709899902344,-104.38621520996094,235.94842529296875,-42.06265640258789
327,-189.0650329589844,-88.71977996826172,237.81088256835938,-44.54220962524414
328,-187.09410095214844,-94.52410125732422,238.82440185546875,-49.433998107910156
329,-188.8855133056641,-86.65534973144531,254.4347381591797,-46.21394348144531
330,-189.27072143554688,-86.62543487548828,253.9897003173828,-42.77323532104492
331,-197.1320037841797,-83.79432678222656,250.9342041015625,-46.50565719604492
332,-194.52902221679688,-72.78032684326172,254.04953002929688,-41.17630004882813
333,-198.9009704589844,-89.3443374633789,247.9721984863281,-42.61241912841797
334,-196.84776306152344,-92.0108871459961,244.47164916992188,-43.13600540161133
335,-196.94500732421875,-100.560302734375,232.17486572265625,-42.33566665649414
336,-204.331298828125,-103.59709930419922,230.05807495117188,-39.22407150268555
337,-212.89193725585938,-125.0155029296875,224.8184814453125,-50.107177734375
338,-202.8129119873047,-118.42206573486328,233.56610107421875,-38.52845001220703
339,-186.92955017089844,-117.47960662841795,229.24278259277344,-36.688419342041016
340,-193.20135498046875,-124.5106201171875,225.5776824951172,-46.16532516479492
341,-191.114501953125,-122.51351165771484,232.20103454589844,-38.38259506225586
342,-191.21920776367188,-119.28224182128906,233.7231750488281,-37.77299118041992
343,-187.83834838867188,-111.67902374267578,234.99099731445312,-36.46402359008789
344,-184.1508026123047,-105.48200988769531,236.7674560546875,-31.31792259216309
345,-196.5971984863281,-114.48768615722656,232.3282012939453,-47.02924346923828
346,-190.3702545166016,-102.5723648071289,244.09017944335938,-49.69953155517578
347,-186.54808044433597,-91.80519104003906,245.08872985839844,-49.97628402709961
348,-193.6389312744141,-102.6284637451172,235.7240295410156,-53.33471298217773
349,-185.61309814453125,-95.91160583496094,248.5219573974609,-40.78734970092773
350,-194.1251220703125,-94.75971221923828,241.37875366210938,-45.87361145019531
351,-217.11802673339844,-101.59251403808594,233.94009399414062,-43.20332336425781
352,-215.352783203125,-112.07545471191406,227.8665008544922,-45.23035049438477
353,-206.7921600341797,-117.53944396972656,227.900146484375,-42.42168426513672
354,-205.03440856933597,-119.58142852783205,225.67864990234372,-47.29477310180664
355,-202.32672119140625,-117.2813949584961,224.4332733154297,-44.171958923339844
356,-211.455810546875,-131.15267944335938,211.2052459716797,-48.23722839355469
357,-212.5702972412109,-134.1820068359375,211.01451110839844,-47.51543045043945
358,-197.4386749267578,-118.67263793945312,222.42868041992188,-30.89157295227051
359,-206.60142517089844,-128.40385437011722,215.9736175537109,-39.594322204589844
360,-203.47113037109372,-124.64899444580078,224.25375366210938,-33.22901153564453
361,-200.7671813964844,-116.99342346191406,228.4611358642578,-31.370281219482425
362,-202.5885162353516,-119.41313934326172,225.94044494628903,-34.61277389526367
363,-193.2499847412109,-126.67227935791016,227.87771606445312,-30.12115478515625
364,-199.4170684814453,-124.48444366455078,222.42868041992188,-35.091480255126946
365,-207.66729736328125,-122.2405014038086,226.5949249267578,-31.942485809326172
366,-202.02378845214844,-119.42809295654295,238.7645568847656,-33.59552001953125
367,-196.39523315429688,-109.31914520263672,235.57069396972656,-37.72063064575195
368,-194.91796875,-101.0016098022461,240.2979278564453,-42.649818420410156
369,-207.15118408203125,-114.55500793457031,236.4458312988281,-53.97797775268555
370,-206.2536163330078,-106.25616455078124,238.7944793701172,-51.34508514404297
371,-176.89913940429688,-85.888671875,248.0694274902344,-36.15735244750977
372,-182.74459838867188,-109.07979583740234,237.2723388671875,-48.1886100769043
373,-219.2497711181641,-107.849365234375,234.5683898925781,-42.99388885498047
374,-195.3405914306641,-96.41275024414062,243.57408142089844,-29.16748046875
375,-197.0048370361328,-116.32772064208984,237.29478454589844,-26.44109344482422
376,-196.63458251953125,-114.15483856201172,236.14663696289062,-23.30331611633301
377,-200.01171875,-120.23965454101562,238.83935546875,-21.545562744140625
378,-199.4731750488281,-119.14385986328124,239.76312255859372,-21.919553756713867
379,-200.2473297119141,-115.65827941894531,225.6861267089844,-19.978546142578125
380,-207.95152282714844,-115.3553466796875,221.632080078125,-24.63846015930176
381,-206.9193115234375,-120.76698303222656,230.9257354736328,-36.32190704345703
382,-201.6348419189453,-113.58637237548828,229.8636016845703,-35.90678024291992
383,-204.7090301513672,-111.66032409667969,229.03707885742188,-37.89640808105469
384,-199.20016479492188,-110.8375473022461,226.49020385742188,-38.34519577026367
385,-196.8141021728516,-107.35195922851562,235.5033721923828,-37.634613037109375
386,-198.13429260253903,-110.7777099609375,237.8707275390625,-41.51662826538086
387,-196.4401092529297,-119.54402923583984,226.1461334228516,-48.9627685546875
388,-199.98553466796875,-119.10272216796876,224.6464385986328,-51.61809921264648
389,-191.52963256835938,-119.81704711914062,241.15435791015625,-46.423377990722656
390,-193.96429443359372,-123.70280456542969,235.8287353515625,-46.51687622070313
391,-188.4442138671875,-115.18331146240234,231.56900024414062,-44.68806457519531
392,-190.54229736328125,-115.61339569091795,225.55897521972656,-47.51543045043945
393,-196.29800415039062,-121.51122283935548,230.51808166503903,-44.81521987915039
394,-201.4141845703125,-115.20574951171876,229.426025390625,-43.109825134277344
395,-197.27037048339844,-114.8354949951172,223.5057678222656,-45.02465438842773
396,-191.7315826416016,-107.63619232177734,233.1621856689453,-36.123695373535156
397,-198.46339416503903,-119.6786651611328,226.86045837402344,-41.845741271972656
398,-196.39149475097656,-121.15592956542969,226.27703857421875,-41.15760040283203
399,-195.10870361328125,-118.5080795288086,222.9223480224609,-32.23419952392578
400,-196.3092193603516,-134.24557495117188,211.971923828125,-46.995582580566406
401,-194.6674041748047,-134.645751953125,225.7908477783203,-36.86045455932617
402,-179.0626678466797,-124.0917510986328,232.3581085205078,-34.940013885498054
403,-172.9778594970703,-128.19442749023438,227.96372985839844,-38.4405632019043
404,-189.07064819335938,-133.47889709472656,224.54171752929688,-39.1848030090332
405,-190.83587646484372,-123.99451446533205,231.5166320800781,-38.53031921386719
406,-196.5354766845703,-120.06388092041016,228.99220275878903,-38.4630012512207
407,-199.45260620117188,-117.59928131103516,225.90304565429688,-38.19746780395508
408,-198.57373046875,-114.88411712646484,224.0218811035156,-40.000099182128906
409,-200.6157073974609,-110.72161102294922,225.3457946777344,-39.41667556762695
410,-192.3692321777344,-119.64501190185548,218.5429229736328,-47.50981903076172
411,-185.5962677001953,-110.25411987304688,221.35533142089844,-39.25960159301758
412,-200.1444854736328,-125.48673248291016,205.9058074951172,-48.98334121704102
413,-185.8468475341797,-121.55236053466795,223.76382446289062,-45.490272521972656
414,-189.1192626953125,-118.11913299560548,221.99859619140625,-36.42101669311523
415,-200.0023651123047,-124.0281753540039,212.32720947265625,-29.483501434326172
416,-189.61666870117188,-120.7146224975586,215.38644409179688,-25.650104522705078
417,-199.2394256591797,-131.7996826171875,215.4313201904297,-33.915283203125
418,-196.0231170654297,-125.7971420288086,221.51988220214844,-22.112157821655273
419,-193.0760803222656,-121.84033203125,217.9595031738281,-18.925764083862305
420,-197.19744873046875,-134.70932006835938,215.59962463378903,-29.18804931640625
421,-197.4629821777344,-137.17391967773438,216.05589294433597,-28.866416931152344
422,-191.04530334472656,-121.91886901855469,226.725830078125,-23.17428970336914
423,-191.89801025390625,-130.57673645019528,220.6148223876953,-32.66615676879883
424,-194.3326873779297,-130.85348510742188,217.9520263671875,-35.0185546875
425,-202.5492401123047,-134.44004821777344,217.79119873046875,-35.138229370117195
426,-191.63995361328125,-114.16605377197266,223.18788146972656,-28.72430229187012
427,-174.60470581054688,-109.0760498046875,230.12913513183597,-29.19552993774414
428,-209.9766845703125,-115.62461853027344,220.8317413330078,-44.04667282104492
429,-199.5086975097656,-114.26329040527344,227.08485412597656,-42.52827072143555
430,-200.4062805175781,-112.67757415771484,238.7309112548828,-48.10072326660156
431,-198.0538787841797,-120.00029754638672,224.4631805419922,-54.10700225830078
432,-205.39157104492188,-112.87579345703124,228.7341461181641,-53.34032440185547
433,-194.2317047119141,-115.10851287841795,239.1460266113281,-40.29181289672852
434,-203.94796752929688,-119.46175384521484,232.17860412597656,-32.793312072753906
435,-198.831787109375,-118.32108306884766,235.82125854492188,-18.47323608398437
436,-208.67893981933597,-125.72234344482422,217.3386688232422,-23.07331275939941
437,-217.03387451171875,-133.46394348144528,220.4278259277344,-14.950249671936035
438,-215.2050628662109,-135.490966796875,211.22393798828125,-14.647317886352539
439,-197.2834625244141,-132.39059448242188,214.9862823486328,-7.0441017150878915
440,-207.4597320556641,-148.31134033203125,200.9467010498047,-12.7848482131958
441,-207.73648071289062,-147.533447265625,208.3329925537109,-12.178984642028807
442,-199.69195556640625,-135.068359375,215.0087127685547,-20.593759536743164
443,-184.4556121826172,-125.65876770019531,224.20513916015625,-22.47492790222168
444,-194.9834289550781,-121.48503875732422,224.1864318847656,-32.598838806152344
445,-187.799072265625,-120.73332214355469,233.850341796875,-31.88077735900879
446,-189.30625915527344,-108.92645263671876,236.0942687988281,-34.397727966308594
447,-191.8306884765625,-105.38851165771484,234.03358459472656,-38.29096603393555
448,-192.66842651367188,-102.54244995117188,237.8894195556641,-42.18046188354492
449,-189.7849578857422,-100.16761016845705,243.6301727294922,-35.20554733276367
450,-187.7392425537109,-111.77252197265624,241.36004638671875,-42.098182678222656
451,-215.5977478027344,-111.5443878173828,221.6919250488281,-46.92265319824219
452,-210.55262756347656,-126.02153778076172,222.44363403320312,-49.46578598022461
453,-207.4298095703125,-115.97990417480469,229.10813903808597,-42.45347595214844
454,-199.34788513183597,-109.85395050048828,231.0566253662109,-43.52308654785156
455,-208.2114562988281,-113.52279663085938,223.50950622558597,-42.479652404785156
456,-207.2428131103516,-111.17039489746094,221.972412109375,-37.25875473022461
457,-211.6409454345703,-112.98424530029295,222.1294860839844,-29.18804931640625
458,-189.2202453613281,-115.21696472167969,234.9087219238281,-17.044593811035153
459,-192.17849731445312,-119.98534393310548,224.1004180908203,-24.67399024963379
460,-193.30421447753903,-116.0958480834961,234.6170196533203,-17.007194519042972
461,-195.0843963623047,-114.89907836914062,236.62159729003903,-16.883777618408207
462,-194.14195251464844,-116.78772735595705,243.6937561035156,-24.550573348999023
463,-189.9532623291016,-120.22843170166016,243.2973175048828,-23.85121154785156
464,-196.0829620361328,-119.77964782714844,237.3845367431641,-30.081884384155273
465,-194.3962554931641,-120.7594985961914,239.02261352539062,-37.041839599609375
466,-201.7040252685547,-118.5492172241211,243.86578369140625,-36.38361740112305
467,-188.37875366210938,-103.6943359375,243.7947235107422,-35.61693572998047
468,-197.3096466064453,-113.72100830078124,241.2216796875,-41.64939498901367
469,-206.0011749267578,-118.36222076416016,243.46188354492188,-34.68570327758789
470,-212.70306396484372,-121.08113098144531,227.58973693847656,-35.063430786132805
471,-215.80345153808597,-117.33000946044922,218.52047729492188,-37.00444030761719
472,-217.9800720214844,-112.12033081054688,213.7221984863281,-38.0590934753418
473,-215.12652587890625,-125.68869018554688,218.2998352050781,-35.650596618652344
474,-201.3562164306641,-110.75526428222656,228.9361114501953,-23.533321380615234
475,-186.7369384765625,-111.48828887939452,226.6098937988281,-27.2956600189209
476,-211.82418823242188,-125.90933990478516,207.97023010253903,-40.68450164794922
477,-202.31362915039062,-121.17089080810548,222.22299194335938,-35.38880157470703
478,-193.86892700195312,-120.40046691894531,227.3915252685547,-30.72140884399414
479,-178.95794677734375,-116.11080169677734,232.96771240234372,-26.360685348510746
480,-183.19151306152344,-121.2008056640625,227.7505645751953,-32.236068725585945
481,-182.9783477783203,-120.20973205566406,241.1768035888672,-28.208194732666016
482,-185.28211975097656,-121.89269256591795,238.8131866455078,-31.02059936523437
483,-179.67601013183594,-113.91921997070312,239.3966064453125,-36.15174102783203
484,-190.9293670654297,-128.90499877929688,229.67660522460938,-42.18046188354492
485,-186.613525390625,-127.61100006103516,238.1886138916016,-43.64276123046875
486,-182.8698883056641,-124.69013214111328,236.75250244140625,-48.40739440917969
487,-179.97520446777344,-122.11708068847656,235.9858245849609,-42.00842666625977
488,-181.355224609375,-118.69507598876952,239.19839477539062,-40.59474563598633
489,-194.38504028320312,-123.3437728881836,232.9415435791016,-41.97850799560547
490,-189.1416931152344,-123.0632781982422,235.9820709228516,-35.990928649902344
491,-190.7311553955078,-128.35897827148438,225.37945556640625,-42.00842666625977
492,-193.6520233154297,-124.49939727783205,224.63522338867188,-46.68704223632813
493,-197.7883453369141,-142.533203125,222.70542907714844,-50.34466171264648
494,-194.81886291503903,-138.88679504394528,220.2258758544922,-47.11713027954102
495,-191.1201019287109,-133.60980224609378,218.90570068359372,-39.5849723815918
496,-184.4668273925781,-142.64540100097656,210.5395355224609,-51.10760116577149
497,-177.1553192138672,-140.30421447753906,219.5863494873047,-42.11688232421875
498,-193.562255859375,-130.62535095214844,222.3912811279297,-37.92445373535156
499,-186.4564514160156,-141.54586791992188,219.2235870361328,-37.60282516479492
500,-177.6190643310547,-139.27574157714844,228.8426055908203,-30.437175750732425
501,-179.9639892578125,-143.43824768066406,237.2723388671875,-32.681114196777344
502,-178.2174530029297,-138.42678833007812,237.3882751464844,-31.297351837158203
503,-172.4580078125,-125.45307159423828,243.2300109863281,-30.26140022277832
504,-175.06471252441406,-127.51375579833984,242.0706329345703,-38.06283187866211
505,-182.27523803710938,-126.67227935791016,235.09197998046875,-43.93821334838867
506,-180.44268798828125,-120.82682037353516,247.97593688964844,-40.11603546142578
507,-177.6265411376953,-113.8481674194336,244.1986389160156,-46.87777709960938
508,-181.9910125732422,-120.13867950439452,231.4605407714844,-55.25141143798828
509,-173.84176635742188,-114.2109375,241.5171356201172,-44.06163024902344
510,-179.40673828125,-118.84467315673828,244.75962829589844,-50.46434020996094
511,-182.75021362304688,-119.13264465332031,237.46307373046875,-51.7920036315918
512,-189.4633331298828,-127.5025405883789,225.4056396484375,-55.72637939453125
513,-201.3300323486328,-128.38890075683594,227.11851501464844,-53.08227157592773
514,-189.51568603515625,-133.2021484375,221.5946807861328,-57.18494033813477
515,-195.8061981201172,-138.99525451660156,216.28028869628903,-57.83194351196289
516,-197.0515899658203,-141.9796905517578,211.68394470214844,-56.11532974243164
517,-192.8516845703125,-137.25245666503906,221.44134521484372,-50.89442825317383
518,-179.08511352539062,-132.45042419433594,230.13661193847656,-44.45058059692383
519,-174.8852081298828,-137.58157348632812,221.77793884277344,-46.56736373901367
520,-184.59397888183597,-136.52317810058594,227.0474548339844,-44.51041793823242
521,-188.24786376953125,-134.32785034179688,235.8175201416016,-42.9770622253418
522,-178.53907775878906,-132.50653076171878,242.489501953125,-36.14052200317383
523,-177.74996948242188,-127.91018676757812,241.9734039306641,-35.43368148803711
524,-172.6337890625,-131.40699768066406,240.48117065429688,-39.255859375
525,-187.4138641357422,-139.60111999511722,242.2015380859375,-44.18878936767578
526,-186.4414978027344,-131.72114562988278,239.2096099853516,-37.23257446289063
527,-184.77723693847656,-125.31843566894531,229.6878204345703,-42.962100982666016
528,-190.15521240234372,-122.07594299316406,221.3478546142578,-56.14898681640625
529,-186.3704376220703,-123.02587890625,235.56695556640625,-47.88006973266602
530,-184.8408203125,-119.6562271118164,238.0839080810547,-44.08407211303711
531,-181.8788146972656,-120.44908905029295,228.9809875488281,-53.48244094848633
532,-205.3766021728516,-122.63318634033205,228.8052062988281,-55.748817443847656
533,-193.221923828125,-123.33628845214844,229.4821319580078,-56.3397216796875
534,-189.30252075195312,-123.75515747070312,231.32589721679688,-50.56905746459961
535,-187.52606201171875,-120.50518798828124,222.54835510253903,-55.88345336914063
536,-197.7546844482422,-130.07933044433594,213.2846221923828,-59.65701293945313
537,-191.67361450195312,-134.53729248046878,221.47874450683597,-59.01375198364258
538,-184.8707275390625,-122.82018280029295,233.1173095703125,-45.65482711791992
539,-182.56695556640625,-131.76228332519528,226.79689025878903,-43.826019287109375
540,-189.60919189453125,-136.25390625,225.03538513183597,-50.14270782470703
541,-187.88134765625,-127.5810775756836,236.3224029541016,-36.69776916503906
542,-187.9337158203125,-137.12530517578122,232.16363525390625,-38.18251037597656
543,-182.8848419189453,-143.2063751220703,227.9562530517578,-42.707786560058594
544,-171.25375366210938,-136.98692321777344,229.1006622314453,-39.54383087158203
545,-190.2262725830078,-140.573486328125,234.36643981933597,-42.71152877807617
546,-185.2073211669922,-132.57383728027344,235.67166137695312,-42.50209426879883
547,-173.85299682617188,-128.18693542480472,233.2968292236328,-43.61284255981445
548,-184.26487731933597,-137.10285949707028,227.21575927734372,-56.3397216796875
549,-191.2472686767578,-138.6661376953125,223.10934448242188,-57.33827590942383
550,-193.8577117919922,-139.51884460449222,223.00462341308597,-58.76691818237305
551,-188.9173126220703,-138.883056640625,224.3883819580078,-51.784523010253906
552,-186.9426422119141,-125.20623779296876,224.3809051513672,-57.90674209594727
553,-180.5586242675781,-137.87327575683594,233.5960235595703,-42.73770523071289
554,-192.047607421875,-131.19007873535156,231.5128936767578,-42.9995002746582
555,-183.1690826416016,-142.55563354492188,226.6884307861328,-43.94569396972656
556,-190.3048095703125,-141.16439819335938,216.9385070800781,-45.53889083862305
557,-177.13662719726562,-137.77604675292972,221.3104553222656,-41.331504821777344
558,-201.6965484619141,-143.05303955078125,222.16314697265625,-39.02398681640625
559,-187.9785919189453,-142.2788848876953,228.85382080078125,-34.940013885498054
560,-186.13856506347656,-144.23858642578125,225.63751220703125,-32.19492721557617
561,-183.77120971679688,-152.8291473388672,227.1072998046875,-38.934226989746094
562,-173.87916564941406,-138.74093627929688,239.1572570800781,-27.49387359619141
563,-175.8463592529297,-139.6048583984375,234.6244964599609,-35.0185546875
564,-182.40240478515625,-137.20384216308594,237.17510986328125,-43.00323867797852
565,-181.1532745361328,-127.07618713378906,241.3974456787109,-39.00154495239258
566,-183.24388122558597,-125.00802612304688,237.88194274902344,-42.11314392089844
567,-186.88653564453125,-135.99211120605472,227.42518615722656,-48.81130599975586
568,-188.20298767089844,-136.22398376464844,225.529052734375,-57.11762237548828
569,-184.1077880859375,-137.91441345214844,228.86505126953125,-55.322471618652344
570,-186.7705993652344,-126.23845672607422,234.5272521972656,-50.61767578125
571,-185.37936401367188,-138.57638549804688,224.97555541992188,-47.56965637207031
572,-188.45730590820312,-130.13168334960938,227.12599182128903,-38.02543258666992
573,-198.98138427734372,-127.1435089111328,222.2566375732422,-34.943756103515625
574,-190.2935943603516,-128.9237060546875,220.37921142578125,-34.371551513671875
575,-196.4943389892578,-128.07473754882812,214.4813995361328,-33.743247985839844
576,-194.4112243652344,-126.05146026611328,217.66030883789062,-34.165855407714844
577,-188.16184997558597,-122.2853775024414,227.5074615478516,-28.84023857116699
578,-183.8572235107422,-121.58601379394531,231.5951690673828,-25.156436920166016
579,-183.9095764160156,-120.50892639160156,232.5750274658203,-25.582786560058594
580,-196.1876678466797,-127.43148040771484,224.5005798339844,-34.92505645751953
581,-193.64828491210938,-133.66215515136722,231.9055938720703,-33.264541625976555
582,-177.3722381591797,-120.5164031982422,240.73922729492188,-24.584232330322266
583,-178.12020874023438,-130.38600158691406,230.282470703125,-34.05739974975586
584,-176.777587890625,-129.57444763183594,226.6098937988281,-42.28144073486328
585,-198.1997375488281,-126.86675262451172,227.571044921875,-47.33030319213867
586,-186.58734130859372,-124.31614685058594,242.1940460205078,-37.71501922607422
587,-184.52291870117188,-128.55345153808594,232.3543701171875,-39.93278121948242
588,-194.2915496826172,-119.83574676513672,226.11622619628903,-48.20917892456055
589,-199.1160125732422,-124.60411834716795,227.20079040527344,-50.94304656982422
590,-200.6605987548828,-128.29165649414062,223.1056060791016,-53.76667022705078
591,-192.91525268554688,-125.10152435302734,219.67611694335938,-56.37712097167969
592,-196.8758087158203,-117.9657974243164,217.7201385498047,-50.08660888671875
593,-194.99464416503903,-130.4383544921875,222.4735565185547,-43.83349609375
594,-206.51353454589844,-131.41073608398438,212.95176696777344,-58.94269180297852
595,-198.58868408203125,-118.4258041381836,215.42758178710938,-49.33488845825195
596,-205.6832733154297,-132.06521606445312,207.2633819580078,-56.321022033691406
597,-191.09019470214844,-121.97870635986328,218.30357360839844,-45.55010986328125
598,-189.85227966308597,-123.1268539428711,221.0374298095703,-36.05450439453125
599,-188.90982055664062,-124.8509521484375,216.40370178222656,-44.77595138549805
600,-183.2999725341797,-123.70654296875,218.15771484375,-40.82287979125977
601,-169.29405212402344,-124.5741958618164,235.23410034179688,-46.41402816772461
602,-190.6675720214844,-117.19911193847656,236.18777465820312,-44.727333068847656
603,-180.66148376464844,-111.93707275390624,239.49009704589844,-47.41632080078125
604,-180.7699279785156,-104.0720672607422,235.8100433349609,-47.162010192871094
605,-191.0696258544922,-113.8294677734375,235.0171813964844,-53.456260681152344
606,-179.73023986816406,-107.9914779663086,245.46646118164062,-45.88670349121094
607,-176.6111602783203,-103.44750213623048,245.99752807617188,-40.108558654785156
608,-191.4997100830078,-115.0374526977539,232.4441375732422,-56.56411743164063
609,-192.03077697753903,-113.107666015625,239.21334838867188,-47.46493911743164
610,-195.70709228515625,-117.15423583984376,238.78700256347656,-52.43900680541992
611,-201.1112518310547,-126.61244201660156,223.4122772216797,-55.37856674194336
612,-195.9763641357422,-110.53087615966795,221.51988220214844,-48.64300918579102
613,-197.31524658203125,-120.49396514892578,223.17291259765625,-41.78029251098633
614,-203.01112365722656,-118.14157104492188,220.37921142578125,-44.88814926147461
615,-191.454833984375,-122.3639144897461,215.22189331054688,-41.58955764770508
616,-201.18231201171875,-123.29141235351562,213.6997528076172,-34.38650894165039
617,-196.90011596679688,-117.3861083984375,224.8970184326172,-30.676528930664066
618,-191.4623107910156,-120.14615631103516,230.38345336914062,-27.40411758422852
619,-198.7925109863281,-128.81150817871094,218.2474670410156,-35.078392028808594
620,-172.13450622558594,-113.09644317626952,238.15121459960938,-30.549373626708984
621,-175.6761932373047,-114.43158721923828,241.02720642089844,-36.073204040527344
622,-190.7554626464844,-112.4718780517578,245.10369873046875,-30.066925048828125
623,-193.42575073242188,-107.77082824707031,240.24929809570312,-37.78234100341797
624,-181.9853973388672,-111.20779418945312,243.56285095214844,-40.64710235595703
625,-185.48594665527344,-102.43772888183594,243.07666015625,-51.8219223022461
626,-177.59849548339844,-101.84308624267578,250.5714263916016,-43.87089538574219
627,-183.6272125244141,-93.98181915283205,247.6094207763672,-48.3587760925293
628,-181.1214904785156,-94.28474426269531,244.015380859375,-46.88899612426758
629,-196.3653106689453,-90.64582824707031,243.90692138671875,-45.88670349121094
630,-192.5132141113281,-93.80978393554688,249.3970947265625,-41.032310485839844
631,-187.43817138671875,-97.70675659179688,246.8801422119141,-43.10421752929688
632,-190.3365936279297,-104.49093627929688,242.7886962890625,-48.97959899902344
633,-201.08506774902344,-115.75177001953124,237.98666381835938,-49.35733032226562
634,-203.826416015625,-105.46331024169922,242.22023010253903,-48.86366271972656
635,-192.53565979003903,-111.80618286132812,230.65272521972656,-46.96005249023438
636,-190.8190460205078,-109.00873565673828,224.9718170166016,-48.497154235839844
637,-190.40391540527344,-111.30876922607422,228.10958862304688,-46.33549118041992
638,-193.2649383544922,-123.7289810180664,226.40045166015625,-40.07489776611328
639,-177.78175354003906,-115.73681640625,229.97206115722656,-36.985740661621094
640,-195.1648101806641,-104.03840637207031,227.230712890625,-34.943756103515625
641,-198.7887725830078,-115.00379180908205,234.54222106933597,-35.48604202270508
642,-181.41319274902344,-107.45667266845705,244.89051818847656,-21.308080673217773
643,-190.69189453125,-116.9672393798828,228.9622802734375,-34.558544158935554
644,-189.0650329589844,-109.48744201660156,240.08474731445312,-36.32751846313477
645,-189.33804321289062,-107.87928771972656,242.89715576171875,-28.746740341186523
646,-187.3446807861328,-101.59625244140624,245.8292388916016,-31.85833740234375
647,-189.98130798339844,-98.59310913085938,246.2181854248047,-34.10601806640625
648,-196.06613159179688,-92.47837829589844,235.43978881835938,-43.006980895996094
649,-196.0623779296875,-100.7024154663086,243.7872467041016,-37.44948959350586
650,-193.96429443359372,-103.21562957763672,242.07437133789062,-48.96837997436523
651,-199.43577575683597,-110.1157455444336,233.5062561035156,-58.79309844970703
652,-186.6827087402344,-106.2038116455078,232.9864196777344,-47.21062850952149
653,-180.40716552734372,-109.30418395996094,234.41879272460938,-38.27226638793945
654,-173.82493591308594,-110.51217651367188,233.40155029296875,-33.82926559448242
655,-205.64401245117188,-127.69701385498048,210.5133514404297,-32.314605712890625
656,-198.43348693847656,-119.78338623046876,218.9580535888672,-21.93264389038086
657,-194.61505126953125,-127.91767120361328,220.80181884765625,-19.056659698486328
658,-193.6052703857422,-128.99101257324222,222.2566375732422,-22.302892684936523
659,-189.0014495849609,-130.51689147949222,219.8892822265625,-24.494474411010746
660,-181.4917297363281,-121.64585876464844,229.40359497070312,-23.09201240539551
661,-179.8723602294922,-112.62521362304688,239.7556304931641,-22.77412033081055
662,-184.09097290039062,-116.49227142333984,241.10574340820312,-18.02444839477539
663,-185.3139190673828,-120.21347045898438,234.6918182373047,-35.10831069946289
664,-177.92013549804688,-106.7834930419922,238.48033142089844,-41.1108512878418
665,-193.0106201171875,-110.5794906616211,244.3931121826172,-36.81744384765625
666,-195.6510009765625,-108.870361328125,238.9777374267578,-38.82950973510742
667,-186.21148681640625,-98.30513763427734,241.4161529541016,-38.67617416381836
668,-190.8788909912109,-95.12996673583984,243.4543914794922,-48.960899353027344
669,-197.0048370361328,-95.10004425048828,247.72161865234372,-45.18733978271485
670,-195.2358703613281,-98.46595764160156,247.47105407714844,-43.8634147644043
671,-192.8460693359375,-93.28619384765624,241.39370727539062,-47.9586067199707
672,-185.08204650878903,-97.04479217529295,242.3660888671875,-43.328609466552734
673,-184.46121215820312,-99.7786636352539,245.1597900390625,-41.38386154174805
674,-189.39414978027344,-106.61893463134766,239.3966064453125,-46.60476303100586
675,-193.8221893310547,-90.8515167236328,230.9444274902344,-46.32427215576172
676,-188.98275756835938,-102.89773559570312,232.84803771972656,-46.58232498168945
677,-195.49392700195312,-105.82981872558594,236.4832305908203,-38.851951599121094
678,-171.25936889648438,-106.60771942138672,239.8266906738281,-40.39653015136719
679,-188.47787475585938,-107.59130859375,233.4389495849609,-42.12810134887695
680,-190.29171752929688,-106.0205535888672,226.97265625,-45.93157958984375
681,-190.05984497070312,-114.54378509521484,232.8256072998047,-48.007225036621094
682,-180.2388610839844,-105.25013732910156,247.5047149658203,-37.44948959350586
683,-180.5530242919922,-101.1287612915039,237.18258666992188,-42.6180305480957
684,-194.24105834960938,-106.2860870361328,229.0445556640625,-48.90854263305664
685,-189.64471435546875,-90.45509338378906,245.2196350097656,-32.66615676879883
686,-190.38522338867188,-98.23033905029295,248.1330108642578,-32.022891998291016
687,-194.68983459472656,-103.11465454101562,236.8647003173828,-40.17587661743164
688,-195.9763641357422,-102.30683135986328,231.2099609375,-43.14909744262695
689,-192.14671325683597,-97.78903198242188,242.77374267578125,-42.10940170288086
690,-194.6786193847656,-98.11066436767578,250.2310943603516,-40.29555130004883
691,-188.227294921875,-89.91280364990234,247.3850250244141,-34.887657165527344
692,-196.3166961669922,-88.60009765625,238.1362609863281,-43.08551788330078
693,-192.3374481201172,-98.58937072753906,242.994384765625,-40.51246643066406
694,-195.76693725585938,-93.04684448242188,238.8543243408203,-42.58063125610352
695,-182.95404052734372,-102.70700073242188,234.59457397460938,-41.81021118164063
696,-206.5789794921875,-113.9940185546875,226.57623291015625,-44.196266174316406
697,-202.5174560546875,-106.35714721679688,231.292236328125,-41.34646224975586
698,-201.22344970703125,-97.11959075927734,238.6374053955078,-33.63853073120117
699,-192.23272705078125,-104.9210205078125,237.09283447265625,-30.1417236328125
700,-193.89698791503903,-99.04563903808594,235.6978454589844,-33.90032196044922
701,-203.2990875244141,-105.8821792602539,233.52870178222656,-29.80139350891113
702,-202.32672119140625,-105.5792465209961,236.5655059814453,-30.86726379394531
703,-185.5607452392578,-97.45992279052734,242.45957946777344,-30.526933670043945
704,-195.12741088867188,-108.04383850097656,234.9984893798828,-35.96848678588867
705,-195.7332763671875,-100.5416030883789,235.9745941162109,-38.5340576171875
706,-191.7876739501953,-100.27606964111328,240.14459228515625,-35.40376281738281
707,-193.0667266845703,-114.64476013183594,232.38055419921875,-41.72045516967773
708,-201.82557678222656,-102.13853454589844,222.93356323242188,-47.68559265136719
709,-195.03392028808597,-94.15010833740234,240.4400329589844,-43.429588317871094
710,-180.58294677734372,-104.21044158935548,236.6103820800781,-44.39448165893555
711,-205.2999420166016,-98.68660736083984,226.91282653808597,-55.78247833251953
712,-197.1993103027344,-91.22177124023438,227.9076385498047,-53.62455368041992
713,-198.41851806640625,-95.03646850585938,228.44244384765625,-50.67003631591797
714,-197.68923950195312,-95.6834716796875,230.07302856445312,-39.91408157348633
715,-200.69985961914062,-87.93439483642578,223.9208984375,-34.82033920288086
716,-198.5419464111328,-110.2615966796875,220.962646484375,-36.21158218383789
717,-198.17916870117188,-110.78892517089844,221.51988220214844,-28.21941566467285
718,-193.5977935791016,-108.42156982421876,229.32879638671875,-25.68376350402832
719,-194.09893798828125,-102.84163665771484,227.68698120117188,-18.92202377319336
720,-194.166259765625,-104.14686584472656,228.77903747558597,-21.031328201293945
721,-200.74847412109372,-106.7647933959961,233.30056762695312,-24.15040397644043
722,-195.70335388183597,-100.51915740966795,240.458740234375,-21.842885971069336
723,-193.56039428710938,-105.49322509765624,234.3589630126953,-35.29156494140625
724,-195.6696929931641,-114.92151641845705,225.6412506103516,-38.05535125732422
725,-190.83026123046875,-107.9690399169922,228.6219482421875,-39.54757308959961
726,-174.47567749023438,-99.35979461669922,242.6465759277344,-36.08068466186523
727,-199.32357788085938,-104.19922637939452,230.9182586669922,-48.60187149047852
728,-192.02330017089844,-96.487548828125,231.3296356201172,-52.70827865600586
729,-183.5524139404297,-93.01318359375,236.06060791015625,-49.46578598022461
730,-200.86441040039062,-93.82848358154295,234.49359130859372,-47.83893203735352
731,-201.7881774902344,-107.99896240234376,221.05239868164062,-48.10446166992188
732,-198.6803131103516,-106.8096694946289,222.6418609619141,-46.975013732910156
733,-206.73980712890625,-114.6522445678711,219.1450500488281,-48.47471237182617
734,-203.2355194091797,-118.29864501953124,217.8211212158203,-44.42066192626953
735,-195.4452972412109,-116.15568542480469,210.7452392578125,-45.32571792602539
736,-193.2499847412109,-114.7569580078125,214.8553771972656,-39.79814529418945
737,-197.8014373779297,-120.2546157836914,223.30007934570312,-37.78607940673828
738,-195.3106689453125,-125.89437866210938,221.26556396484372,-44.50667953491211
739,-190.91253662109372,-105.80738067626952,229.2165985107422,-23.398683547973636
740,-193.1826629638672,-111.06193542480469,227.4476318359375,-29.79391288757324
741,-185.14935302734372,-109.86143493652344,235.08824157714844,-22.620784759521484
742,-168.75363159179688,-103.98230743408205,238.23724365234372,-25.54538726806641
743,-203.8451232910156,-118.9306869506836,223.64041137695312,-29.9248104095459
744,-196.39149475097656,-114.55500793457031,229.3961181640625,-28.339092254638672
745,-197.3414306640625,-100.84453582763672,241.6031494140625,-27.16102409362793
746,-195.7744140625,-106.91439056396484,238.18487548828125,-28.56722640991211
747,-185.4784698486328,-95.0663833618164,239.16099548339844,-33.61983108520508
748,-193.9830017089844,-94.9429702758789,233.7568359375,-36.83988571166992
749,-201.0962829589844,-101.55511474609376,232.1561584472656,-41.28288650512695
750,-201.2945098876953,-92.57561492919922,243.3534240722656,-45.41173553466797
751,-204.4659423828125,-103.0510711669922,229.3063507080078,-52.62600326538086
752,-203.5720977783203,-107.94660186767578,218.8570709228516,-59.57473754882813
753,-202.65956115722656,-104.73028564453124,227.6944580078125,-48.99456024169922
754,-205.0269317626953,-118.34352111816406,222.7577972412109,-43.40715026855469
755,-200.4717254638672,-114.66345977783205,217.08062744140625,-43.94569396972656
756,-205.08676147460938,-143.07174682617188,198.81495666503903,-56.01809310913086
757,-193.15647888183597,-129.222900390625,215.54351806640625,-35.216766357421875
758,-209.6269989013672,-127.97377014160156,215.93995666503903,-32.47916030883789
759,-198.650390625,-121.16715240478516,215.89134216308597,-25.133996963500977
760,-192.52818298339844,-108.91897583007812,225.43930053710938,-17.216629028320312
761,-196.78793334960938,-113.86686706542969,229.46717834472656,-26.338245391845703
762,-203.5982818603516,-114.58118438720705,230.39093017578125,-28.911296844482425
763,-190.83773803710938,-109.93997192382812,226.50143432617188,-23.447301864624023
764,-196.7841796875,-110.54582977294922,226.6547698974609,-30.62417030334473
765,-197.14321899414062,-103.0735092163086,238.7982177734375,-28.30917358398437
766,-199.8920440673828,-101.57755279541016,241.4872131347656,-25.01058006286621
767,-200.41563415527344,-106.6264190673828,236.7151031494141,-34.43138885498047
768,-191.3762969970703,-90.61216735839844,247.1718597412109,-30.56059265136719
769,-201.1748352050781,-94.0566177368164,247.2915344238281,-35.38880157470703
770,-194.92172241210938,-94.9392318725586,251.2184295654297,-33.881622314453125
771,-193.39208984375,-99.86841583251952,240.7429656982422,-43.47446823120117
772,-201.06637573242188,-99.38970947265624,233.3417053222656,-47.32656478881836
773,-194.14007568359372,-93.83222198486328,245.376708984375,-41.95232772827149
774,-193.2051086425781,-99.78614044189452,239.7369384765625,-48.67292785644531
775,-194.91796875,-101.62242889404295,231.0416717529297,-49.0693588256836
776,-202.62591552734372,-113.37319946289062,227.1933135986328,-47.48363876342773
777,-207.4803009033203,-119.01670837402344,225.1849822998047,-40.39653015136719
778,-207.7757568359375,-118.9905242919922,223.8797607421875,-34.364070892333984
779,-205.9469451904297,-109.18450927734376,219.79205322265625,-28.024940490722656
780,-207.51022338867188,-107.52399444580078,218.2811279296875,-25.586524963378906
781,-204.82122802734372,-111.05819702148438,228.9809875488281,-21.75312805175781
782,-206.9305419921875,-115.75177001953124,229.11561584472656,-27.57241249084473
783,-197.01980590820312,-112.01935577392578,226.0414276123047,-16.064741134643555
784,-196.4962158203125,-117.73766326904295,224.08544921875,-24.71512794494629
785,-202.49874877929688,-116.49227142333984,231.15760803222656,-32.890548706054695
786,-198.9121856689453,-109.57345581054688,231.41940307617188,-33.563732147216804
787,-206.8819122314453,-118.8484115600586,217.6902313232422,-44.02797317504883
788,-191.9372711181641,-102.64716339111328,224.57911682128903,-33.25706100463867
789,-198.1829071044922,-110.77022552490234,230.59661865234372,-39.2446403503418
790,-177.29930114746094,-110.14940643310548,234.0934295654297,-44.304725646972656
791,-201.0439300537109,-115.04867553710938,222.1070556640625,-44.41318130493164
792,-196.99362182617188,-115.73681640625,228.8014678955078,-49.682701110839844
793,-199.7574005126953,-112.65513610839844,229.65415954589844,-45.26961898803711
794,-200.2061920166016,-116.52593231201172,230.2114105224609,-51.58256912231445
795,-194.3719482421875,-118.32108306884766,222.9896697998047,-47.44998168945313
796,-194.1625213623047,-109.64825439453124,220.51385498046875,-37.66266250610352
797,-197.8799743652344,-125.06786346435548,216.3289031982422,-36.14800262451172
798,-194.7085418701172,-112.98798370361328,222.3501434326172,-19.42317008972168
799,-196.9225616455078,-115.78543090820312,211.1940155029297,-25.511728286743164
800,-197.63314819335938,-120.28453063964844,213.04527282714844,-23.61559867858887
801,-195.26953125,-119.45801544189452,217.9482727050781,-21.25946044921875
802,-194.7683868408203,-114.30817413330078,226.9315185546875,-18.06932640075684
803,-190.7330322265625,-118.47441864013672,223.22154235839844,-25.982954025268555
804,-193.9044647216797,-114.1511001586914,222.0920867919922,-33.00648880004883
805,-193.0106201171875,-109.04613494873048,230.47320556640625,-29.51716041564941
806,-177.48629760742188,-104.67044830322266,235.84744262695312,-26.78703308105469
807,-204.4958648681641,-108.7170181274414,226.1573638916016,-33.41039657592773
808,-200.07530212402344,-105.47452545166016,229.66912841796875,-37.02313995361328
809,-196.9711761474609,-103.6943359375,239.613525390625,-35.81889343261719
810,-192.5244445800781,-102.59854888916016,239.45269775390625,-37.05305862426758
811,-195.0974884033203,-101.8056869506836,229.15301513671875,-51.98648071289063
812,-180.5118865966797,-97.60578155517578,237.68746948242188,-45.84182357788086
813,-185.6953887939453,-109.59215545654295,235.7090606689453,-51.01410675048828
814,-187.1614227294922,-105.08184051513672,239.41905212402344,-41.29036712646485
815,-185.4635162353516,-108.3318099975586,232.6947021484375,-53.265525817871094
816,-188.1113586425781,-106.0654296875,228.0834045410156,-51.79948425292969
817,-184.94366455078125,-104.1543426513672,236.2588348388672,-53.84894943237305
818,-190.91253662109372,-120.18729400634766,225.6487274169922,-48.64300918579102
819,-187.30728149414062,-119.28971862792969,224.3921203613281,-44.36082458496094
820,-195.32188415527344,-126.51520538330078,212.71615600585938,-48.7103271484375
821,-195.351806640625,-121.25316619873048,225.3121490478516,-33.574951171875
822,-199.20016479492188,-136.41471862792972,220.2258758544922,-42.58063125610352
823,-188.84063720703125,-118.30612182617188,231.3408660888672,-28.26803398132324
824,-184.6295166015625,-115.7966537475586,228.2891082763672,-33.97886276245117
825,-186.08807373046875,-125.26233673095705,226.49395751953125,-30.05944633483887
826,-187.8009490966797,-124.42459869384766,223.22901916503903,-36.43223571777344
827,-197.6032257080078,-110.05964660644531,222.3538818359375,-33.01770782470703
828,-189.15478515625,-99.93199920654295,236.2176971435547,-28.94869613647461
829,-193.8072204589844,-118.68385314941406,234.47116088867188,-39.51391220092773
830,-188.567626953125,-107.28463745117188,237.3134765625,-33.919021606445305
831,-184.4836578369141,-101.6448745727539,232.9864196777344,-31.30483245849609
832,-200.1538391113281,-115.0972900390625,225.55897521972656,-51.60874938964844
833,-197.5994873046875,-110.6804656982422,236.7674560546875,-45.66604995727539
834,-191.31271362304688,-111.43966674804688,231.3483428955078,-43.42584991455078
835,-192.87973022460938,-105.8821792602539,223.7152099609375,-46.802978515625
836,-201.5937042236328,-117.60302734375,216.05589294433597,-53.48244094848633
837,-192.24020385742188,-117.89847564697266,217.41346740722656,-46.70948028564453
838,-196.73556518554688,-117.18041229248048,216.878662109375,-34.53236770629883
839,-194.0390930175781,-122.95855712890624,213.04901123046875,-33.694629669189446
840,-199.66017150878903,-125.81210327148438,208.0375518798828,-32.699813842773445
841,-202.4538726806641,-120.98763275146484,219.22732543945312,-32.12387084960937
842,-177.3441925048828,-125.52039337158205,227.3503875732422,-20.507741928100586
843,-201.74703979492188,-122.42375183105469,222.1519317626953,-27.66217041015625
844,-202.73062133789062,-123.3662109375,223.6815490722656,-31.65264320373535
845,-196.94126892089844,-122.37513732910156,226.5276031494141,-24.67773056030273
846,-206.2498779296875,-123.3250732421875,223.6778106689453,-35.61693572998047
847,-198.5606384277344,-123.68035888671876,218.50552368164062,-32.187450408935554
848,-194.90675354003903,-116.91114044189452,220.70458984375,-38.57519912719727
849,-192.980712890625,-108.27945709228516,228.7603302001953,-39.45781326293945
850,-191.795166015625,-115.87519073486328,232.8330841064453,-46.821678161621094
851,-192.03077697753903,-108.33929443359376,233.4688720703125,-44.70489501953125
852,-195.37049865722656,-110.04094696044922,221.68443298339844,-45.08636474609375
853,-195.6846618652344,-112.7261962890625,231.9055938720703,-39.98514175415039
854,-200.2622985839844,-119.13638305664062,223.89471435546875,-38.18998718261719
855,-201.6161346435547,-120.22095489501952,211.34735107421875,-35.56831741333008
856,-201.64231872558597,-126.68724060058594,201.73580932617188,-37.95811462402344
857,-212.0915985107422,-144.0553436279297,198.63169860839844,-39.25960159301758
858,-205.83848571777344,-130.13917541503906,208.662109375,-25.23123550415039
859,-197.36387634277344,-130.46080017089844,206.1526336669922,-19.75602149963379
860,-202.26687622070312,-126.81066131591795,211.7437896728516,-27.015167236328125
861,-186.33116149902344,-121.79544830322266,220.24832153320312,-25.5940055847168
862,-182.48280334472656,-115.97616577148438,229.9346618652344,-19.55032730102539
863,-195.41163635253903,-105.4595718383789,229.84864807128903,-26.39808464050293
864,-196.64581298828125,-114.08751678466795,231.41940307617188,-28.41389083862305
865,-198.6915283203125,-114.36427307128906,235.56320190429688,-32.37444305419922
866,-190.2206573486328,-108.76564025878906,244.0752258300781,-32.54647827148437
867,-196.1745758056641,-113.41433715820312,231.81956481933597,-35.78523254394531
868,-189.2520294189453,-106.48429870605469,233.9999237060547,-39.81310653686523
869,-192.2626495361328,-111.07689666748048,242.26510620117188,-40.3890495300293
870,-196.73182678222656,-113.2348175048828,238.8131866455078,-48.45227432250977
871,-196.39149475097656,-112.41204071044922,230.08425903320312,-56.05175018310547
872,-187.91314697265625,-110.10826110839844,226.1985015869141,-50.14645004272461
873,-190.1383819580078,-107.94286346435548,229.36993408203125,-52.78307723999024
874,-192.83859252929688,-106.59649658203124,234.50482177734372,-49.40594863891602
875,-191.58946228027344,-107.84188842773438,224.02561950683597,-56.71745300292969
876,-191.9671936035156,-100.47054290771484,229.70278930664062,-48.41113662719727
877,-193.07046508789062,-119.80582427978516,232.0963287353516,-38.8930892944336
878,-188.97901916503903,-120.82682037353516,228.94358825683597,-39.24090194702149
879,-194.4990997314453,-115.95746612548828,213.7408905029297,-39.6074104309082
880,-192.10557556152344,-127.55490112304688,209.05479431152344,-41.69427490234375
881,-194.166259765625,-136.16415405273438,211.26507568359372,-47.49485778808594
882,-174.6739044189453,-122.1395263671875,223.4122772216797,-42.35997772216797
883,-199.28244018554688,-131.2947998046875,210.2590484619141,-43.81853866577149
884,-184.3789367675781,-119.47671508789062,219.1787109375,-44.099029541015625
885,-186.4882354736328,-117.2028579711914,228.68179321289062,-38.96040725708008
886,-183.0662384033203,-117.06073760986328,237.9978790283203,-37.74494171142578
887,-174.64772033691406,-101.32698059082031,245.7245178222656,-30.14920425415039
888,-184.9286956787109,-110.4149398803711,238.4578857421875,-41.85134887695313
889,-184.13584899902344,-107.03780364990234,243.5478973388672,-40.10107803344727
890,-189.6708984375,-109.68939208984376,237.406982421875,-41.94858932495117
891,-189.82049560546875,-116.06966400146484,229.7140045166016,-51.64988708496094
892,-186.4882354736328,-115.73681640625,234.8526306152344,-40.04497909545898
893,-184.0834808349609,-114.6933822631836,239.66961669921875,-44.12894821166992
894,-183.0138702392578,-119.83948516845705,235.1892242431641,-40.99865341186523
895,-196.6495513916016,-118.7474365234375,222.11827087402344,-50.20254516601562
896,-190.48992919921875,-120.2920150756836,219.5601806640625,-42.15428161621094
897,-190.74798583984372,-127.07618713378906,224.91197204589844,-32.696075439453125
898,-187.75233459472656,-132.19985961914062,219.35821533203125,-39.44659423828125
899,-181.1813201904297,-122.19187927246094,225.869384765625,-22.99477577209473
900,-170.8031005859375,-130.31494140625,220.7943420410156,-25.35091209411621
901,-201.5338592529297,-143.7150115966797,208.1684417724609,-37.06053924560547
902,-197.74908447265625,-132.34945678710938,214.8965148925781,-28.55226707458496
903,-191.537109375,-134.35029602050778,218.3708953857422,-22.512327194213867
904,-184.7828521728516,-129.43606567382812,226.0264587402344,-25.156436920166016
905,-187.6027374267578,-122.57334899902344,223.96951293945312,-34.48000717163086
906,-189.76812744140625,-121.66829681396484,231.71485900878903,-30.994421005249023
907,-181.6974334716797,-124.046875,229.83741760253903,-33.00274658203125
908,-181.9928741455078,-108.01017761230469,229.6504211425781,-32.17248916625977
909,-187.77476501464844,-118.35100555419922,234.45245361328125,-34.457569122314446
910,-181.79466247558597,-115.9013671875,237.45933532714844,-39.81684494018555
911,-188.94161987304688,-111.16291809082031,237.86325073242188,-32.96908950805664
912,-196.44384765625,-119.77964782714844,230.2263641357422,-41.28662490844727
913,-198.3063201904297,-116.31649780273438,230.13287353515625,-37.43078994750977
914,-195.2283935546875,-113.56019592285156,237.12648010253903,-37.27371215820313
915,-181.6263732910156,-102.82293701171876,230.72378540039062,-36.09938430786133
916,-188.92665100097656,-122.06098175048828,216.0521545410156,-39.9888801574707
917,-199.11788940429688,-122.75286865234376,221.291748046875,-29.18804931640625
918,-196.4850006103516,-123.29515075683594,222.8251037597656,-26.1923885345459
919,-186.00205993652344,-124.64525604248048,220.6073455810547,-20.773273468017575
920,-196.77670288085938,-128.84890747070312,211.34361267089844,-29.01975440979004
921,-197.0347595214844,-128.02238464355472,225.4692230224609,-16.049779891967773
922,-186.6902008056641,-132.62246704101562,229.50082397460938,-15.028787612915039
923,-183.23452758789062,-129.77639770507812,224.1639862060547,-10.148218154907227
924,-184.1470642089844,-121.6421127319336,223.2963409423828,-15.384078025817873
925,-183.75811767578125,-131.14520263671878,231.0080108642578,-19.871957778930664
926,-189.86911010742188,-127.36416625976562,236.19151306152344,-26.244747161865234
927,-190.5123748779297,-124.13662719726562,231.7372894287109,-25.64262390136719
928,-182.87176513671875,-113.47417449951172,234.8189697265625,-24.049427032470703
929,-190.0523681640625,-121.5448760986328,238.3494415283203,-25.18635559082031
930,-189.1323547363281,-122.5808334350586,236.9058380126953,-33.791866302490234
931,-184.34527587890625,-115.7592544555664,232.12249755859372,-34.13967514038086
932,-183.70574951171875,-112.61399841308594,237.0591735839844,-34.90261459350586
933,-172.5421600341797,-112.23626708984376,243.2487030029297,-41.33898544311523
934,-193.9306488037109,-114.11370086669922,240.1670227050781,-41.294105529785156
935,-201.86297607421875,-128.366455078125,222.79519653320312,-58.677162170410156
936,-186.619140625,-111.31251525878906,239.1422882080078,-37.59534454345703
937,-190.5535125732422,-113.33953857421876,235.22288513183597,-37.81973648071289
938,-199.67886352539062,-123.54198455810548,224.6015625,-40.7518196105957
939,-202.5211944580078,-140.13218688964844,211.52687072753903,-41.98224639892578
940,-196.93377685546875,-137.67880249023438,205.0194396972656,-46.8441162109375
941,-190.57595825195312,-127.83538818359376,216.76646423339844,-33.6160888671875
942,-191.19677734375,-128.29165649414062,219.5040740966797,-27.793066024780273
943,-187.4868011474609,-121.17462921142578,212.16265869140625,-23.75771522521973
944,-185.66172790527344,-122.56961059570312,209.27171325683597,-35.931087493896484
945,-192.55435180664062,-140.81283569335938,210.58067321777344,-39.41293716430664
946,-187.79721069335938,-123.68035888671876,227.37283325195312,-31.86207771301269
947,-177.49752807617188,-117.07196044921876,223.22901916503903,-33.62731170654297
948,-179.96585083007812,-126.61244201660156,218.6588592529297,-39.50269317626953
949,-195.74449157714844,-132.32701110839844,216.7702178955078,-49.09927749633789
950,-188.1001434326172,-116.14446258544922,227.8964080810547,-40.38531112670898
951,-173.84364318847656,-112.5279769897461,233.52122497558597,-38.8930892944336
952,-184.21812438964844,-114.10621643066406,230.86962890625,-40.22075271606445
953,-193.16770935058597,-121.43267822265624,228.0534820556641,-40.59474563598633
954,-190.7554626464844,-120.86795806884766,229.3848876953125,-37.12411880493164
955,-182.3294677734375,-117.50204467773438,221.03369140625,-45.39677429199219
956,-184.04981994628903,-118.70629119873048,218.8570709228516,-50.25116729736328
957,-203.5833282470703,-128.41506958007812,213.59503173828125,-55.92085266113281
958,-190.7367706298828,-119.94419860839844,221.8452606201172,-43.53056716918945
959,-199.001953125,-133.46394348144528,204.8511505126953,-52.64844131469727
960,-206.47052001953125,-131.85578918457028,203.1644592285156,-50.35588455200195
961,-187.0903625488281,-129.13687133789062,225.9105224609375,-38.45552062988281
962,-197.22923278808597,-122.05350494384766,227.0624084472656,-32.034114837646484
963,-187.57655334472656,-112.18390655517578,229.2539978027344,-29.09829139709473
964,-194.0390930175781,-114.89907836914062,223.48333740234372,-31.18889617919922
965,-201.4141845703125,-112.03057098388672,228.47235107421875,-27.06004524230957
966,-191.454833984375,-115.20574951171876,239.83042907714844,-25.773521423339844
967,-194.2896728515625,-113.8107681274414,235.05831909179688,-29.64805603027344
968,-198.66162109375,-112.59903717041016,227.34664916992188,-38.45926284790039
969,-190.63204956054688,-123.85987854003906,241.55453491210938,-28.802839279174805
970,-189.7157745361328,-112.83464813232422,245.77313232421875,-27.98754119873047
971,-178.75038146972656,-107.27716064453124,236.52810668945312,-30.422216415405273
972,-198.9495849609375,-115.12347412109376,222.04347229003903,-40.037498474121094
973,-202.9849395751953,-118.1303482055664,234.24676513671875,-37.69632339477539
974,-198.81121826171875,-117.81993865966795,225.26351928710938,-44.03171157836914
975,-200.8980712890625,-111.30876922607422,214.2869110107422,-42.93592071533203
976,-197.29281616210938,-117.7862777709961,214.1260986328125,-39.697166442871094
977,-201.1112518310547,-124.96688842773438,220.0688018798828,-35.8338508605957
978,-199.5180511474609,-114.76818084716795,221.9275360107422,-32.66989517211914
979,-196.4662933349609,-115.06362915039062,220.25205993652344,-26.577598571777344
980,-197.97348022460938,-124.38346099853516,215.61831665039062,-29.087072372436523
981,-198.2352600097656,-121.93756866455078,224.20513916015625,-24.733827590942386
982,-185.0558624267578,-106.11031341552734,237.77723693847656,-12.956883430480955
983,-197.36761474609372,-116.69422912597656,222.5670623779297,-29.57699966430664
984,-178.226806640625,-114.7532196044922,228.35641479492188,-14.662278175354006
985,-189.5512237548828,-125.21746063232422,228.4050445556641,-32.082733154296875
986,-173.92965698242188,-114.90655517578124,245.4178466796875,-28.09225845336914
987,-187.45687866210938,-109.08353424072266,233.27438354492188,-32.94664764404297
988,-194.47293090820312,-121.4401626586914,228.5995178222656,-40.25067138671875
989,-188.7247009277344,-111.2003173828125,244.04156494140625,-38.34706497192383
990,-172.3327178955078,-107.75586700439452,246.7342834472656,-36.72394943237305
991,-196.88890075683597,-105.18655395507812,236.8534698486328,-35.325225830078125
992,-186.28628540039062,-105.96819305419922,239.5648956298828,-35.64311599731445
993,-186.99313354492188,-105.91209411621094,238.4204864501953,-43.485687255859375
994,-192.1841125488281,-108.60856628417969,232.4366455078125,-47.988525390625
995,-182.92037963867188,-111.95203399658205,236.890869140625,-46.64216232299805
996,-177.22450256347656,-104.80882263183594,236.31118774414062,-36.49581527709961
997,-195.26953125,-110.93104553222656,239.1535186767578,-39.95148086547852
998,-189.7905731201172,-112.56537628173828,234.4412384033203,-46.4327278137207
999,-186.7799530029297,-112.62147521972656,223.58804321289062,-50.258644104003906
1000,-186.9183349609375,-103.11839294433594,225.1101837158203,-44.1850471496582
1001,-194.7683868408203,-116.92610168457031,229.0520477294922,-52.30437088012695
1002,-187.92062377929688,-108.43653106689452,232.20851135253903,-36.75012588500977
1003,-184.86512756347656,-107.8306655883789,228.2030792236328,-43.12665557861328
1004,-183.58233642578125,-109.55101776123048,228.7341461181641,-37.53176498413086
1005,-192.9376983642578,-117.20472717285156,231.03045654296875,-41.59329605102539
1006,-183.41964721679688,-101.5158462524414,237.3695831298828,-28.6158447265625
1007,-184.49301147460938,-103.5017318725586,234.41131591796875,-45.98394012451172
1008,-184.0816192626953,-110.72348022460938,238.06146240234372,-45.51271438598633
1009,-193.4949493408203,-114.89346313476562,237.17510986328125,-53.38520050048828
1010,-179.1150360107422,-120.69031524658205,231.82330322265625,-52.21087265014648
1011,-181.0223846435547,-111.35926055908205,233.79049682617188,-46.249473571777344
1012,-184.242431640625,-118.14344024658205,230.54052734375,-46.34297180175781
1013,-191.39312744140625,-112.83277893066406,233.7231750488281,-46.67956161499024
1014,-194.3813018798828,-125.8064956665039,227.42518615722656,-47.29290390014648
1015,-196.1577453613281,-117.39920043945312,223.3150329589844,-43.68390274047852
1016,-191.5688934326172,-114.31004333496094,219.56765747070312,-42.73770523071289
1017,-192.90777587890625,-125.75787353515624,223.73390197753903,-47.87258911132813
1018,-200.9560394287109,-125.15949249267578,222.488525390625,-54.301475524902344
1019,-187.2493133544922,-112.82530212402344,224.1265869140625,-51.63118743896485
1020,-193.74925231933597,-105.55867767333984,228.40130615234372,-49.75749969482422
1021,-193.38275146484372,-115.17395782470705,232.829345703125,-41.32776260375977
1022,-194.90489196777344,-108.8871841430664,233.5436553955078,-40.07489776611328
1023,-189.01454162597656,-114.14922332763672,231.56900024414062,-36.42475509643555
1024,-195.97824096679688,-106.8152847290039,226.8866424560547,-37.08297729492188
1025,-195.45838928222656,-119.7815170288086,232.8069000244141,-39.29325866699219
1026,-187.92623901367188,-118.72686767578124,236.8871307373047,-30.78498649597168
1027,-193.46128845214844,-122.32838439941406,223.4010467529297,-41.62321472167969
1028,-194.2990264892578,-122.18627166748048,226.0077667236328,-41.9448471069336
1029,-197.44427490234372,-120.85860443115234,229.7252197265625,-43.63154220581055
1030,-192.3842010498047,-119.02605438232422,236.6739654541016,-39.58871078491211
1031,-195.75010681152344,-126.2889404296875,221.6769561767578,-51.61248779296875
1032,-189.97569274902344,-109.2424774169922,232.04769897460938,-45.83434295654297
1033,-173.9053497314453,-114.77005004882812,232.4104766845703,-51.69850540161133
1034,-193.7866516113281,-118.09481811523438,228.4761047363281,-57.52901077270508
1035,-202.6913604736328,-116.19495391845705,224.0555419921875,-50.67003631591797
1036,-195.8922271728516,-119.11955261230469,229.3998565673828,-46.971275329589844
1037,-198.98138427734372,-117.90408325195312,228.5097503662109,-41.21930694580078
1038,-200.08090209960938,-127.09676361083984,222.1332244873047,-47.79030990600586
1039,-200.6344146728516,-116.13511657714844,225.34954833984372,-44.12520980834961
1040,-196.2624664306641,-120.67535400390624,226.725830078125,-42.27396011352539
1041,-202.68014526367188,-122.72107696533205,232.06640625,-36.67158889770508
1042,-205.24945068359372,-122.30968475341795,226.11248779296875,-38.57145690917969
1043,-196.35223388671875,-120.23030090332031,227.70193481445312,-36.21158218383789
1044,-204.02276611328125,-124.80046081542969,221.9611968994141,-30.82238578796387
1045,-204.2396697998047,-119.87127685546876,229.9010009765625,-31.521747589111328
1046,-204.9614715576172,-123.64857482910156,230.2114105224609,-33.22714233398437
1047,-206.8950042724609,-124.93883514404295,226.2620849609375,-37.464447021484375
1048,-208.29373168945312,-121.2662582397461,221.73306274414062,-37.7075424194336
1049,-194.3738250732422,-116.20616912841795,235.38743591308597,-33.417877197265625
1050,-200.6044921875,-117.58245086669922,235.0732879638672,-42.46095275878906
1051,-187.41012573242188,-110.34201049804688,238.36813354492188,-37.36347198486328
1052,-195.73887634277344,-124.0038604736328,227.54486083984372,-50.89068984985352
1053,-198.7794189453125,-120.46965789794922,232.76202392578125,-47.03111267089844
1054,-200.71669006347656,-123.29328155517578,228.1208038330078,-49.13667678833008
1055,-188.4685211181641,-129.91664123535156,224.88954162597656,-57.91048049926758
1056,-206.2779235839844,-121.05682373046876,229.766357421875,-54.982139587402344
1057,-206.7828063964844,-123.4765396118164,227.6084442138672,-61.2876091003418
1058,-201.93589782714844,-118.16961669921876,233.2930908203125,-61.63916015625
1059,-197.2273712158203,-120.00965118408205,222.5670623779297,-56.51923751831055
1060,-201.00091552734372,-123.19230651855469,219.75091552734372,-61.429725646972656
1061,-204.1611328125,-130.5262451171875,220.88409423828125,-62.7237319946289
1062,-199.41146850585938,-115.99673461914062,229.437255859375,-46.249473571777344
1063,-201.25897216796875,-128.20750427246094,215.05360412597656,-48.79634475708008
1064,-201.6965484619141,-125.42876434326172,216.3663024902344,-47.51729965209961
1065,-204.49398803710938,-137.98735046386722,217.36111450195312,-40.85279846191406
1066,-205.54864501953125,-133.42840576171878,217.9370574951172,-37.80851745605469
1067,-201.51329040527344,-124.92013549804688,218.2549591064453,-36.334999084472656
1068,-202.24256896972656,-131.77911376953122,216.22044372558597,-41.8438720703125
1069,-202.85964965820312,-123.86548614501952,229.9309234619141,-40.57978439331055
1070,-195.29010009765625,-122.1301727294922,235.05831909179688,-34.704402923583984
1071,-193.3453521728516,-119.61695861816406,229.0931854248047,-38.40316390991211
1072,-192.46273803710938,-121.55796813964844,223.18040466308597,-44.192527770996094
1073,-200.2678985595703,-122.21619415283205,230.9257354736328,-46.11857604980469
1074,-187.8439483642578,-111.24706268310548,233.8540802001953,-39.44285583496094
1075,-204.72586059570312,-119.93859100341795,223.2178039550781,-47.19940567016602
1076,-194.9161071777344,-109.1676788330078,236.27752685546875,-44.99286651611328
1077,-189.4558563232422,-120.03582763671876,234.1944122314453,-58.28446960449219
1078,-193.6595001220703,-101.9795913696289,239.40408325195312,-45.52019119262695
1079,-203.4505615234375,-106.58341217041016,233.8877258300781,-47.00867080688477
1080,-214.430908203125,-117.48521423339844,229.4335174560547,-55.37856674194336
1081,-208.72755432128903,-104.50028228759766,238.31578063964844,-41.73167419433594
1082,-211.3305206298828,-118.77174377441406,229.0557861328125,-49.13667678833008
1083,-208.97813415527344,-122.20123291015624,217.12176513671875,-54.069602966308594
1084,-205.8665313720703,-121.98431396484376,212.49176025390625,-51.64241027832031
1085,-207.212890625,-130.12982177734378,216.26905822753903,-49.43212890625
1086,-206.99972534179688,-126.83496856689452,222.32395935058597,-44.81335067749024
1087,-199.75180053710938,-118.81661987304688,225.4093780517578,-44.304725646972656
1088,-202.11541748046875,-124.12354278564452,223.09063720703125,-43.71755981445313
1089,-196.25125122070312,-124.01134490966795,229.91595458984372,-44.82083129882813
1090,-196.6514129638672,-118.35287475585938,235.78759765625,-42.75640487670898
1091,-204.1312255859375,-126.04959106445312,222.94479370117188,-48.24283981323242
1092,-205.6084747314453,-110.2634735107422,222.06216430664062,-53.3291015625
1093,-195.7762756347656,-113.7602767944336,232.8368225097656,-40.4114875793457
1094,-197.62005615234372,-104.48158264160156,236.9507141113281,-39.917823791503906
1095,-191.6362152099609,-103.31099700927734,232.1972961425781,-47.48738098144531
1096,-191.3594665527344,-101.16055297851562,232.1898193359375,-47.61453628540039
1097,-196.35223388671875,-108.44587707519531,238.0913848876953,-65.04247283935547
1098,-193.0050201416016,-102.18154907226562,239.55368041992188,-53.89008712768555
1099,-184.71739196777344,-105.17346954345705,231.77468872070312,-54.68294906616211
1100,-218.86642456054688,-112.1371612548828,223.25894165039062,-65.22946166992189
1101,-211.9700469970703,-116.3931655883789,225.3532867431641,-57.60380935668945
1102,-215.33221435546875,-115.6713638305664,222.4847717285156,-54.4211540222168
1103,-200.9859619140625,-113.8836898803711,216.23541259765625,-47.85388946533203
1104,-213.7277984619141,-126.9658660888672,207.9440460205078,-47.588356018066406
1105,-213.44357299804688,-125.48860168457031,217.13671875,-40.77799987792969
1106,-203.2111968994141,-112.30545806884766,227.4102325439453,-31.68256187438965
1107,-207.5756683349609,-120.09192657470705,218.7972412109375,-30.287580490112305
1108,-205.51498413085938,-106.2168960571289,228.1245422363281,-28.76918029785156
1109,-205.81417846679688,-113.3189697265625,224.65391540527344,-35.06717300415039
1110,-201.0719757080078,-111.90902709960938,229.1754608154297,-39.87668228149414
1111,-198.30072021484372,-117.92278289794922,224.91944885253903,-48.44853210449219
1112,-201.5058135986328,-107.2977294921875,227.5560760498047,-50.69621276855469
1113,-198.6036529541016,-101.94219207763672,234.9049835205078,-50.408241271972656
1114,-197.2834625244141,-105.78681182861328,244.4417266845703,-49.39472961425781
1115,-190.28985595703125,-89.19287109375,247.30648803710938,-53.42259979248047
1116,-183.737548828125,-96.45950317382812,243.13650512695312,-55.22149276733398
1117,-194.2616271972656,-100.03858184814452,247.98715209960938,-60.78272247314453
1118,-176.63922119140625,-97.3570785522461,250.5639495849609,-55.176612854003906
1119,-205.9001922607422,-101.18299102783205,236.2476043701172,-55.01205825805664
1120,-199.2917938232422,-102.17406463623048,231.65875244140625,-59.50741958618164
1121,-210.04026794433597,-105.95884704589844,232.3543701171875,-63.10894012451172
1122,-205.6496124267578,-114.1828842163086,225.64498901367188,-60.71540451049805
1123,-202.69509887695312,-120.21908569335938,219.096435546875,-66.20932006835939
1124,-207.8972930908203,-122.43684387207031,212.6862335205078,-58.31064987182617
1125,-196.31109619140625,-105.31184387207031,225.31588745117188,-46.33922958374024
1126,-205.099853515625,-118.83158111572266,225.7983245849609,-37.3185920715332
1127,-202.07054138183597,-117.7357940673828,219.5901031494141,-40.81913757324219
1128,-203.7011260986328,-105.98502349853516,224.2574920654297,-33.17104339599609
1129,-201.1243438720703,-121.09422302246094,237.63511657714844,-28.69812202453613
1130,-197.70606994628903,-105.6110382080078,244.7895355224609,-21.94012260437012
1131,-195.80245971679688,-110.27842712402344,242.22396850585938,-36.66785049438477
1132,-178.88690185546875,-90.98802947998048,244.60629272460938,-35.089611053466804
1133,-213.409912109375,-110.21111297607422,230.98556518554688,-55.8871955871582
1134,-192.0924835205078,-98.00033569335938,253.5558624267578,-48.47845458984375
1135,-188.45730590820312,-105.84664916992188,245.34678649902344,-53.52357864379883
1136,-182.6791534423828,-95.66290283203124,249.9618225097656,-54.73904418945313
1137,-196.6215057373047,-93.6246566772461,251.4428253173828,-54.53709030151367
1138,-196.5467071533203,-94.09588623046876,254.3636932373047,-61.9495735168457
1139,-181.1196136474609,-84.31604766845703,255.5492401123047,-51.88550186157226
1140,-188.0683441162109,-95.39736938476562,246.0835418701172,-52.03135681152344
1141,-198.3194122314453,-108.41596221923828,242.50445556640625,-54.16683959960938
1142,-191.00042724609372,-105.83917236328124,246.2107086181641,-55.99939346313477
1143,-196.31483459472656,-118.75678253173828,224.3472442626953,-62.73869323730469
1144,-191.72970581054688,-110.3457489013672,221.3403625488281,-61.50826644897461
1145,-189.51568603515625,-123.3194580078125,225.9105224609375,-57.18867874145508
1146,-195.8809967041016,-117.8180694580078,225.1176605224609,-57.042823791503906
1147,-201.6853179931641,-121.92447662353516,215.3677520751953,-56.429481506347656
1148,-177.94070434570312,-106.00372314453124,232.24591064453125,-28.87763786315918
1149,-194.0596618652344,-112.66448974609376,231.0753326416016,-38.02543258666992
1150,-182.6380157470703,-101.92349243164062,241.4722442626953,-23.724056243896484
1151,-209.759765625,-102.66399383544922,229.2016448974609,-29.87993049621582
1152,-201.6965484619141,-116.3894271850586,225.8880920410156,-43.63528442382813
1153,-202.75868225097656,-108.84978485107422,228.79025268554688,-42.78632354736328
1154,-189.0369873046875,-105.6671371459961,238.66732788085938,-37.74494171142578
1155,-190.5030212402344,-111.26576232910156,228.89122009277344,-54.40619277954102
1156,-189.05194091796875,-100.8314437866211,234.24676513671875,-48.691627502441406
1157,-197.0777740478516,-102.22268676757812,233.2818756103516,-56.3397216796875
1158,-197.2685089111328,-105.65591430664062,231.83827209472656,-58.909034729003906
1159,-187.2156524658203,-97.36829376220705,235.3575134277344,-55.82735824584961
1160,-199.18707275390625,-108.69271087646484,229.1904144287109,-58.23959350585938
1161,-194.5421142578125,-102.48448181152344,241.3638000488281,-44.5552978515625
1162,-202.16403198242188,-114.28012084960938,234.07846069335938,-49.04317855834961
1163,-202.6053466796875,-101.43730926513672,223.35243225097656,-50.62515640258789
1164,-192.01768493652344,-106.8564224243164,221.73306274414062,-44.14017105102539
1165,-198.3605499267578,-114.9458236694336,222.8064117431641,-38.40690231323242
1166,-197.7135467529297,-124.21703338623048,223.46463012695312,-42.52827072143555
1167,-184.21624755859372,-118.40897369384766,221.14588928222656,-46.30183029174805
1168,-205.9936828613281,-122.010498046875,221.54232788085938,-37.46070861816406
1169,-201.4871063232422,-119.01109313964844,232.4665679931641,-31.15897560119629
1170,-197.8519287109375,-118.85028076171876,232.38803100585938,-30.265140533447266
1171,-190.99668884277344,-125.61202239990234,223.6104888916016,-36.78752517700195
1172,-190.5142364501953,-110.22232818603516,232.91162109375,-24.958221435546875
1173,-193.6520233154297,-111.48641967773438,245.09246826171875,-37.21761322021485
1174,-198.6634826660156,-118.62214660644531,232.71714782714844,-51.11508178710938
1175,-193.68194580078125,-112.41390991210938,230.26751708984372,-48.20917892456055
1176,-188.3413543701172,-101.94593048095705,237.3920135498047,-48.56072998046875
1177,-190.57408142089844,-98.606201171875,241.70411682128903,-57.75714492797852
1178,-187.02491760253903,-101.78885650634766,242.12673950195312,-51.65362930297852
1179,-188.2964782714844,-88.89368438720703,241.5133819580078,-48.91976165771485
1180,-187.0772705078125,-100.2517547607422,239.02261352539062,-57.29713821411133
1181,-181.5384826660156,-98.55758666992188,245.1597900390625,-56.68379211425781
1182,-185.6710662841797,-103.79344177246094,235.0209197998047,-61.99445343017578
1183,-175.8874969482422,-100.7117691040039,230.15158081054688,-68.89456939697266
1184,-194.51593017578125,-96.03314971923828,231.2473602294922,-59.46253967285156
1185,-182.7950897216797,-97.07284545898438,240.6382598876953,-57.74966430664063
1186,-186.7967834472656,-104.5863037109375,231.91680908203125,-61.556884765625
1187,-184.8856964111328,-106.4712142944336,226.5126495361328,-62.3908805847168
1188,-184.5640563964844,-106.07478332519531,223.6553649902344,-59.78042984008789
1189,-183.41964721679688,-109.1452407836914,226.1311798095703,-52.165992736816406
1190,-191.79702758789062,-109.62394714355469,230.0618133544922,-47.37518310546875
1191,-181.0709991455078,-89.09563446044922,236.5692443847656,-37.58038330078125
1192,-187.0585784912109,-106.28795623779295,231.0678558349609,-47.75665283203125
1193,-194.01104736328125,-114.5045166015625,227.5747833251953,-57.67486572265625
1194,-181.08969116210938,-99.8328857421875,235.9745941162109,-49.74253845214844
1195,-195.3985595703125,-101.82999420166016,223.85731506347656,-59.92628860473633
1196,-184.0741424560547,-100.1096420288086,231.31468200683597,-54.12944030761719
1197,-196.4045867919922,-112.83277893066406,229.9346618652344,-65.82036590576172
1198,-174.47755432128906,-97.33089447021484,242.7774810791016,-49.18903350830078
1199,-198.76446533203125,-99.6458969116211,227.2232360839844,-57.274696350097656
1200,-199.82286071777344,-105.32305908203124,222.4922637939453,-65.52491760253906
1201,-203.12892150878903,-114.93460845947266,218.55413818359372,-65.73809051513672
1202,-197.18247985839844,-104.13377380371094,231.0753326416016,-62.230064392089844
1203,-192.6385040283203,-116.30340576171876,215.1919708251953,-78.1957015991211
1204,-186.17596435546875,-94.03978729248048,226.2545928955078,-60.30027770996094
1205,-194.2803192138672,-113.83881378173828,223.16917419433597,-59.75425338745117
1206,-193.4912109375,-115.7779541015625,228.35829162597656,-54.5614013671875
1207,-187.6158142089844,-102.46016693115234,235.39303588867188,-45.06205368041992
1208,-196.8085021972656,-115.3740463256836,225.4972686767578,-49.01512908935547
1209,-193.97738647460938,-115.16835021972656,231.0585021972656,-45.34254837036133
1210,-176.94215393066406,-114.46524810791016,236.7618408203125,-38.7042236328125
1211,-201.7115020751953,-120.82682037353516,230.94256591796875,-46.9918441772461
1212,-187.55972290039062,-113.2348175048828,236.6870422363281,-33.00087738037109
1213,-198.67469787597656,-120.68470001220705,236.7655792236328,-35.196197509765625
1214,-188.80511474609372,-117.19537353515624,237.04234313964844,-33.296329498291016
1215,-194.86749267578125,-121.49252319335938,223.1074676513672,-47.06664276123047
1216,-193.3528289794922,-108.6721420288086,227.6364898681641,-37.881446838378906
1217,-201.8012542724609,-127.94010925292969,225.54214477539062,-51.91728973388672
1218,-194.85626220703125,-121.79544830322266,229.61489868164062,-47.05168151855469
1219,-196.86459350585938,-117.43473052978516,224.28179931640625,-46.58793258666992
1220,-191.1649932861328,-112.767333984375,230.11978149414062,-41.99907684326172
1221,-190.5142364501953,-112.3671646118164,240.2474365234375,-45.428565979003906
1222,-194.7627716064453,-111.93707275390624,238.78887939453125,-48.06893539428711
1223,-188.5732421875,-110.5981903076172,236.18589782714844,-45.447265625
1224,-190.0243225097656,-106.85829162597656,232.4048614501953,-50.365234375
1225,-186.3704376220703,-104.83126831054688,239.2900238037109,-48.05771255493164
1226,-179.489013671875,-111.77999877929688,241.2310333251953,-49.202125549316406
1227,-207.646728515625,-113.9341812133789,230.2880859375,-48.22227096557617
1228,-184.47804260253903,-107.98773956298828,236.5187530517578,-33.84235382080078
1229,-189.63536071777344,-117.0457763671875,239.20774841308597,-37.9412841796875
1230,-200.66433715820312,-121.67951202392578,230.1422271728516,-34.42577743530273
1231,-200.1108245849609,-115.0337142944336,222.4081115722656,-29.571388244628906
1232,-193.72308349609372,-120.86795806884766,225.2728729248047,-25.49489784240723
1233,-192.35427856445312,-120.0750961303711,233.0443878173828,-24.02511787414551
1234,-204.79318237304688,-121.08860778808594,232.9209747314453,-28.46811866760254
1235,-210.50775146484372,-122.13578033447266,220.7438507080078,-33.584300994873054
1236,-194.6617889404297,-113.59758758544922,221.4245147705078,-38.6743049621582
1237,-204.4752960205078,-121.99366760253906,221.1776885986328,-49.06000900268555
1238,-207.2951812744141,-123.6691436767578,219.52838134765625,-53.87326049804688
1239,-196.99923706054688,-110.00728607177734,232.31137084960938,-47.89315795898438
1240,-191.64743041992188,-115.19452667236328,227.04933166503903,-57.51592254638672
1241,-194.51968383789062,-121.4588623046875,231.9336395263672,-60.455482482910156
1242,-205.2831115722656,-106.17015075683594,234.00180053710938,-51.10199356079102
1243,-202.58663940429688,-111.25267028808594,230.5723114013672,-52.07436752319336
1244,-192.7095642089844,-103.58587646484376,230.8527984619141,-56.96989440917969
1245,-188.67047119140625,-104.22914123535156,240.6887359619141,-55.21214294433594
1246,-186.16099548339844,-109.71931457519531,246.4294891357422,-57.45234298706055
1247,-185.71221923828125,-111.9408187866211,240.1240234375,-55.574913024902344
1248,-180.7530975341797,-107.68106842041016,242.3492584228516,-51.872413635253906
1249,-185.345703125,-114.40914916992188,240.0753936767578,-46.84972763061523
1250,-186.48263549804688,-117.08317565917969,235.39678955078125,-56.5211067199707
1251,-194.3738250732422,-130.51689147949222,216.77581787109372,-64.79376983642578
1252,-186.5611724853516,-121.42520141601562,219.62188720703125,-59.45318984985352
1253,-185.3868408203125,-121.8029327392578,224.2743225097656,-50.00994110107422
1254,-193.12843322753903,-130.56552124023438,224.6557922363281,-46.56549453735352
1255,-196.21011352539062,-123.0632781982422,222.6586761474609,-44.08967971801758
1256,-190.3534240722656,-114.80184173583984,227.03436279296875,-38.10958099365234
1257,-197.73599243164062,-111.2040557861328,232.3038787841797,-42.66477966308594
1258,-183.63282775878903,-111.01332092285156,240.43817138671875,-46.464515686035156
1259,-209.8906707763672,-122.10212707519531,225.80767822265625,-52.30624008178711
1260,-193.2181854248047,-111.7650375366211,224.06114196777344,-52.17908477783203
1261,-190.0504913330078,-105.37355041503906,240.3783264160156,-47.145179748535156
1262,-189.8335876464844,-107.8269271850586,236.84413146972656,-57.98714828491211
1263,-191.50157165527344,-109.70061492919922,233.31365966796875,-60.283447265625
1264,-180.9887237548828,-99.71134185791016,243.422607421875,-54.29212951660156
1265,-189.90838623046875,-93.92572021484376,242.26698303222656,-59.30359268188477
1266,-190.11407470703125,-94.21369171142578,244.85499572753903,-55.47019577026367
1267,-188.820068359375,-93.42456817626952,242.26324462890625,-61.03890609741211
1268,-181.67686462402344,-84.69564056396484,253.1426086425781,-45.10319519042969
1269,-191.2510070800781,-93.1365966796875,251.8186798095703,-46.5617561340332
1270,-198.8579559326172,-100.39574432373048,243.6395263671875,-53.63764572143555
1271,-198.16607666015625,-114.96639251708984,230.6695556640625,-62.69942092895508
1272,-192.7320098876953,-113.18246459960938,224.7193756103516,-65.71004486083984
1273,-186.56491088867188,-121.68699645996094,231.34646606445312,-59.48310852050781
1274,-188.1132354736328,-131.24992370605472,218.56723022460938,-74.2931137084961
1275,-182.6604461669922,-117.10935974121094,223.7582092285156,-58.03202819824219
1276,-202.8970489501953,-118.39214324951172,216.4504547119141,-59.03805923461914
1277,-199.1646270751953,-112.0230941772461,230.3329620361328,-48.68227767944336
1278,-191.48287963867188,-125.41193389892578,228.6574859619141,-47.65754699707031
1279,-196.52426147460938,-108.00270080566406,232.576904296875,-39.317569732666016
1280,-199.7966766357422,-117.8685531616211,219.7153778076172,-45.22286987304688
1281,-204.6996917724609,-120.82682037353516,221.1515045166016,-41.737281799316406
1282,-197.9379425048828,-113.32083892822266,230.0113220214844,-36.927772521972656
1283,-188.2216796875,-109.99232482910156,229.8729553222656,-41.00800323486328
1284,-182.3687438964844,-102.72570037841795,225.3962860107422,-42.4665641784668
1285,-188.7826690673828,-97.91619110107422,236.0886688232422,-43.28934097290039
1286,-188.315185546875,-99.5206069946289,238.02218627929688,-43.50999450683594
1287,-187.61956787109372,-97.63943481445312,235.31076049804688,-51.9210319519043
1288,-186.70703125,-99.24759674072266,240.76727294921875,-50.7766227722168
1289,-178.63258361816406,-100.75851440429688,247.9927673339844,-56.93623733520508
1290,-198.8616943359375,-109.2555694580078,240.11279296875,-62.67698287963867
1291,-177.6265411376953,-95.77696990966795,241.1898956298828,-53.79098129272461
1292,-187.0660552978516,-101.55137634277344,234.67498779296875,-47.8071403503418
1293,-194.88992309570312,-111.71642303466795,239.0618896484375,-44.94611740112305
1294,-191.13507080078125,-109.50240325927734,239.87718200683597,-38.18437957763672
1295,-187.2119140625,-114.30817413330078,230.194580078125,-43.06868743896485
1296,-195.2414703369141,-116.23796081542969,223.4702453613281,-38.37885284423828
1297,-203.7422637939453,-119.54029083251952,226.6865539550781,-35.289695739746094
1298,-198.28575134277344,-107.56513214111328,237.8389434814453,-23.42673301696777
1299,-191.8793029785156,-121.6009750366211,221.11410522460938,-35.47294998168945
1300,-208.151611328125,-122.36017608642578,213.01348876953125,-42.74705505371094
1301,-191.3632049560547,-107.86058807373048,231.2978515625,-31.71809196472168
1302,-195.4322052001953,-112.33724212646484,227.71128845214844,-44.91993713378906
1303,-192.86663818359372,-106.15518951416016,223.1074676513672,-49.04504776000977
1304,-197.90802001953125,-108.36547088623048,231.40631103515625,-49.3629379272461
1305,-184.6762542724609,-104.00849151611328,234.86572265625,-49.33676147460938
1306,-182.56695556640625,-99.46076965332031,245.09060668945312,-47.13769912719727
1307,-187.4737091064453,-83.39415740966797,236.2195587158203,-51.610618591308594
1308,-187.77664184570312,-90.888916015625,233.99058532714844,-56.12841796875
1309,-191.202392578125,-98.66416931152344,241.4292449951172,-61.71957015991211
1310,-188.9397430419922,-92.14178466796876,245.70021057128903,-61.93274307250977
1311,-186.9164581298828,-97.673095703125,239.8435211181641,-65.19019317626953
1312,-184.69869995117188,-95.99388122558594,241.2198028564453,-57.34388732910156
1313,-187.8589172363281,-93.8209991455078,245.90216064453125,-47.52290725708008
1314,-188.6031494140625,-105.04070281982422,241.5638732910156,-44.07098007202149
1315,-193.24810791015625,-107.41553497314452,231.8887634277344,-34.908226013183594
1316,-200.93734741210938,-116.35389709472656,215.51173400878903,-43.31178283691406
1317,-193.7829132080078,-113.53401184082031,227.49436950683597,-32.611927032470696
1318,-198.16981506347656,-114.37548828125,224.33041381835938,-31.81158828735352
1319,-196.76361083984372,-106.19632720947266,221.34597778320312,-33.625438690185554
1320,-201.6628875732422,-117.04952239990234,221.86582946777344,-41.50915145874024
1321,-184.59771728515625,-117.85359954833984,224.22195434570312,-42.02151489257813
1322,-207.10069274902344,-110.28778076171876,226.22280883789062,-40.271244049072266
1323,-200.2678985595703,-111.11803436279295,219.5321350097656,-48.97772979736328
1324,-192.56370544433597,-102.4489517211914,224.0985412597656,-47.50420761108398
1325,-206.71548461914062,-109.36402130126952,227.72250366210938,-55.39913940429688
1326,-191.8643493652344,-101.24844360351562,241.1786651611328,-45.69035720825195
1327,-194.47853088378903,-97.24301147460938,233.56423950195312,-49.91644287109375
1328,-204.61740112304688,-90.87396240234376,225.1606750488281,-57.14192962646485
1329,-197.3320770263672,-91.09461212158205,240.34466552734372,-54.00041580200195
1330,-186.3218231201172,-85.93729400634766,242.4165802001953,-54.9316520690918
1331,-195.06570434570312,-94.75223541259766,233.61659240722656,-65.56418609619139
1332,-190.7722930908203,-87.30235290527344,240.44190979003903,-55.05132675170898
1333,-198.6111297607422,-94.99533081054688,234.67124938964844,-60.71353530883789
1334,-191.33702087402344,-91.1843719482422,243.45626831054688,-49.08244705200195
1335,-183.63656616210938,-105.62786102294922,235.93533325195312,-43.37910079956055
1336,-201.64044189453125,-115.17208862304688,217.25079345703125,-54.97652816772461
1337,-201.6666259765625,-116.91114044189452,224.24066162109372,-42.10379409790039
1338,-199.35910034179688,-120.73332214355469,230.0375061035156,-38.06096267700195
1339,-191.4604339599609,-115.819091796875,217.53501892089844,-32.92607879638672
1340,-222.33331298828125,-118.31360626220705,208.9182891845703,-40.41709899902344
1341,-206.3714141845703,-111.89593505859376,216.15499877929688,-36.23963165283203
1342,-205.20083618164062,-116.9036636352539,219.0870819091797,-44.91246032714844
1343,-203.71983337402344,-105.40721130371094,218.9674072265625,-42.268348693847656
1344,-194.1569061279297,-103.30538940429688,220.43344116210938,-38.46113204956055
1345,-195.2115631103516,-107.95782470703124,236.4701385498047,-37.42144012451172
1346,-203.8357696533203,-105.01451873779295,231.75038146972656,-47.20875549316406
1347,-188.50965881347656,-101.6860122680664,237.33404541015625,-41.75224304199219
1348,-196.34474182128903,-102.84912109375,234.9031219482422,-48.82439422607422
1349,-197.53028869628903,-87.59032440185547,245.1654052734375,-40.72003173828125
1350,-200.54466247558597,-77.02510833740234,251.64291381835938,-40.53303527832031
1351,-210.42173767089844,-98.18546295166016,237.4462432861328,-54.03407287597656
1352,-204.3481292724609,-90.58972930908205,235.2696228027344,-53.78350067138672
1353,-194.1569061279297,-84.8041000366211,247.52154541015625,-50.35027313232422
1354,-201.9845123291016,-93.5405044555664,247.42056274414062,-45.43978500366211
1355,-196.56539916992188,-95.2197265625,246.11534118652344,-47.69868469238281
1356,-179.0215301513672,-81.58778381347656,254.08506774902344,-26.343854904174805
1357,-214.7001800537109,-99.5767059326172,247.8843078613281,-40.84718704223633
1358,-212.25054931640625,-107.47537231445312,242.94015502929688,-37.31672286987305
1359,-190.8134307861328,-93.86213684082031,247.4093475341797,-24.42902565002441
1360,-199.64707946777344,-97.7927703857422,243.5834197998047,-31.99110412597656
1361,-213.9222717285156,-97.5459442138672,248.3854522705078,-24.279430389404297
1362,-203.9554443359375,-98.095703125,252.9369201660156,-23.83064270019531
1363,-199.9986267089844,-96.96625518798828,243.65821838378903,-28.34470176696777
1364,-204.52764892578125,-103.09969329833984,238.9422149658203,-42.61616134643555
1365,-212.905029296875,-108.19343566894531,238.31016540527344,-47.23493576049805
1366,-200.3090362548828,-98.8212432861328,243.6058654785156,-44.20187759399414
1367,-205.3840789794922,-100.90437316894531,228.8519592285156,-52.95324325561523
1368,-190.70872497558597,-89.43409729003906,243.3066711425781,-45.52580261230469
1369,-204.8979034423828,-96.9475555419922,242.6222686767578,-50.19319915771485
1370,-196.6102752685547,-91.9734878540039,251.0968780517578,-56.18077850341797
1371,-183.9208068847656,-86.75633239746094,243.38894653320312,-55.75069046020508
1372,-179.5675506591797,-86.34494018554688,242.88406372070312,-63.2529296875
1373,-212.3963928222656,-91.01981353759766,251.8523406982422,-62.594703674316406
1374,-202.48565673828125,-85.17809295654297,253.8120574951172,-51.58443832397461
1375,-198.1324157714844,-91.43868255615234,242.42405700683597,-56.599647521972656
1376,-202.92697143554688,-100.45932006835938,235.957763671875,-55.724510192871094
1377,-202.5155792236328,-108.1672592163086,238.5869140625,-45.97459030151367
1378,-198.50640869140625,-96.28559112548828,239.21148681640625,-36.56874084472656
1379,-202.13784790039062,-109.06483459472656,234.9105987548828,-42.67973709106445
1380,-209.70741271972656,-116.45113372802734,226.9259033203125,-46.04938888549805
1381,-199.4301605224609,-111.08811950683594,237.5023498535156,-33.965770721435554
1382,-203.1513671875,-112.07545471191406,237.8202362060547,-31.86020851135254
1383,-203.17379760742188,-107.5726089477539,229.76075744628903,-36.4154052734375
1384,-207.5270538330078,-106.7834930419922,228.3844757080078,-35.012943267822266
1385,-200.7765350341797,-101.0838851928711,246.6912841796875,-32.626888275146484
1386,-201.1954040527344,-104.56199645996094,240.28109741210938,-41.00426483154297
1387,-203.30844116210938,-109.73053741455078,238.0782928466797,-47.84453964233398
1388,-202.48941040039062,-103.92994689941406,237.35275268554688,-46.86094665527344
1389,-206.7790679931641,-111.80618286132812,235.3818206787109,-50.73548126220703
1390,-201.13555908203125,-100.7061538696289,241.8593292236328,-47.54534912109375
1391,-195.0806579589844,-99.36353302001952,234.3084716796875,-52.16412353515625
1392,-209.95797729492188,-94.2585678100586,240.27735900878903,-48.47284317016602
1393,-205.7094573974609,-77.44397735595703,251.63168334960938,-43.36413955688477
1394,-206.67808532714844,-102.32553100585938,246.38087463378903,-50.806541442871094
1395,-198.8579559326172,-87.01811981201172,244.29026794433597,-42.71339797973633
1396,-209.1613922119141,-96.39405059814452,231.7391662597656,-51.337608337402344
1397,-209.28854370117188,-100.6837158203125,234.67124938964844,-44.88253784179688
1398,-207.7476959228516,-107.1313018798828,231.50729370117188,-42.42916488647461
1399,-213.3725128173828,-110.98714447021484,224.513671875,-42.37306594848633
1400,-207.10069274902344,-113.9940185546875,224.03497314453125,-43.40901947021485
1401,-203.8507232666016,-104.72280883789062,237.5734100341797,-34.86334609985352
1402,-203.13641357421875,-109.90257263183594,232.4871368408203,-40.34230041503906
1403,-207.19419860839844,-100.62761688232422,223.78439331054688,-40.08798599243164
1404,-201.61801147460938,-98.51457214355469,231.1968688964844,-34.478137969970696
1405,-205.1447296142578,-103.16326904296876,245.89468383789062,-32.15940093994141
1406,-205.84410095214844,-99.30369567871094,240.3072662353516,-38.057220458984375
1407,-184.6070709228516,-80.91460418701172,250.9566345214844,-31.028079986572266
1408,-190.62457275390625,-100.02923583984376,245.1485748291016,-41.42126083374024
1409,-219.1637420654297,-101.4690933227539,239.67335510253903,-50.53913879394531
1410,-215.2368469238281,-93.22261810302734,245.40663146972656,-46.70574188232422
1411,-201.4927215576172,-86.46835327148438,246.562255859375,-40.108558654785156
1412,-215.16204833984372,-94.04539489746094,230.4358062744141,-48.42609405517578
1413,-203.01112365722656,-88.39066314697266,248.01333618164062,-43.859676361083984
1414,-205.6103515625,-91.78275299072266,250.7771148681641,-44.596435546875
1415,-201.7769470214844,-87.6950454711914,250.26849365234372,-44.85074996948242
1416,-200.33334350585938,-96.85779571533205,246.42013549804688,-56.30232238769531
1417,-210.0421295166016,-104.28524017333984,243.42822265625,-57.64494705200195
1418,-204.2639923095703,-97.77781677246094,247.6243896484375,-56.95680618286133
1419,-203.46365356445312,-99.74500274658205,232.2683563232422,-53.6395149230957
1420,-203.8338928222656,-110.5383529663086,223.47959899902344,-64.40668487548828
1421,-202.67079162597656,-112.849609375,228.7491149902344,-47.30412292480469
1422,-199.23382568359372,-116.1220245361328,230.0281524658203,-45.3369369506836
1423,-197.05345153808597,-109.3565444946289,228.5135040283203,-47.07225036621094
1424,-187.2586669921875,-127.2818832397461,221.3403625488281,-46.65712356567383
1425,-207.1811065673828,-105.18655395507812,239.41905212402344,-28.24933433532715
1426,-203.57958984375,-106.8470687866211,243.42074584960938,-28.286733627319336
1427,-204.847412109375,-107.4865951538086,239.953857421875,-30.75132751464844
1428,-210.3562774658203,-110.44859313964844,228.34893798828125,-43.51186752319336
1429,-194.3195953369141,-93.78733825683594,248.005859375,-36.63045120239258
1430,-199.64146423339844,-96.07241821289062,238.7309112548828,-45.39677429199219
1431,-201.6610107421875,-93.99303436279295,235.26776123046875,-56.23500442504883
1432,-203.9984588623047,-95.38053894042969,232.23095703125,-55.595481872558594
1433,-198.29510498046875,-90.4027328491211,241.8050994873047,-47.352745056152344
1434,-199.10292053222656,-92.46341705322266,252.4787750244141,-42.2664794921875
1435,-203.21681213378903,-90.63834381103516,241.9808807373047,-49.89961624145508
1436,-203.1420135498047,-107.32203674316406,235.035888671875,-55.25515365600586
1437,-196.10726928710938,-98.51083374023438,247.7365875244141,-50.56905746459961
1438,-195.24708557128903,-95.92282104492188,239.1161193847656,-47.887550354003906
1439,-187.87200927734372,-106.4281997680664,241.4610290527344,-45.89044189453125
1440,-194.8955383300781,-108.41409301757812,231.3483428955078,-48.54951095581055
1441,-199.1964263916016,-105.46704864501952,236.2700500488281,-35.75905227661133
1442,-191.97467041015625,-114.36801147460938,235.45849609375,-29.64805603027344
1443,-195.28448486328125,-106.31600952148438,236.890869140625,-24.52065467834473
1444,-208.9126739501953,-118.83718872070312,226.77818298339844,-26.40556335449219
1445,-202.3080139160156,-110.81510925292969,244.8082427978516,-16.550928115844727
1446,-202.816650390625,-111.10308074951172,246.3191680908203,-20.006595611572266
1447,-196.3017425537109,-100.80339050292969,235.7202911376953,-22.96111488342285
1448,-207.19232177734372,-103.98230743408205,234.8675842285156,-26.94784927368164
1449,-204.56317138671875,-100.61265563964844,243.9443206787109,-31.686302185058594
1450,-196.372802734375,-98.00220489501952,251.8654327392578,-34.7193603515625
1451,-205.9058074951172,-96.58478546142578,245.43280029296875,-38.62007522583008
1452,-186.46206665039062,-84.6021499633789,253.1183013916016,-35.80767059326172
1453,-193.07794189453125,-86.38981628417969,251.7569732666016,-41.00987243652344
1454,-190.2543182373047,-81.7972183227539,255.80728149414062,-39.52513122558594
1455,-194.3270721435547,-89.07506561279297,252.8377990722656,-37.804779052734375
1456,-198.7364196777344,-100.90437316894531,249.3671722412109,-44.15886688232422
1457,-196.2830352783203,-94.06035614013672,257.20974731445307,-42.76388549804688
1458,-196.46255493164062,-90.2643585205078,259.59579467773443,-43.28373336791992
1459,-198.57933044433597,-84.19075775146484,254.8498687744141,-51.0215835571289
1460,-198.48583984375,-97.95732879638672,251.61111450195312,-49.073097229003906
1461,-192.32997131347656,-100.87818908691406,251.1810302734375,-49.48822784423828
1462,-197.8762359619141,-98.63050842285156,245.13360595703125,-53.57219696044922
1463,-207.6037139892578,-100.384521484375,235.2415771484375,-54.64928817749024
1464,-208.1833953857422,-98.00968933105469,228.95480346679688,-56.20508575439453
1465,-208.33673095703125,-116.73910522460938,228.26666259765625,-66.13825988769531
1466,-197.218017578125,-101.97772216796876,243.5890350341797,-45.93532180786133
1467,-198.54568481445312,-110.1157455444336,229.1417999267578,-52.16973495483398
1468,-194.22235107421875,-118.96808624267578,224.8670959472656,-55.38230895996094
1469,-206.9978485107422,-116.95227813720705,223.72642517089844,-55.72637939453125
1470,-190.8527069091797,-96.79795837402344,237.62388610839844,-37.18769454956055
1471,-195.3293609619141,-106.14022827148438,234.42254638671875,-39.30821990966797
1472,-201.24588012695312,-97.25048828125,232.5937347412109,-38.16381072998047
1473,-209.3689422607422,-95.88916778564452,235.51458740234372,-41.05849075317383
1474,-203.80023193359372,-96.64462280273438,240.38394165039062,-30.64286994934082
1475,-193.8034820556641,-86.35616302490234,247.3663330078125,-25.496767044067386
1476,-203.1494903564453,-100.35086822509766,239.6546630859375,-38.72105407714844
1477,-210.86117553710938,-101.85804748535156,242.489501953125,-39.87668228149414
1478,-193.3621826171875,-88.72351837158203,250.09271240234372,-23.37250518798828
1479,-200.57644653320312,-97.19438934326172,240.4138641357422,-36.63045120239258
1480,-195.5612335205078,-97.90122985839844,239.03009033203125,-37.20639419555664
1481,-189.7606506347656,-95.66851043701172,247.88992309570312,-35.500999450683594
1482,-185.680419921875,-96.66332244873048,254.8349151611328,-32.32208633422852
1483,-202.20704650878903,-106.89569091796876,240.7504425048828,-33.369258880615234
1484,-197.0908508300781,-110.32518005371094,239.46392822265625,-34.880176544189446
1485,-206.34336853027344,-107.1275634765625,242.2763214111328,-36.72394943237305
1486,-207.2633819580078,-109.45751953125,241.43484497070312,-25.64636421203613
1487,-192.1280059814453,-96.19957733154295,240.1969451904297,-19.243656158447266
1488,-192.9021759033203,-112.87953186035156,230.34605407714844,-27.83794593811035
1489,-197.3040313720703,-105.45208740234376,241.2328948974609,-17.64297866821289
