,T7,F8,Cz,P4
2000,-213.43048095703125,-88.33831024169922,231.1239471435547,-48.81691360473633
2001,-205.83848571777344,-75.22248077392578,235.5370330810547,-44.25797653198242
2002,-225.3121490478516,-84.82279968261719,222.0958251953125,-63.13698959350586
2003,-223.53195190429688,-101.58877563476562,223.56561279296875,-64.58807373046875
2004,-191.0359649658203,-87.99049377441406,225.1962127685547,-52.97568130493164
2005,-226.41542053222656,-98.97832489013672,212.7647857666016,-62.75178146362305
2006,-214.0961761474609,-104.5171127319336,228.47235107421875,-57.59819793701172
2007,-221.796630859375,-106.00933074951172,221.91256713867188,-31.02621078491211
2008,-220.8242645263672,-116.05470275878906,209.0061798095703,-85.58760833740234
2009,-213.80447387695312,-112.73741149902344,219.9491271972656,-69.88751220703125
2010,-207.9477844238281,-114.040771484375,222.20242309570312,-63.68114471435547
2011,-209.3278045654297,-116.72602081298828,216.6187438964844,-61.01833724975586
2012,-196.3690643310547,-111.66967010498048,223.4889373779297,-54.7614860534668
2013,-200.4492950439453,-94.66060638427734,210.3207550048828,-56.75859069824219
2014,-219.5601806640625,-107.256591796875,218.8252868652344,-52.566162109375
2015,-216.32516479492188,-121.74122619628906,215.64637756347656,-61.75883865356445
2016,-201.4627990722656,-102.55927276611328,224.9512481689453,-40.16839599609375
2017,-211.56427001953125,-104.86305236816406,216.8880157470703,-55.73759841918945
2018,-212.992919921875,-110.3681869506836,215.54913330078125,-56.34346389770508
2019,-207.85055541992188,-114.27264404296876,224.78668212890625,-42.49835205078125
2020,-195.2171630859375,-98.55384063720705,227.79730224609372,-33.86666488647461
2021,-230.3610076904297,-109.38459014892578,203.49917602539062,-55.322471618652344
2022,-204.06576538085938,-92.1436538696289,234.0541534423828,-47.5359992980957
2023,-212.44314575195312,-103.91311645507812,229.07261657714844,-54.14440155029297
2024,-213.29959106445312,-98.33319091796876,225.85255432128903,-63.4343147277832
2025,-212.8059234619141,-98.78572082519531,226.31256103515625,-65.37532043457031
2026,-217.17037963867188,-103.46807098388672,228.4480438232422,-48.48219299316406
2027,-233.3304901123047,-104.53020477294922,219.41993713378903,-66.32899475097656
2028,-212.93307495117188,-71.17029571533203,232.8947906494141,-57.52901077270508
2029,-217.5630645751953,-98.37059020996094,222.565185546875,-55.72264099121094
2030,-220.0276641845703,-102.39098358154295,221.35345458984372,-57.72722625732422
2031,-207.40924072265625,-87.2256851196289,230.6171875,-43.64276123046875
2032,-208.50503540039062,-53.36837387084961,223.2533264160156,-36.93338012695313
2033,-210.59190368652344,-142.33311462402344,211.3380126953125,-57.73096466064453
2034,-201.85174560546875,-121.19145965576172,212.58712768554688,-43.10795593261719
2035,-216.2054901123047,-112.45879364013672,214.9283142089844,-30.23896026611328
2036,-226.07508850097656,-121.49813079833984,199.9799346923828,-38.051612854003906
2037,-215.97735595703125,-103.524169921875,222.9017791748047,-15.600992202758787
2038,-211.8522491455078,-111.34803771972656,217.1797332763672,-20.690996170043945
2039,-206.68370056152344,-89.99320983886719,231.69802856445312,-14.594959259033205
2040,-216.7328186035156,-100.72298431396484,224.8652191162109,-18.966901779174805
2041,-206.17507934570312,-97.16259765625,229.1661071777344,-39.68968963623047
2042,-225.23361206054688,-99.791748046875,213.55203247070312,-52.693321228027344
2043,-198.0108795166016,-81.52981567382812,247.08770751953125,-30.45213508605957
2044,-196.2344207763672,-83.8111572265625,237.71551513671875,-50.69247436523438
2045,-215.93995666503903,-78.4107437133789,226.58932495117188,-57.57014846801758
2046,-213.6698303222656,-87.12844848632812,237.85763549804688,-59.249366760253906
2047,-202.0537109375,-60.21986770629883,243.1869964599609,-20.55261993408203
2048,-222.62315368652344,-109.6501235961914,221.79476928710938,-84.30669403076172
2049,-213.51275634765625,-95.01963806152344,227.8721008300781,-70.13995361328125
2050,-218.31105041503903,-80.4415054321289,232.82373046875,-48.39617538452149
2051,-193.3696594238281,-86.43283081054688,242.97381591796875,-34.62212371826172
2052,-223.3112945556641,-94.34272003173828,220.68402099609372,-52.83917617797852
2053,-224.49310302734372,-101.2951889038086,219.0122833251953,-53.77415084838867
2054,-225.73849487304688,-87.07234954833984,228.4143829345703,-41.03979110717773
2055,-215.1957092285156,-100.76412200927734,220.92710876464844,-42.10192489624024
2056,-203.2055969238281,-93.9088897705078,226.8623352050781,-35.57579803466797
2057,-189.9663543701172,-85.84940338134766,224.45384216308597,-27.553712844848636
2058,-233.86529541015625,-121.68512725830078,205.66831970214844,-48.77764511108398
2059,-209.65692138671875,-96.05933380126952,223.1486053466797,-27.108665466308594
2060,-207.58502197265625,-93.5872573852539,221.3609313964844,-30.72514724731445
2061,-198.2315216064453,-112.18577575683594,219.1282196044922,-47.89502716064453
2062,-211.90460205078125,-118.2145004272461,213.98585510253903,-59.69815444946289
2063,-196.3166961669922,-90.84964752197266,238.14935302734372,-37.561683654785156
2064,-191.1519012451172,-91.2573013305664,230.08238220214844,-40.26937103271485
2065,-204.5444793701172,-97.20748138427734,232.0009613037109,-45.39677429199219
2066,-200.23611450195312,-97.00552368164062,238.2241516113281,-53.459999084472656
2067,-195.7931060791016,-72.99163055419922,246.39956665039062,-39.53261184692383
2068,-198.69528198242188,-91.91925811767578,238.02967834472656,-25.347171783447266
2069,-210.9995422363281,-89.40605163574219,229.45034790039062,-78.72676086425781
2070,-208.2357635498047,-74.98499298095703,244.185546875,-51.03280639648438
2071,-217.5668029785156,-80.17971801757812,232.49087524414062,-67.23779296875
2072,-209.3614654541016,-85.86810302734375,235.32199096679688,-58.187232971191406
2073,-213.30332946777344,-93.08985137939452,228.4480438232422,-59.97116470336914
2074,-210.24407958984372,-92.39048767089844,235.37060546875,-59.59717559814453
2075,-217.58924865722656,-89.60052490234375,231.74290466308597,-53.25056457519531
2076,-216.48971557617188,-95.26647186279295,222.37445068359372,-57.36819458007813
2077,-208.4938201904297,-104.5863037109375,213.7951202392578,-54.09578323364258
2078,-239.54620361328125,-125.37640380859376,209.03048706054688,-54.59692764282226
2079,-204.5108184814453,-83.35115051269531,228.05162048339844,-42.55445098876953
2080,-218.93186950683597,-119.53468322753906,206.87255859375,-55.03823852539063
2081,-190.40765380859372,-87.83528900146484,224.61839294433597,-26.13629150390625
2082,-208.1497344970703,-118.6371078491211,213.4473114013672,-34.61464309692383
2083,-219.0440673828125,-112.95246124267578,222.5689239501953,-35.231727600097656
2084,-220.7083282470703,-113.40872955322266,211.85037231445312,-45.74458694458008
2085,-207.8355865478516,-95.7938003540039,219.96969604492188,-39.90660095214844
2086,-204.9596099853516,-88.05594635009766,227.5317687988281,-38.8930892944336
2087,-196.6308441162109,-86.00273895263672,243.19821166992188,-37.50558853149414
2088,-206.9828948974609,-106.56096649169922,229.9365234375,-50.51669692993164
2089,-207.12501525878903,-93.9649887084961,227.3859100341797,-55.37856674194336
2090,-210.4235992431641,-102.27130126953124,233.43707275390625,-32.542739868164055
2091,-201.4366149902344,-72.11649322509766,244.3201904296875,-68.50935363769531
2092,-202.87274169921875,-85.83070373535156,232.7900695800781,-47.89128875732422
2093,-211.00701904296875,-92.06511688232422,227.93194580078125,-47.37892150878906
2094,-179.81625366210938,-62.79291915893555,249.2306671142578,-31.925655364990234
2095,-234.37765502929688,-100.83892059326172,226.35369873046875,-43.73625946044922
2096,-222.33892822265625,-84.58158111572266,226.32005310058597,-25.3995304107666
2097,-217.8473052978516,-93.88270568847656,228.76968383789062,-17.766395568847656
2098,-218.87203979492188,-81.97486877441406,223.6796722412109,-19.329673767089844
2099,-230.93695068359372,-112.6345672607422,217.4265594482422,-32.98778915405273
2100,-206.5565490722656,-104.85931396484376,218.7542266845703,-23.802593231201172
2101,-225.6823883056641,-107.12195587158205,215.08164978027344,-32.71851348876953
2102,-201.6984100341797,-92.3830108642578,232.0159149169922,-21.19588279724121
2103,-200.3071746826172,-110.03907775878906,230.17214965820312,-36.86232376098633
2104,-200.12765502929688,-112.06236267089844,224.1696014404297,-41.77281188964844
2105,-196.9150848388672,-77.71886444091797,236.3953399658203,-26.252227783203125
2106,-198.69528198242188,-106.1757583618164,229.08009338378903,-44.33090591430664
2107,-206.86322021484372,-113.67425537109376,225.65060424804688,-54.91856002807617
2108,-192.9246063232422,-89.73516082763672,237.0386047363281,-44.97416687011719
2109,-201.3842620849609,-92.16609191894531,230.3965301513672,-43.67642211914063
2110,-206.5453186035156,-103.68872833251952,230.1497039794922,-53.80406951904297
2111,-211.9270477294922,-101.28771209716795,227.37843322753903,-38.30592346191406
2112,-201.8816680908203,-82.91358184814453,237.7529144287109,-30.51571273803711
2113,-198.2315216064453,-87.79415130615234,237.143310546875,-57.274696350097656
2114,-192.7338714599609,-101.07453918457031,237.89503479003903,-65.96622467041016
2115,-200.84571838378903,-81.71681213378906,243.45252990722656,-42.6591682434082
2116,-213.60626220703125,-99.64215087890624,226.70152282714844,-54.91856002807617
2117,-209.1333312988281,-76.43607330322266,232.31884765625,-44.21122741699219
2118,-225.51409912109372,-100.18817901611328,218.9524383544922,-52.74193954467773
2119,-230.73873901367188,-85.5950927734375,226.6790771484375,-48.32511901855469
2120,-222.6007080078125,-95.38988494873048,210.75831604003903,-47.547218322753906
2121,-228.42747497558597,-107.11073303222656,195.75010681152344,-53.04113006591797
2122,-223.1953582763672,-101.1306381225586,210.2609100341797,-38.66869735717773
2123,-216.4560546875,-95.35248565673828,218.9150390625,-33.642269134521484
2124,-206.2872772216797,-102.24512481689452,214.5842437744141,-40.7293815612793
2125,-220.4540100097656,-96.93072509765624,205.71319580078125,-41.59703826904297
2126,-212.9293365478516,-93.23944854736328,215.4556427001953,-44.02423095703125
2127,-207.2222442626953,-110.6075439453125,219.98838806152344,-49.8435173034668
2128,-202.62591552734372,-89.8922348022461,230.5910186767578,-36.604270935058594
2129,-197.5957489013672,-86.93023681640625,220.56434631347656,-38.94918823242188
2130,-200.55026245117188,-94.42499542236328,226.5107879638672,-41.60077667236328
2131,-207.74957275390625,-99.47386169433594,232.5619354248047,-46.141014099121094
2132,-223.17291259765625,-103.36335754394531,217.5686798095703,-42.98828125
2133,-208.2170562744141,-76.46599578857422,230.17214965820312,-28.511127471923828
2134,-198.93836975097656,-97.31593322753906,227.37843322753903,-67.78007507324219
2135,-217.42843627929688,-85.66240692138672,235.54263305664062,-42.76388549804688
2136,-214.36920166015625,-83.01081848144531,234.03546142578125,-42.76762771606445
2137,-204.3836669921875,-81.55973815917969,237.55096435546875,-37.53550720214844
2138,-222.8325958251953,-93.1235122680664,226.8398895263672,-57.27843856811523
2139,-200.66993713378903,-88.72164916992188,247.7721099853516,-37.73746109008789
2140,-209.260498046875,-92.87293243408205,229.8280792236328,-51.7097282409668
2141,-229.4148101806641,-103.94677734375,212.7255096435547,-66.20183563232422
2142,-212.38331604003903,-100.78282165527344,225.13449096679688,-43.63528442382813
2143,-211.30621337890625,-72.59893798828125,223.2495880126953,-40.84531784057617
2144,-216.8375244140625,-109.76232147216795,208.6752014160156,-57.25973892211914
2145,-217.8473052978516,-98.41920471191406,215.6650695800781,-38.66869735717773
2146,-192.2888336181641,-98.29579162597656,226.32005310058597,-36.61175155639648
2147,-213.81195068359372,-113.3189697265625,213.80633544921875,-48.57942962646485
2148,-208.0263214111328,-96.92698669433594,217.38916015625,-47.37892150878906
2149,-200.35952758789062,-95.06451416015624,221.9443664550781,-44.69741439819336
2150,-205.03440856933597,-77.32243347167969,234.0317230224609,-31.78354072570801
2151,-196.8552398681641,-92.10999298095705,236.8067321777344,-25.18635559082031
2152,-210.3488006591797,-100.34151458740234,225.7964630126953,-37.04557800292969
2153,-208.1011199951172,-103.62140655517578,220.63165283203125,-71.72193145751953
2154,-193.7099914550781,-90.05679321289062,231.65313720703125,-49.26757049560547
2155,-224.7885589599609,-108.20278930664062,220.16790771484372,-63.70358657836914
2156,-205.5056304931641,-91.70982360839844,230.68450927734372,-43.01445770263672
2157,-206.01800537109372,-75.5235366821289,233.19772338867188,-45.33319854736328
2158,-210.5657196044922,-97.19252014160156,237.072265625,-40.94629287719727
2159,-216.7328186035156,-80.44898986816406,225.4897918701172,-40.63962173461914
2160,-213.6660919189453,-99.8104476928711,227.32981872558597,-43.089256286621094
2161,-202.99989318847656,-88.85254669189453,229.5513153076172,-39.37927627563477
2162,-219.5863494873047,-100.92120361328124,226.0507659912109,-37.599082946777344
2163,-218.77105712890625,-95.70404052734376,221.5367126464844,-35.44490051269531
2164,-219.2535095214844,-74.2744140625,222.3033905029297,-27.579893112182614
2165,-218.8234100341797,-113.05343627929688,210.29083251953125,-40.183353424072266
2166,-218.61024475097656,-96.26502227783205,218.7916259765625,-35.022293090820305
2167,-215.49864196777344,-102.2750473022461,219.6742401123047,-43.75495910644531
2168,-215.4836883544922,-114.32500457763672,208.3685302734375,-48.41487503051758
2169,-226.1648406982422,-109.45938873291016,200.4810791015625,-52.39038848876953
2170,-206.373291015625,-108.55807495117188,213.9596710205078,-43.485687255859375
2171,-195.0002593994141,-96.7586898803711,226.3387451171875,-8.457783699035645
2172,-210.2740020751953,-101.77015686035156,221.7611083984375,-58.1535758972168
2173,-214.4477386474609,-81.73551177978516,221.2562255859375,-45.15368270874024
2174,-195.1161956787109,-94.7316665649414,228.8893585205078,-28.47372817993164
2175,-219.5078125,-86.90031433105469,210.3992919921875,-60.393775939941406
2176,-207.2222442626953,-126.43106079101562,216.6636199951172,-47.53973770141602
2177,-213.7670745849609,-105.95884704589844,208.3311309814453,-52.99251174926758
2178,-212.67127990722656,-87.2668228149414,229.31570434570312,-38.91926956176758
2179,-210.07205200195312,-73.80318450927734,239.9519805908203,-42.288917541503906
2180,-207.49151611328125,-62.5012092590332,244.30148315429688,-37.05679702758789
2181,-210.59564208984372,-94.98971557617188,234.40945434570312,-59.89262771606445
2182,-209.9860382080078,-89.65288543701172,240.93931579589844,-50.71117401123047
2183,-209.99725341796875,-82.77520751953125,243.9723663330078,-42.13558197021485
2184,-200.8868560791016,-67.84552764892578,241.91168212890625,-31.368410110473636
2185,-219.02163696289062,-81.75047302246094,227.17648315429688,-44.487979888916016
2186,-220.51385498046875,-90.1128921508789,227.8160095214844,-42.76388549804688
2187,-202.0836181640625,-88.92733764648438,231.4698944091797,-39.10252380371094
2188,-211.4745178222656,-88.39253234863281,223.29820251464844,-37.58412551879883
2189,-202.70819091796875,-96.87088775634766,214.15414428710938,-44.68993377685547
2190,-213.18365478515625,-100.07598114013672,220.14547729492188,-42.27396011352539
2191,-206.26483154296875,-92.8243179321289,220.8111724853516,-38.64251708984375
2192,-219.0926818847656,-109.97175598144531,213.15185546875,-28.87763786315918
2193,-199.753662109375,-103.2025375366211,223.38796997070312,-47.51355743408203
2194,-217.45086669921875,-100.3489990234375,225.92735290527344,-50.80467224121094
2195,-218.49057006835938,-101.998291015625,218.7467498779297,-47.72673416137695
2196,-207.7682647705078,-90.52427673339844,227.0568084716797,-43.85593795776367
2197,-207.62615966796875,-82.84252166748047,227.79730224609372,-45.6473503112793
2198,-209.7092742919922,-61.05012512207031,237.54722595214844,-32.965347290039055
2199,-204.10690307617188,-76.92974090576172,235.35939025878903,-45.00408554077149
2200,-212.91812133789062,-103.1651382446289,225.17189025878903,-58.5462646484375
2201,-212.91812133789062,-73.61993408203125,231.46240234375,-51.94533920288086
2202,-219.4704132080078,-98.9652328491211,225.42247009277344,-59.45132064819336
2203,-188.61997985839844,-56.18077850341797,252.10665893554688,-35.77775192260742
2204,-216.17556762695312,-85.03036499023438,232.4422607421875,-42.06452560424805
2205,-207.383056640625,-81.61583709716797,233.0032501220703,-58.57244491577149
2206,-207.61119079589844,-71.7873764038086,241.75460815429688,-55.25889205932617
2207,-217.6490936279297,-69.12083435058594,240.99166870117188,-47.21810531616211
2208,-205.53929138183597,-79.34571838378906,236.98997497558597,-48.48593139648438
2209,-203.34022521972656,-83.61668395996094,227.85340881347656,-52.693321228027344
2210,-213.42300415039062,-95.64046478271484,223.5001678466797,-52.47640609741211
2211,-220.77191162109372,-106.83959197998048,217.735107421875,-27.41346740722656
2212,-196.54856872558597,-90.09606170654295,221.32540893554688,-61.95892333984375
2213,-219.1375732421875,-93.96685791015624,207.15866088867188,-49.44147872924805
2214,-208.1160888671875,-92.07072448730469,225.0316467285156,-36.56126022338867
2215,-204.43228149414062,-103.13709259033205,223.5356903076172,-47.51168823242188
2216,-195.0526123046875,-85.11450958251953,230.76116943359372,-28.89820671081543
2217,-210.64425659179688,-95.12996673583984,215.79409790039062,-47.57152557373047
2218,-217.3311920166016,-109.0162124633789,211.51939392089844,-54.54644012451172
2219,-201.12620544433597,-74.43709564208984,236.64404296875,-24.66838073730469
2220,-199.13658142089844,-84.09352111816406,230.3198699951172,-25.341562271118164
2221,-203.5272216796875,-85.54460144042969,229.7364501953125,-37.5485954284668
2222,-223.1467437744141,-74.30994415283203,235.4210968017578,-47.01054382324219
2223,-217.93331909179688,-71.3329849243164,240.1221466064453,-41.52784729003906
2224,-206.26109313964844,-79.94971466064453,237.24241638183597,-51.2291488647461
2225,-209.7130126953125,-76.98023223876953,236.7637176513672,-60.53776168823242
2226,-203.88999938964844,-90.54110717773438,229.4746551513672,-70.25028228759766
2227,-210.34132385253903,-85.8288345336914,231.9803771972656,-70.09320831298828
2228,-204.59683227539062,-76.78201293945312,237.93804931640625,-41.18751907348633
2229,-211.5530548095703,-71.23200225830078,229.47091674804688,-51.5919189453125
2230,-205.42709350585938,-112.19512939453124,219.11512756347656,-64.53197479248047
2231,-212.61892700195312,-98.2901840209961,225.4056396484375,-21.145395278930664
2232,-201.8367919921875,-84.04864501953125,220.4951477050781,-31.29548263549805
2233,-222.89242553710938,-98.4584732055664,206.2872772216797,-51.60688018798828
2234,-216.01475524902344,-91.77153778076172,222.78770446777344,-41.43809127807617
2235,-208.1759185791016,-88.97409057617188,225.4019012451172,-29.092681884765625
2236,-176.9627227783203,-79.13815307617188,237.0629119873047,-28.299823760986328
2237,-206.56028747558597,-84.37401580810547,218.5765838623047,-45.80629348754883
2238,-207.6822509765625,-77.1747055053711,229.45220947265625,-40.59661483764648
2239,-206.90809631347656,-89.43035888671875,234.20188903808597,-39.24277114868164
2240,-203.1532287597656,-94.5166244506836,230.36474609375,-49.284400939941406
2241,-210.0832672119141,-82.61625671386719,228.7117156982422,-59.28489303588867
2242,-201.0775909423828,-73.66667938232422,240.87387084960938,-44.130821228027344
2243,-213.85682678222656,-69.97914123535156,244.78579711914062,-49.00764846801758
2244,-189.3343048095703,-64.20847320556639,244.26222229003903,-42.52266311645508
2245,-208.51251220703125,-70.42044830322266,238.169921875,-40.54425430297852
2246,-216.1905212402344,-70.8131332397461,236.62159729003903,-45.22286987304688
2247,-200.5203399658203,-80.89216613769531,240.93743896484372,-53.87326049804688
2248,-193.6389312744141,-61.24273300170898,247.80015563964844,-38.93235778808594
2249,-218.83837890625,-85.26785278320312,228.60325622558597,-54.1612319946289
2250,-222.2267303466797,-88.40188598632812,220.6185607910156,-57.07461166381836
2251,-196.032470703125,-81.7747802734375,234.9835205078125,-43.9326057434082
2252,-217.8547821044922,-100.73233795166016,211.25759887695312,-22.854528427124023
2253,-215.6669464111328,-75.41695404052734,220.22213745117188,-66.28598785400389
2254,-210.6891326904297,-108.78433990478516,220.7083282470703,-57.94226837158203
2255,-218.15023803710938,-108.80677795410156,210.33758544921875,-45.05083465576172
2256,-205.0680694580078,-87.96805572509766,217.79869079589844,-27.76127815246582
2257,-211.52313232421875,-107.74090576171876,211.2127227783203,-56.13216018676758
2258,-214.7618865966797,-105.44834899902344,214.73944091796875,-52.89714431762695
2259,-203.3028259277344,-106.60023498535156,227.7430725097656,-39.69155883789063
2260,-202.124755859375,-96.9475555419922,217.7201385498047,-32.35387420654297
2261,-206.94175720214844,-90.29427337646484,221.19825744628903,-37.66827392578125
2262,-194.2522735595703,-67.28640747070311,236.7038726806641,-34.829689025878906
2263,-226.6772003173828,-111.53316497802734,222.4810333251953,-57.3027458190918
2264,-200.7110748291016,-84.74052429199219,234.0597686767578,-46.038169860839844
2265,-196.3316650390625,-75.9293212890625,232.0850982666016,-46.71883010864258
2266,-220.73825073242188,-101.8468246459961,217.87722778320312,-60.91175079345703
2267,-216.10824584960938,-74.89710998535156,233.52496337890625,-39.85237503051758
2268,-200.4866943359375,-74.71759033203125,237.0142822265625,-43.450157165527344
2269,-208.7855224609375,-78.52481079101562,233.64463806152344,-59.10163879394531
2270,-212.95925903320312,-70.34938812255861,245.8703765869141,-41.3632926940918
2271,-196.55230712890625,-73.2777328491211,245.60858154296875,-36.55752182006836
2272,-212.8545379638672,-81.54664611816406,232.76950073242188,-29.60878753662109
2273,-208.4526672363281,-80.16288757324219,236.2700500488281,-49.475135803222656
2274,-210.2291259765625,-79.20547485351562,236.01199340820312,-49.57237243652344
2275,-198.7887725830078,-78.79782104492188,246.6744537353516,-27.94453239440918
2276,-206.10401916503903,-82.58260345458984,234.81149291992188,-34.46317672729492
2277,-217.11053466796875,-94.41564178466795,221.87142944335938,-53.75732040405274
2278,-209.4624481201172,-92.20536041259766,231.11273193359372,-37.17460632324219
2279,-207.6710357666016,-76.09761810302734,235.2079162597656,-35.36823272705078
2280,-188.09640502929688,-73.16553497314453,242.8260955810547,-23.84934234619141
2281,-196.90760803222656,-89.65475463867188,235.3201141357422,-37.14468765258789
2282,-204.52952575683597,-92.76261138916016,238.69351196289062,-33.52820205688477
2283,-200.80831909179688,-76.51274108886719,245.8367156982422,-35.162540435791016
2284,-206.5303649902344,-61.01459884643555,244.96905517578125,-28.490558624267575
2285,-213.157470703125,-112.65139770507812,217.32745361328125,-57.18307113647461
2286,-200.46424865722656,-87.36219024658203,241.15435791015625,-42.32818603515625
2287,-205.32237243652344,-86.25518035888672,229.3961181640625,-60.6050796508789
2288,-201.42539978027344,-75.7348403930664,231.9130706787109,-50.33905410766602
2289,-200.06407165527344,-99.78614044189452,223.95455932617188,-38.69674301147461
2290,-196.3503570556641,-97.52349853515624,231.39321899414062,-55.09246444702149
2291,-205.8459625244141,-94.62882232666016,227.87771606445312,-51.33386611938477
2292,-202.3379364013672,-89.01522827148438,223.04949951171875,-42.29079055786133
2293,-213.29959106445312,-117.3075714111328,210.3488006591797,-51.43110275268555
2294,-210.786376953125,-90.48126983642578,219.6948089599609,-43.61845397949219
2295,-210.4273376464844,-93.31237030029295,226.19476318359372,-31.93874549865723
2296,-201.00653076171875,-97.23552703857422,227.5560760498047,-23.14250183105469
2297,-189.89903259277344,-93.177734375,226.95770263671875,-34.33975982666016
2298,-231.53533935546875,-90.44013214111328,215.85394287109372,-36.32190704345703
2299,-212.70494079589844,-108.694580078125,226.19102478027344,-40.81352996826172
2300,-195.8118133544922,-77.71324920654297,239.04879760742188,-29.642446517944336
2301,-202.7007141113281,-113.36197662353516,214.91896057128903,-54.11261367797852
2302,-230.75369262695312,-98.52579498291016,218.7187042236328,-36.81931686401367
2303,-214.507568359375,-77.87406921386719,230.0655517578125,-34.10414886474609
2304,-217.08436584472656,-100.7061538696289,216.22418212890625,-60.04409408569336
2305,-198.98324584960938,-112.51676177978516,226.06011962890625,-45.03587341308594
2306,-211.77745056152344,-94.4979248046875,232.38803100585938,-47.61640548706055
2307,-212.85079956054688,-107.0639877319336,230.71255493164062,-52.78120803833008
2308,-212.3795623779297,-100.8632354736328,222.6942138671875,-55.99378204345703
2309,-210.0982360839844,-82.32454681396484,222.54835510253903,-48.61869812011719
2310,-218.50552368164062,-112.55042266845705,216.4149169921875,-44.27293395996094
2311,-215.55474853515625,-113.84068298339844,201.48524475097656,-77.75251770019531
2312,-217.0133056640625,-86.80494689941406,209.0809783935547,-68.01381683349611
2313,-222.8961639404297,-123.3250732421875,196.4962158203125,-71.67892456054688
2314,-217.2115173339844,-101.88048553466795,201.88540649414062,-69.62197875976561
2315,-208.2769012451172,-133.11613464355472,207.3793182373047,-62.76674270629883
2316,-216.7702178955078,-122.86132049560548,203.84886169433597,-57.35510635375977
2317,-205.59913635253903,-97.93862915039062,211.1641082763672,-51.05337524414063
2318,-191.52589416503903,-95.81436920166016,222.4324188232422,-30.562461853027344
2319,-218.9243927001953,-100.58647918701172,210.55075073242188,-39.83367538452149
2320,-216.23541259765625,-89.84548950195312,206.208740234375,-40.9930419921875
2321,-227.4401397705078,-122.5658721923828,193.51551818847656,-55.20840454101562
2322,-205.20643615722656,-109.12841033935548,210.8275146484375,-46.3223991394043
2323,-222.57080078125,-107.4903335571289,206.8968811035156,-48.55512237548828
2324,-208.49755859375,-91.78649139404295,216.18304443359372,-46.24760437011719
2325,-215.4051513671875,-96.7830047607422,205.56173706054688,-60.85191345214844
2326,-207.40924072265625,-89.08255004882812,222.2603912353516,-45.00969696044922
2327,-193.84461975097656,-81.99169921875,234.9797821044922,-46.97688293457031
2328,-224.65765380859372,-92.52325439453124,213.96902465820312,-59.06050109863281
2329,-210.2889709472656,-92.4334945678711,226.12744140625,-5.673428058624268
2330,-225.0615692138672,-75.41695404052734,227.8403167724609,-76.6642074584961
2331,-213.27340698242188,-82.21234893798828,237.395751953125,-54.35570526123047
2332,-218.9094390869141,-97.3701629638672,223.1168212890625,-53.77228164672852
2333,-217.30126953125,-98.42481994628906,213.6810607910156,-50.98979568481445
2334,-222.20428466796875,-103.55596160888672,209.6494445800781,-59.8795394897461
2335,-217.2713623046875,-86.15420532226562,224.7287139892578,-49.04878616333008
2336,-193.6127471923828,-82.38064575195312,225.6262969970703,-47.66128540039063
2337,-212.71241760253903,-128.89378356933594,200.2510681152344,-70.38117980957031
2338,-198.37364196777344,-113.92296600341795,206.8856506347656,-56.910057067871094
2339,-224.2986297607422,-89.65475463867188,211.04815673828125,-51.65176010131836
2340,-210.5731964111328,-122.84262084960938,209.3091125488281,-53.08414077758789
2341,-211.76622009277344,-114.97761535644531,207.22972106933597,-58.0058479309082
2342,-208.72943115234372,-100.6612777709961,227.45884704589844,-41.688663482666016
2343,-206.4667816162109,-95.98640441894531,228.2928466796875,-28.13900756835937
2344,-180.8222961425781,-77.6197509765625,237.60519409179688,-21.758737564086914
2345,-215.43507385253903,-87.48934936523438,222.62689208984372,-29.515291213989254
2346,-213.2023468017578,-118.24254608154295,220.09124755859372,-40.96686553955078
2347,-216.29898071289062,-88.74969482421875,228.1170654296875,-26.60190773010254
2348,-221.21694946289062,-98.5557098388672,219.20114135742188,-20.778884887695312
2349,-224.66140747070312,-96.2481918334961,219.5826110839844,-35.147579193115234
2350,-207.9403076171875,-80.70890808105469,241.0870361328125,-36.4041862487793
2351,-213.50901794433597,-88.08773040771484,233.8465881347656,-42.41420364379883
2352,-213.5912933349609,-88.1587905883789,230.5854034423828,-41.33711242675781
2353,-211.6802062988281,-85.94103240966797,226.8492431640625,-40.30116271972656
2354,-209.8775787353516,-85.51467895507812,237.5752716064453,-39.268951416015625
2355,-207.9029083251953,-81.62144470214844,229.7738494873047,-35.6823844909668
2356,-226.0301971435547,-121.55609893798828,213.8156890869141,-52.50445556640625
2357,-226.3406219482422,-108.8927993774414,210.29644775390625,-44.325294494628906
2358,-219.07025146484372,-105.41468811035156,217.36859130859372,-33.898452758789055
2359,-212.3795623779297,-110.64681243896484,221.4263916015625,-31.14588737487793
2360,-211.89712524414062,-81.40079498291016,219.14878845214844,-22.465579986572266
2361,-224.40708923339844,-107.51651763916016,211.7138671875,-32.009803771972656
2362,-216.5944366455078,-102.03382110595705,219.66864013671875,-27.708919525146484
2363,-208.32925415039062,-101.8879623413086,228.60699462890625,-30.035137176513672
2364,-220.9402008056641,-113.39189910888672,219.5788726806641,-37.55607604980469
2365,-210.7227935791016,-92.14926147460938,224.57164001464844,-22.05044937133789
2366,-207.78697204589844,-112.56912231445312,222.5221710205078,-28.58779525756836
2367,-196.7467803955078,-80.54061889648438,235.68663024902344,-15.965632438659668
2368,-213.13128662109372,-96.0013656616211,224.8446502685547,-27.8884334564209
2369,-215.07603454589844,-87.63520812988281,229.33627319335938,-29.062763214111328
2370,-216.3139495849609,-97.52349853515624,231.7896423339844,-16.556537628173828
2371,-214.6048126220703,-77.59357452392578,236.09800720214844,-30.252050399780273
2372,-216.94972229003903,-73.27024841308594,228.0235748291016,-49.71075057983398
2373,-209.3091125488281,-70.19979095458984,233.9774932861328,-45.78011703491211
2374,-211.76622009277344,-70.30076599121094,238.56260681152344,-46.94696426391602
2375,-226.24337768554688,-100.12647247314452,215.4051513671875,-64.84612274169922
2376,-207.93283081054688,-85.64932250976562,227.67950439453125,-47.526649475097656
2377,-193.8147125244141,-72.40259552001953,247.3962554931641,-29.11138153076172
2378,-220.7008514404297,-89.89036560058594,224.45196533203125,-48.39804458618164
2379,-194.90301513671875,-70.80191802978516,241.36753845214844,-24.18219375610352
2380,-222.4361572265625,-90.3204574584961,221.77793884277344,-31.01873016357422
2381,-200.5577392578125,-90.87396240234376,226.6547698974609,-33.25893020629883
2382,-235.7838592529297,-130.913330078125,207.1661529541016,-58.86602401733398
2383,-222.0771331787109,-103.8177490234375,219.9491271972656,-37.163387298583984
2384,-197.48355102539062,-83.85042572021484,227.0586700439453,-27.37232780456543
2385,-202.02378845214844,-78.6631851196289,227.75804138183597,-21.53060340881348
2386,-218.61024475097656,-112.09789276123048,220.35304260253903,-42.115013122558594
2387,-211.30621337890625,-90.9076156616211,231.3520812988281,-37.24940490722656
2388,-210.54327392578125,-88.9217300415039,220.19970703125,-31.725570678710934
2389,-209.95611572265625,-59.61213684082031,223.55438232421875,-33.79747772216797
2390,-218.38211059570312,-120.77072143554688,218.43820190429688,-49.32928085327149
2391,-210.66668701171875,-81.30729675292969,224.48936462402344,-41.84947967529297
2392,-202.0013427734375,-69.33587646484375,233.8540802001953,-16.515398025512695
2393,-207.6934814453125,-93.7985610961914,222.15940856933597,-77.91333770751953
2394,-198.7887725830078,-72.20811462402344,238.40179443359372,-51.37874603271485
2395,-218.5391845703125,-76.1163101196289,231.9280242919922,-62.58722686767578
2396,-221.71435546875,-77.40283966064453,222.16688537597656,-65.15279388427734
2397,-205.4906768798828,-76.98023223876953,215.72303771972656,-60.79207229614258
2398,-218.1951141357422,-84.07108306884766,213.1350250244141,-57.14567184448242
2399,-222.0584259033203,-78.99229431152344,211.6241149902344,-51.00849533081055
2400,-215.80157470703125,-84.17953491210938,214.07374572753903,-45.75393676757813
2401,-202.90640258789062,-89.91654205322266,207.1399688720703,-51.28524780273438
2402,-203.93487548828125,-95.90038299560548,211.8522491455078,-46.54305648803711
2403,-194.97781372070312,-93.31985473632812,225.5851593017578,-31.041170120239254
2404,-202.0724029541016,-94.46052551269531,219.2422790527344,-35.76840209960937
2405,-209.2978973388672,-100.54907989501952,212.71241760253903,-31.426380157470703
2406,-204.5444793701172,-88.12512969970703,216.6729736328125,-46.614112854003906
2407,-207.24095153808597,-97.45618438720705,228.09837341308597,-35.098960876464844
2408,-209.0061798095703,-101.33819580078124,213.61373901367188,-46.01947021484375
2409,-205.1914825439453,-58.13861465454102,215.2480773925781,-33.169174194335945
2410,-200.30343627929688,-119.9928207397461,216.35882568359372,-41.93549728393555
2411,-206.9342803955078,-87.8782958984375,223.1990966796875,-36.94647216796875
2412,-214.01577758789062,-98.39302825927734,212.82835388183597,-49.64904022216797
2413,-204.3556060791016,-77.0456771850586,231.9691619873047,-44.25984573364258
2414,-206.1619873046875,-81.5634765625,234.4674224853516,-54.50717163085938
2415,-213.94471740722656,-91.14510345458984,232.8256072998047,-45.44165420532226
2416,-196.2475128173828,-78.43318176269531,231.7522430419922,-56.53793716430664
2417,-189.2090148925781,-86.04387664794922,227.88145446777344,-72.33527374267578
2418,-231.27540588378903,-87.77171325683594,223.1056060791016,-73.00471496582031
2419,-199.13845825195312,-75.67313385009766,231.9916076660156,-56.89696884155274
2420,-215.5453948974609,-85.16126251220703,222.50347900390625,-51.90793991088867
2421,-209.70367431640625,-80.71826171875,217.2563934326172,-51.43671417236328
2422,-229.80563354492188,-93.12725067138672,215.92498779296875,-47.93242645263672
2423,-204.2022705078125,-83.31375122070312,230.1478271484375,-28.74300193786621
2424,-214.7226104736328,-83.39977264404297,215.1844940185547,-35.56831741333008
2425,-221.6489105224609,-93.51993560791016,212.4207000732422,-29.606918334960934
2426,-220.48580932617188,-78.19757080078125,221.9275360107422,-23.271528244018555
2427,-195.3835906982422,-82.10950469970703,217.92210388183597,-30.06318664550781
2428,-236.28314208984372,-99.46637725830078,193.3135528564453,-48.87488174438477
2429,-223.90032958984372,-100.47988891601562,208.1422576904297,-37.3185920715332
2430,-219.5209045410156,-89.45466613769531,214.70953369140625,-42.20289993286133
2431,-214.2738342285156,-91.26103973388672,215.65945434570312,-41.37638473510742
2432,-202.78858947753903,-80.56492614746094,227.3990020751953,-29.70415496826172
2433,-221.49557495117188,-96.575439453125,214.41033935546875,-47.07973098754883
2434,-196.67759704589844,-75.36272430419922,237.1451873779297,-29.32268524169922
2435,-224.5361175537109,-81.86640930175781,225.3121490478516,-9.703170776367188
2436,-224.19204711914062,-80.66963958740234,222.0135498046875,-67.70902252197266
2437,-219.06837463378903,-78.75855255126953,225.3607635498047,-53.56471633911133
2438,-214.3336639404297,-69.37140655517578,238.48033142089844,-47.78657150268555
2439,-219.1693572998047,-67.54259490966797,235.1368560791016,-52.1323356628418
2440,-215.39205932617188,-72.14640808105469,229.0258636474609,-60.27783584594727
2441,-221.0954132080078,-83.53440856933594,217.50323486328125,-70.53638458251953
2442,-214.14292907714844,-93.13472747802734,222.41372680664062,-66.91616058349611
2443,-212.79283142089844,-70.800048828125,241.9734039306641,-51.17866134643555
2444,-208.62657165527344,-92.95521545410156,236.50192260742188,-58.5986213684082
2445,-211.95135498046875,-69.07221221923828,235.05458068847656,-54.59318923950195
2446,-208.84722900390625,-73.39553833007812,233.9363555908203,-49.12545776367188
2447,-215.24246215820312,-98.85303497314452,228.77903747558597,-51.45915222167969
2448,-208.55552673339844,-101.30267333984376,214.3504943847656,-55.44214630126953
2449,-182.45849609375,-80.95387268066406,222.75030517578125,-42.82372283935547
2450,-249.73182678222656,-103.75978088378906,209.39138793945312,-53.82651138305664
2451,-212.41136169433597,-90.6551742553711,227.0699005126953,-40.25815200805664
2452,-210.5825500488281,-94.10336303710938,223.8161773681641,-41.12955093383789
2453,-207.03338623046875,-84.50678253173828,224.5230255126953,-45.16490173339844
2454,-210.2646484375,-75.11962890625,222.4511260986328,-52.465187072753906
2455,-222.3108673095703,-64.01960754394531,232.52267456054688,-30.740108489990234
2456,-211.8728179931641,-77.40097045898438,229.56814575195312,-52.1024169921875
2457,-214.30747985839844,-74.39408874511719,226.90533447265625,-62.24128341674805
2458,-212.37022399902344,-59.01562118530274,232.3656005859375,-44.01301193237305
2459,-215.63140869140625,-72.76349639892578,227.70941162109372,-52.57738494873047
2460,-217.6434783935547,-71.00948333740234,223.7974853515625,-52.33055114746094
2461,-209.22496032714844,-82.76398468017578,222.6418609619141,-55.86849594116211
2462,-218.8477325439453,-78.23870849609375,229.36993408203125,-58.00771713256836
2463,-216.0577545166016,-84.1290512084961,227.6907196044922,-53.35154342651367
2464,-216.4167938232422,-86.79560089111328,221.5797271728516,-53.29544448852539
2465,-215.5304412841797,-58.63041305541992,232.07388305664062,-37.04557800292969
2466,-199.01878356933597,-77.6253662109375,232.74331665039062,-33.62356948852539
2467,-243.0710601806641,-88.50473022460938,221.09727478027344,-34.38277053833008
2468,-210.48904418945312,-84.44693756103516,226.2171936035156,-36.24150085449219
2469,-213.2939758300781,-89.59678649902344,223.838623046875,-43.00323867797852
2470,-221.2637023925781,-83.28382873535156,228.6256866455078,-32.23232650756836
2471,-221.6376953125,-98.77075958251952,222.488525390625,-34.293014526367195
2472,-218.0361633300781,-99.12230682373048,216.1718292236328,-34.031219482421875
2473,-211.6484222412109,-95.82371520996094,217.9183654785156,-33.473976135253906
2474,-222.3594970703125,-114.63541412353516,214.11114501953125,-50.83832931518555
2475,-213.59690856933597,-95.79753875732422,224.6988067626953,-42.85364532470703
2476,-211.0425567626953,-102.61537170410156,224.32481384277344,-20.39928436279297
2477,-229.7757110595703,-94.54840850830078,212.60769653320312,-54.140663146972656
2478,-221.7611083984375,-79.07270812988281,223.91342163085938,-54.04716491699219
2479,-213.7053680419922,-66.14761352539061,246.5211181640625,-38.17502975463867
2480,-211.027587890625,-92.15861511230469,226.18353271484372,-53.25056457519531
2481,-208.1441345214844,-64.55441284179689,226.50143432617188,-47.73421478271485
2482,-254.3655548095703,-104.1449966430664,208.5386962890625,-69.62384796142578
2483,-219.24789428710938,-95.11687469482422,215.2705078125,-56.06671142578125
2484,-210.182373046875,-78.72489166259766,221.4301300048828,-50.557838439941406
2485,-211.89898681640625,-89.08441925048828,211.60166931152344,-65.37905883789061
2486,-220.38482666015625,-89.66036224365234,215.33782958984372,-67.40982818603516
2487,-212.5235595703125,-89.8323974609375,218.8421173095703,-59.713111877441406
2488,-208.327392578125,-82.85374450683594,213.08267211914062,-47.93990707397461
2489,-226.57061767578125,-99.6720733642578,194.09146118164062,-74.40718078613281
2490,-205.8179168701172,-107.13317108154295,218.9692687988281,-51.57135009765625
2491,-192.34304809570312,-83.66156005859375,231.4231414794922,-34.24065399169922
2492,-201.3636932373047,-85.52777099609375,219.601318359375,-37.08671951293945
2493,-221.3085784912109,-98.21351623535156,219.44798278808597,-31.97801399230957
2494,-221.2599639892578,-104.51150512695312,209.90374755859372,-39.92156219482422
2495,-223.01397705078125,-98.21351623535156,218.1240539550781,-24.748788833618164
2496,-204.1199951171875,-83.90465545654297,219.8930206298828,-40.49750518798828
2497,-214.5094451904297,-76.33135986328125,219.2497711181641,-44.29724502563477
2498,-221.5928192138672,-77.19153594970703,227.08859252929688,-39.255859375
2499,-210.3656311035156,-83.44464874267578,228.9585418701172,-43.65024185180664
2500,-222.62876892089844,-77.78244018554688,217.64535522460938,-37.04932022094727
2501,-225.8226318359375,-104.9490737915039,218.94309997558597,-47.70055389404297
2502,-202.96063232421875,-62.26933288574219,244.1013946533203,-24.995620727539066
2503,-222.1388397216797,-87.43511962890625,220.80181884765625,-47.5359992980957
2504,-196.4569396972656,-70.21288299560547,238.50277709960938,-38.28722763061523
2505,-210.1898498535156,-72.49796295166016,230.7424774169922,-47.32656478881836
2506,-205.97872924804688,-67.11624145507811,233.4389495849609,-55.4945068359375
2507,-219.3114776611328,-110.13631439208984,221.7667236328125,-65.52117919921875
2508,-201.3861389160156,-84.4319839477539,233.02755737304688,-51.65362930297852
2509,-201.2814178466797,-80.40410614013672,227.8141326904297,-53.44504165649414
2510,-216.121337890625,-93.19082641601562,221.2393951416016,-48.82626342773438
2511,-206.9436187744141,-85.50533294677734,223.76382446289062,-55.48328399658203
2512,-214.18780517578125,-81.36526489257812,216.94598388671875,-47.12086868286133
2513,-208.9182891845703,-101.2764892578125,212.5216827392578,-50.07538986206055
2514,-203.1887664794922,-91.64624786376952,227.0511932373047,-35.24668884277344
2515,-220.59051513671875,-75.29914855957031,229.16050720214844,-12.680130958557127
2516,-231.9747772216797,-102.55927276611328,210.3936767578125,-60.8350830078125
2517,-210.698486328125,-85.34825897216797,223.4122772216797,-48.65796661376953
2518,-195.1367645263672,-80.01142120361328,239.1460266113281,-38.20494842529297
2519,-205.87774658203125,-75.9424057006836,235.6941070556641,-49.8846549987793
2520,-204.7669982910156,-48.69723892211914,237.2199859619141,-34.53610610961914
2521,-222.0041961669922,-92.70838165283205,216.8450164794922,-45.25465774536133
2522,-219.37130737304688,-96.46324157714844,226.19476318359372,-37.408348083496094
2523,-216.9815216064453,-79.70101165771484,230.89581298828125,-24.868465423583984
2524,-215.2611541748047,-82.06836700439453,226.3667907714844,-34.524887084960945
2525,-210.0066070556641,-79.85808563232422,224.27993774414062,-32.161270141601555
2526,-218.7878875732422,-85.79704284667969,218.8009796142578,-47.02363204956055
2527,-207.1904602050781,-82.36007690429688,226.3144378662109,-46.08491897583008
2528,-196.8346710205078,-75.70305633544922,221.30296325683597,-51.12256240844727
2529,-223.35430908203125,-92.9477310180664,220.6073455810547,-57.15876007080078
2530,-217.72201538085938,-93.33294677734376,216.4934539794922,-63.49040985107422
2531,-194.52716064453125,-74.356689453125,232.5712890625,-49.02821731567383
2532,-230.0113220214844,-87.8652114868164,206.3097076416016,-58.52382278442383
2533,-207.3550109863281,-73.07390594482422,221.3777618408203,-43.238853454589844
2534,-216.82443237304688,-77.41218566894531,216.1531219482422,-45.067665100097656
2535,-205.0213165283203,-74.92515563964844,231.52037048339844,-38.582679748535156
2536,-209.47927856445312,-78.35090637207031,221.8377685546875,-41.885009765625
2537,-206.4424743652344,-98.31075286865234,221.87142944335938,-41.34646224975586
2538,-209.4755401611328,-73.94530487060547,230.69012451171875,-17.37370491027832
2539,-206.68931579589844,-68.18585968017578,230.98182678222656,-62.402099609375
2540,-203.09152221679688,-105.7905502319336,222.33143615722656,-61.5868034362793
2541,-206.3340148925781,-79.89922332763672,227.08485412597656,-48.19047927856445
2542,-212.24305725097656,-103.4605941772461,227.4476318359375,-55.03823852539063
2543,-206.9436187744141,-76.88860321044922,237.04046630859372,-39.98514175415039
2544,-214.67025756835938,-92.34934997558594,214.94888305664062,-54.72034454345703
2545,-203.82455444335938,-83.0295181274414,219.10765075683597,-43.39592742919922
2546,-224.2743225097656,-75.50483703613281,220.4091339111328,-42.99201965332031
2547,-216.89923095703125,-84.90695190429688,219.930419921875,-50.99540710449219
2548,-206.0348358154297,-90.1128921508789,217.9557647705078,-45.13124084472656
2549,-202.9007873535156,-86.41413116455078,223.90594482421875,-34.285533905029304
2550,-220.38482666015625,-83.64659881591797,214.99002075195312,-46.98997116088867
2551,-223.7544708251953,-78.45561981201172,215.72303771972656,-45.3481559753418
2552,-198.76446533203125,-94.7503662109375,221.74053955078125,-36.76508712768555
2553,-214.0531768798828,-94.451171875,215.1284027099609,-42.71526718139648
2554,-204.5388641357422,-65.41085052490234,234.94985961914062,-31.34597206115723
2555,-224.5996856689453,-96.02567291259766,224.74742126464844,-50.60271453857422
2556,-212.65444946289062,-92.57374572753906,224.2200927734375,-29.715375900268555
2557,-212.9985198974609,-99.6720733642578,226.7033843994141,-5.215290546417236
2558,-208.73129272460938,-105.05753326416016,222.8737335205078,-63.76716232299805
2559,-205.8291320800781,-87.22942352294922,234.4786376953125,-37.31485366821289
2560,-204.56504821777344,-94.01734161376952,219.2983856201172,-47.77161026000977
2561,-204.4229278564453,-92.1212158203125,222.6418609619141,-51.92663955688477
2562,-209.90562438964844,-84.22628784179688,228.2816162109375,-44.79839324951172
2563,-210.42921447753903,-90.77484893798828,234.03358459472656,-50.64385604858398
2564,-204.4603271484375,-89.79499816894531,230.1590576171875,-44.79839324951172
2565,-205.49253845214844,-90.26622772216795,231.1164703369141,-43.7811393737793
2566,-198.3605499267578,-81.81404876708984,238.89920043945312,-29.992128372192386
2567,-218.2867431640625,-85.7820816040039,212.95176696777344,-55.59922409057617
2568,-195.6491241455078,-90.03809356689453,227.17086791992188,-38.4405632019043
2569,-215.1601867675781,-87.55479431152344,222.22299194335938,-34.11349868774414
2570,-209.7186279296875,-72.58397674560547,231.50167846679688,-28.40641021728516
2571,-199.85276794433597,-86.15233612060547,229.7289581298828,-35.658077239990234
2572,-197.9342041015625,-114.27264404296876,208.486328125,-49.85847473144531
2573,-216.15126037597656,-93.84530639648438,208.03005981445312,-33.48519515991211
2574,-206.81272888183597,-82.11698150634766,221.32167053222656,-30.418476104736328
2575,-212.5123291015625,-91.67242431640624,223.04949951171875,-34.667003631591804
2576,-199.06365966796875,-93.36286163330078,224.1864318847656,-39.70090866088867
2577,-204.2920379638672,-76.87364196777344,232.04022216796875,-31.559144973754886
2578,-207.5756683349609,-84.20011138916016,232.66477966308597,-39.74952697753906
2579,-206.7080078125,-88.26911926269531,236.1428985595703,-5.503262996673584
2580,-206.3452453613281,-96.25006866455078,227.49624633789062,-67.55942535400389
2581,-194.4074859619141,-64.77132415771484,241.27777099609372,-38.49665832519531
2582,-207.5831451416016,-79.18489837646484,236.99185180664062,-47.82023239135742
2583,-202.0106964111328,-45.55572128295898,251.9140472412109,-37.11289596557617
2584,-213.8736572265625,-68.96749877929689,235.27149963378903,-41.98224639892578
2585,-221.6975250244141,-92.5475616455078,217.24143981933597,-51.67606735229492
2586,-217.38916015625,-102.33114624023438,223.5843048095703,-68.24382781982422
2587,-218.06982421875,-76.9634017944336,227.7804718017578,-51.03280639648438
2588,-234.62635803222656,-121.92073822021484,205.5766906738281,-68.31861877441406
2589,-226.23776245117188,-94.3314971923828,209.7691192626953,-56.71745300292969
2590,-211.2594757080078,-123.536376953125,213.8643035888672,-58.77065658569336
2591,-229.30075073242188,-105.75688934326172,210.24034118652344,-54.95222091674805
2592,-238.0072326660156,-101.9384536743164,204.1704864501953,-51.48159408569336
2593,-211.65216064453125,-102.91830444335938,222.3576202392578,-41.67931365966797
2594,-227.8646240234375,-118.69320678710938,209.8065185546875,-55.79369735717773
2595,-220.12677001953125,-110.7945327758789,224.1004180908203,-32.060291290283196
2596,-217.3106231689453,-121.0904769897461,214.6646423339844,-41.1220703125
2597,-194.2803192138672,-100.1507797241211,230.6040954589844,-22.867618560791016
2598,-224.3939971923828,-111.98382568359376,219.3843994140625,-14.636098861694336
2599,-213.17056274414062,-56.13216018676758,240.57467651367188,-16.592065811157227
2600,-217.5238037109375,-114.25020599365234,224.87083435058597,-41.39134216308594
2601,-208.74252319335938,-105.22582244873048,234.07846069335938,-38.40690231323242
2602,-228.76968383789062,-83.79994201660156,232.20103454589844,-44.17756652832031
2603,-219.5321350097656,-111.94268798828124,236.99185180664062,-42.07200622558594
2604,-217.9838104248047,-94.22677612304688,227.29803466796875,-44.94424819946289
2605,-232.9658508300781,-114.4222412109375,218.9580535888672,-51.23476028442383
2606,-240.85704040527344,-110.48786163330078,210.98085021972656,-60.37507629394531
2607,-220.6578369140625,-107.86619567871094,218.0529937744141,-50.03425216674805
2608,-214.4570770263672,-106.08226013183594,219.84814453125,-51.784523010253906
2609,-215.4930419921875,-100.25923919677734,219.3731842041016,-53.06357192993164
2610,-218.31292724609372,-102.0581283569336,223.21031188964844,-38.30218505859375
2611,-197.470458984375,-84.10661315917969,235.00222778320312,-25.3995304107666
2612,-230.92759704589844,-111.36299896240234,212.136474609375,-45.57629013061523
2613,-217.7070617675781,-90.51119232177734,220.29507446289062,-28.91503715515137
2614,-212.7180328369141,-108.0700225830078,225.26165771484372,-24.374797821044922
2615,-221.039306640625,-94.30718994140624,223.72454833984372,-21.54369354248047
2616,-203.80584716796875,-96.48007202148438,226.8997344970703,-22.979814529418945
2617,-202.5417633056641,-102.19463348388672,228.8070831298828,-21.00514793395996
2618,-206.36767578125,-66.92363739013672,246.50428771972656,17.83371353149414
2619,-226.0358123779297,-112.60651397705078,225.7478485107422,-54.32765579223633
2620,-216.55142211914062,-90.8477783203125,235.14620971679688,-35.459861755371094
2621,-216.42800903320312,-79.21295166015625,235.56881713867188,-37.01565933227539
2622,-223.1747894287109,-85.04345703125,235.6735382080078,-40.73311996459961
2623,-203.71983337402344,-95.93778228759766,245.0868682861328,-29.86123085021973
2624,-204.0975646972656,-88.44302368164062,235.4977569580078,-31.71622085571289
2625,-209.1314697265625,-89.87540435791016,230.2469482421875,-38.1226692199707
2626,-203.31591796875,-71.16842651367188,242.67837524414062,-29.25910758972168
2627,-207.55322265625,-91.40876770019531,239.13668823242188,-46.68704223632813
2628,-233.4295959472656,-112.09040832519531,214.10179138183597,-58.98383331298828
2629,-211.68582153320312,-98.095703125,221.7611083984375,-47.9174690246582
2630,-224.5697784423828,-91.89495086669922,217.8155059814453,-42.40485382080078
2631,-219.8911590576172,-126.94529724121094,210.6610870361328,-59.6719741821289
2632,-200.7914886474609,-98.49961853027344,213.6156005859375,-42.56193161010742
2633,-229.92530822753903,-101.0203094482422,208.89959716796875,-37.408348083496094
2634,-219.98838806152344,-117.49082946777344,209.5054626464844,-38.30966567993164
2635,-221.9967193603516,-93.23757934570312,222.8643798828125,-24.41967582702637
2636,-228.52658081054688,-109.4762191772461,212.25802612304688,-40.89767456054688
2637,-230.6134490966797,-114.45402526855469,217.9015350341797,-30.710187911987305
2638,-226.5070343017578,-90.05117797851562,221.1776885986328,-35.09334945678711
2639,-235.00035095214844,-109.56971740722656,219.88742065429688,-27.822986602783203
2640,-230.3254852294922,-75.08409881591797,222.5539703369141,-19.01926040649414
2641,-226.65289306640625,-96.79795837402344,216.5813446044922,-61.77379608154297
2642,-230.81539916992188,-94.19873046875,213.60064697265625,-56.810951232910156
2643,-230.8228912353516,-107.13878631591795,218.6607360839844,-54.3613166809082
2644,-222.6848602294922,-94.88687133789062,220.0145721435547,-54.7614860534668
2645,-219.14691162109372,-82.34324645996094,230.0711669921875,-51.77704620361328
2646,-234.349609375,-119.71981048583984,223.03640747070312,-68.58041381835939
2647,-214.96197509765625,-90.03996276855469,243.4674835205078,-47.9249496459961
2648,-223.94894409179688,-109.29296875,223.8778839111328,-69.44058990478516
2649,-216.14378356933597,-102.36293029785156,219.49473571777344,-63.72228622436523
2650,-231.3763885498047,-90.97867584228516,221.9892425537109,-56.72119140625
2651,-203.97039794921875,-86.24022674560547,226.802490234375,-48.53081130981445
2652,-235.1985626220703,-108.6123046875,209.4418792724609,-67.91471099853516
2653,-240.195068359375,-113.72848510742188,207.3550109863281,-62.09917068481445
2654,-229.6971740722656,-95.81436920166016,214.1840667724609,-54.34261703491211
2655,-216.70101928710938,-91.45364379882812,220.50450134277344,-34.24439239501953
2656,-250.81265258789062,-80.87720489501953,199.2730865478516,-39.45033645629883
2657,-241.6125030517578,-101.0240478515625,202.18272399902344,-53.42634201049805
2658,-232.5282745361328,-97.76659393310548,215.8782501220703,-37.59534454345703
2659,-238.1568298339844,-106.65633392333984,212.893798828125,-47.88380813598633
2660,-225.42620849609372,-83.21464538574219,224.4388732910156,-34.70066070556641
2661,-199.95748901367188,-92.30259704589844,235.47532653808597,-26.555160522460934
2662,-258.41961669921875,-109.00499725341795,211.8802947998047,-40.97247314453125
2663,-239.1665954589844,-105.41842651367188,221.7012634277344,-32.034114837646484
2664,-218.9300079345703,-94.5203628540039,228.0067443847656,-52.85039520263672
2665,-220.11181640625,-98.6566925048828,220.3062896728516,-46.15971374511719
2666,-225.4449157714844,-96.39778900146484,222.49038696289062,-46.0923957824707
2667,-230.3666229248047,-101.20730590820312,219.3937530517578,-51.83314514160156
2668,-213.9596710205078,-91.21428680419922,224.67074584960938,-36.02084732055664
2669,-232.0981903076172,-119.19622039794922,210.92662048339844,-58.09373474121094
2670,-232.41233825683597,-117.92839813232422,212.32159423828125,-60.63686752319336
2671,-217.21713256835938,-103.6756362915039,226.8174591064453,-43.88959503173828
2672,-222.98779296875,-93.04684448242188,218.4961700439453,-44.61139678955078
2673,-227.9356842041016,-115.6956787109375,205.06993103027344,-48.60187149047852
2674,-239.72384643554688,-102.02259826660156,211.5063018798828,-38.515357971191406
2675,-237.56967163085938,-103.2530288696289,218.47373962402344,-34.068618774414055
2676,-248.1610565185547,-63.09772109985352,218.8776397705078,-23.974628448486328
2677,-234.29725646972656,-121.52617645263672,209.0454406738281,-27.56493186950684
2678,-236.02134704589844,-111.43966674804688,215.51547241210938,-29.79765319824219
2679,-252.0804748535156,-116.11454010009766,210.5414123535156,-29.19552993774414
2680,-238.3251190185547,-120.38925170898438,208.94073486328125,-29.812612533569336
2681,-229.91783142089844,-92.0108871459961,213.05088806152344,-23.52958106994629
2682,-248.3966827392578,-131.68000793457028,209.09780883789062,-16.569625854492188
2683,-235.2658843994141,-113.29466247558594,222.03411865234372,-14.123732566833494
2684,-225.0559539794922,-109.68565368652344,226.7950134277344,-43.42584991455078
2685,-227.28868103027344,-99.62906646728516,222.0864715576172,-33.70958709716797
2686,-215.2798614501953,-100.2798080444336,232.1580352783203,-37.79729843139648
2687,-216.42800903320312,-106.94805145263672,229.1137542724609,-31.8732967376709
2688,-219.6480712890625,-107.90172576904295,233.11170959472656,-33.38795852661133
2689,-216.26719665527344,-97.9087142944336,229.8093719482422,-31.813459396362305
2690,-223.64601135253903,-100.2424087524414,231.75038146972656,-38.10396957397461
2691,-209.40821838378903,-98.86986541748048,237.62576293945312,-25.53790664672852
2692,-197.50038146972656,-72.00242614746094,236.3878631591797,-31.562885284423828
2693,-238.3662567138672,-95.58997344970705,219.8462829589844,-43.56422424316406
2694,-225.4449157714844,-91.31900787353516,236.64964294433597,-34.640823364257805
2695,-231.7989959716797,-86.46835327148438,236.22329711914062,-29.40122413635254
2696,-229.71961975097656,-98.85116577148438,237.7790985107422,-29.60317802429199
2697,-220.2726287841797,-87.98675537109375,236.95257568359372,-28.74300193786621
2698,-239.2264404296875,-109.27800750732422,227.1502990722656,-34.19577407836914
2699,-220.63165283203125,-91.0272979736328,242.1510467529297,-12.814766883850098
2700,-239.8734436035156,-112.81594848632812,215.6650695800781,-32.56143951416016
2701,-225.13824462890625,-90.65330505371094,231.23802185058597,-14.879192352294922
2702,-238.2204132080078,-111.84732055664062,221.35345458984372,-26.61873817443848
2703,-239.1927795410156,-93.7574234008789,231.5484313964844,3.0498883724212646
2704,-237.0647735595703,-95.4478530883789,215.76231384277344,-45.96524047851562
2705,-207.7664031982422,-77.48511505126953,230.63589477539062,-40.39653015136719
2706,-243.70684814453125,-130.40470886230472,204.9839172363281,-59.28676223754883
2707,-219.24789428710938,-97.24301147460938,228.19747924804688,-50.23994445800781
2708,-209.41943359375,-107.90172576904295,222.98031616210938,-48.64674758911133
2709,-215.30978393554688,-106.73861694335938,218.90382385253903,-59.59717559814453
2710,-224.9849090576172,-81.61770629882812,234.5852203369141,-41.43996047973633
2711,-223.2234039306641,-96.03501892089844,229.28952026367188,-50.81214904785156
2712,-219.96221923828125,-77.10738372802734,226.4808654785156,-59.93750762939453
2713,-211.39036560058597,-119.45801544189452,222.92420959472656,-62.24502563476562
2714,-222.27720642089844,-89.2209243774414,236.49256896972656,-43.53056716918945
2715,-219.88742065429688,-85.59322357177734,244.8662109375,-34.846519470214844
2716,-219.70416259765625,-70.70841979980469,245.25889587402344,-28.88511657714844
2717,-223.2047119140625,-82.24227142333984,230.1422271728516,-28.8327579498291
2718,-226.70152282714844,-76.15745544433594,243.37399291992188,-18.293720245361328
2719,-215.01806640625,-95.45159912109376,243.47496032714844,-15.137245178222654
2720,-217.20965576171875,-94.87939453125,232.3038787841797,-26.13629150390625
2721,-235.7894744873047,-100.14891052246094,213.9709014892578,-34.756759643554695
2722,-238.1269073486328,-86.40103912353516,224.595947265625,-24.92082405090332
2723,-226.6828155517578,-111.67528533935548,223.7133331298828,-20.533920288085934
2724,-236.2270355224609,-101.22600555419922,215.7735290527344,-1.2435166835784912
2725,-220.3474273681641,-92.74391174316406,212.14208984375,-51.90046310424805
2726,-228.7248077392578,-122.74164581298828,210.7919769287109,-51.4105339050293
2727,-196.7037811279297,-82.76211547851562,231.3277740478516,-32.449241638183594
2728,-225.28782653808597,-117.6479034423828,213.42112731933597,-42.01964569091797
2729,-216.966552734375,-75.32719421386719,230.00010681152344,-23.18177032470703
2730,-229.58871459960938,-119.30094146728516,213.04339599609372,-55.40848922729492
2731,-209.3745574951172,-110.64307403564452,219.88742065429688,-54.61562728881836
2732,-205.45513916015625,-96.00884246826172,221.379638671875,-41.63817596435547
2733,-196.46067810058597,-87.4556884765625,229.9514923095703,-42.53201293945313
2734,-211.7531280517578,-97.22431182861328,227.6215362548828,-49.51814651489258
2735,-205.17091369628903,-81.77104187011719,233.1603240966797,-39.2857780456543
2736,-184.60519409179688,-75.11775970458984,242.81300354003903,-27.849164962768555
2737,-218.44381713867188,-80.39476013183594,227.49436950683597,-38.391944885253906
2738,-220.54563903808597,-83.97384643554688,235.98020935058597,-40.48628616333008
2739,-207.0894775390625,-87.56788635253906,235.98394775390625,-35.800193786621094
2740,-202.9494171142578,-90.45509338378906,232.36746215820312,-38.06283187866211
2741,-218.57470703125,-93.29741668701172,222.02664184570312,-44.65627670288086
2742,-214.1765899658203,-75.9928970336914,235.30702209472656,-26.951589584350586
2743,-204.79318237304688,-84.95369720458984,239.62661743164062,-6.901985168457031
2744,-221.5853271484375,-80.95574188232422,223.8031005859375,-59.91132736206055
2745,-225.6356506347656,-87.93814086914062,212.3290863037109,-42.9995002746582
2746,-215.1601867675781,-94.9242706298828,221.2225646972656,-35.740352630615234
2747,-222.6250305175781,-93.44326782226562,220.72142028808597,-33.39169692993164
2748,-212.96859741210938,-91.01233673095705,218.9300079345703,-36.9371223449707
2749,-215.4556427001953,-64.93401336669922,222.45672607421875,-24.96944236755371
2750,-210.93783569335938,-124.60411834716795,216.83192443847656,-53.25430679321289
2751,-190.61895751953125,-98.42107391357422,224.7006683349609,-44.8956298828125
2752,-205.5449066162109,-96.79421997070312,228.1600799560547,-42.89104080200195
2753,-195.99693298339844,-88.39814758300781,229.70838928222656,-46.0288200378418
2754,-193.6221008300781,-94.22490692138672,232.6703948974609,-45.92036056518555
2755,-214.2476501464844,-89.1797866821289,221.09165954589844,-56.05923080444336
2756,-187.5784149169922,-68.41960144042969,243.65074157714844,-45.7296257019043
2757,-214.9283142089844,-89.44157409667969,230.77052307128903,-53.29170608520508
2758,-208.41714477539062,-73.90603637695312,245.0793914794922,-46.04377746582031
2759,-206.1694641113281,-39.90286254882813,256.744140625,-14.51268196105957
2760,-209.3782958984375,-89.6023941040039,241.3058319091797,-48.67292785644531
2761,-210.2235107421875,-81.57656860351562,229.83929443359372,-33.86292266845703
2762,-213.5669860839844,-83.08000946044922,234.80213928222656,-37.139076232910156
2763,-219.5059509277344,-81.6326675415039,229.91783142089844,-32.15378952026367
2764,-204.19479370117188,-75.11402130126953,236.09988403320312,-3.2368834018707275
2765,-202.23509216308597,-85.85127258300781,226.02833557128903,-30.56433296203613
2766,-224.24066162109372,-69.24611663818361,232.37493896484372,-40.16839599609375
2767,-241.8855133056641,-101.21104431152344,216.9852600097656,-40.856536865234375
2768,-208.0992584228516,-82.2160873413086,234.4505920410156,-21.446456909179688
2769,-209.1202392578125,-99.64776611328124,225.6954803466797,-42.12436294555664
2770,-206.8389129638672,-89.32563781738281,234.2224578857422,-34.19203567504883
2771,-215.30230712890625,-91.36762237548828,221.8134613037109,-37.33354949951172
2772,-201.21783447265625,-73.97708892822266,232.401123046875,-26.921669006347656
2773,-209.1165008544922,-88.31586456298828,223.96017456054688,-37.6888427734375
2774,-211.0201110839844,-57.121360778808594,226.15548706054688,-39.37553787231445
2775,-204.20602416992188,-107.5726089477539,230.90516662597656,-48.02218627929688
2776,-194.37008666992188,-82.75089263916016,240.42320251464844,-42.79380416870117
2777,-194.61691284179688,-87.22381591796875,235.5314178466797,-42.88356399536133
2778,-212.96859741210938,-90.4438705444336,234.5852203369141,-45.16490173339844
2779,-185.3045654296875,-69.61262512207031,249.39149475097656,-36.30881881713867
2780,-192.3505401611328,-58.12739562988281,246.8595733642578,-24.273820877075195
2781,-214.20651245117188,-86.05323028564453,229.61489868164062,-55.53938293457031
2782,-200.7466125488281,-78.71180725097656,236.88153076171875,-34.524887084960945
2783,-209.34837341308597,-59.78417205810547,246.44818115234372,-26.80947303771973
2784,-205.8927154541016,-67.32754516601561,241.79200744628903,-37.63648223876953
2785,-223.6871490478516,-75.80963897705078,228.73228454589844,-39.22220230102539
2786,-217.1460723876953,-86.651611328125,230.48629760742188,-29.71163558959961
2787,-216.5551605224609,-76.08265686035156,229.80563354492188,-24.232681274414066
2788,-218.06234741210938,-67.12933349609375,222.1650238037109,-24.696430206298828
2789,-228.163818359375,-108.54498291015624,197.87062072753903,-52.40534973144531
2790,-226.33126831054688,-107.26593780517578,203.0129852294922,-50.37458419799805
2791,-207.92721557617188,-68.58041381835939,223.63853454589844,-36.02832794189453
2792,-215.17140197753903,-110.8599853515625,206.6332092285156,-53.44129943847656
2793,-209.5204162597656,-105.22769165039062,205.33172607421875,-49.36106872558594
2794,-212.893798828125,-94.02669525146484,202.5492401123047,-42.969581604003906
2795,-190.09536743164062,-103.38018798828124,207.9459228515625,-43.25007247924805
2796,-220.4558868408203,-109.59215545654295,194.8076477050781,-49.36854934692383
2797,-204.7520446777344,-101.61869049072266,200.77279663085938,-54.12570190429688
2798,-184.89691162109372,-73.88733673095703,233.3660125732422,-24.80488586425781
2799,-197.83322143554688,-94.02669525146484,229.6859588623047,-36.563133239746094
2800,-214.0681304931641,-93.09919738769531,215.3696136474609,-49.07683563232422
2801,-200.1370086669922,-58.94269180297852,230.22076416015625,-27.920223236083984
2802,-204.66603088378903,-96.23323822021484,227.2288360595703,-54.65302658081055
2803,-212.6843719482422,-98.70156860351562,220.80743408203125,-46.90769577026367
2804,-209.6812286376953,-85.65306091308594,230.22450256347656,-11.52450180053711
2805,-205.81044006347656,-77.64219665527344,225.42620849609372,-51.52273178100586
2806,-193.9437255859375,-63.714805603027344,244.49595642089844,-25.859539031982425
2807,-218.40267944335938,-92.3923568725586,229.24838256835938,-30.63539123535156
2808,-206.3975982666016,-84.04864501953125,224.7305908203125,-38.130149841308594
2809,-196.85337829589844,-111.57430267333984,230.1571807861328,-29.5844783782959
2810,-235.80442810058597,-116.8774871826172,210.93035888671875,-39.48399353027344
2811,-203.5814514160156,-86.02704620361328,237.04981994628903,-17.56443977355957
2812,-216.3644256591797,-89.10498809814453,219.08334350585938,-26.80199241638184
2813,-220.38856506347656,-112.64017486572266,207.8972930908203,-42.40485382080078
2814,-219.7022857666016,-101.35689544677734,215.84458923339844,-36.60614013671875
2815,-216.8076171875,-106.20755004882812,218.7467498779297,-37.13346481323242
2816,-208.26942443847656,-87.837158203125,220.94581604003903,-23.31827545166016
2817,-221.01873779296875,-126.19357299804688,204.17236328125,-48.98521041870117
2818,-221.53109741210938,-108.93767547607422,218.86268615722656,-44.30659484863281
2819,-218.61024475097656,-86.63665008544922,222.2173767089844,-41.18751907348633
2820,-208.35543823242188,-94.71483612060548,222.0640411376953,-44.98725509643555
2821,-220.45774841308597,-100.80339050292969,213.70162963867188,-55.387916564941406
2822,-204.79879760742188,-88.435546875,235.30702209472656,-38.55088806152344
2823,-216.2877655029297,-98.94092559814452,220.8111724853516,-55.42905807495117
2824,-209.7504119873047,-96.76055908203124,220.34368896484372,-48.42422485351562
2825,-208.68829345703125,-121.89643096923828,215.0405120849609,-31.61337471008301
2826,-224.25375366210938,-105.0781021118164,219.6106719970703,-89.98199462890625
2827,-195.20968627929688,-71.69575500488281,241.14126586914062,-53.70496368408203
2828,-209.86260986328125,-91.73787689208984,230.54986572265625,-60.27970886230469
2829,-222.8251037597656,-95.03273010253906,221.7050018310547,-68.47383117675781
2830,-226.86045837402344,-103.89254760742188,215.74734497070312,-67.25836181640625
2831,-222.6979522705078,-119.77964782714844,215.7436065673828,-53.21503829956055
2832,-203.5646209716797,-95.71713256835938,215.0143280029297,-36.21718978881836
2833,-226.5276031494141,-111.05819702148438,200.1744079589844,-54.011634826660156
2834,-204.75765991210938,-82.22731018066406,218.34657287597656,-26.22043800354004
2835,-217.735107421875,-113.36197662353516,211.2594757080078,-36.972652435302734
2836,-218.44943237304688,-106.87325286865234,208.09552001953125,-33.37860870361328
2837,-215.1957092285156,-104.8798828125,206.6219940185547,-40.80978775024414
2838,-222.46234130859372,-102.6546401977539,217.59860229492188,-34.51553726196289
2839,-209.0061798095703,-88.4953842163086,225.65060424804688,-33.07567596435547
2840,-208.074951171875,-84.84898376464844,225.0596923828125,-40.31612014770508
2841,-211.1641082763672,-113.8107681274414,212.8264923095703,-55.533775329589844
2842,-211.05191040039062,-83.09870910644531,227.71502685546875,-44.24301528930664
2843,-216.4261474609375,-77.98626708984375,233.3061828613281,-52.22396469116211
2844,-221.57598876953125,-69.21994018554689,227.59161376953125,-46.16532516479492
2845,-209.8513946533203,-96.5324249267578,222.142578125,-53.1177978515625
2846,-194.00169372558597,-106.323486328125,224.30050659179688,-56.72680282592773
2847,-223.01210021972656,-91.35266876220705,231.23052978515625,-48.22227096557617
2848,-216.5869598388672,-90.23069763183594,221.7685852050781,-53.1290168762207
2849,-203.73666381835938,-77.55243682861328,226.33126831054688,-34.066749572753906
2850,-220.04635620117188,-95.45159912109376,223.78439331054688,-47.20127868652344
2851,-212.11029052734372,-100.40696716308594,224.5248870849609,-70.69906616210938
2852,-201.5039367675781,-78.7454605102539,236.0101318359375,-54.22854995727539
2853,-190.6582336425781,-81.88323974609375,240.7597961425781,-54.12009048461914
2854,-219.27593994140625,-108.95263671875,224.23692321777344,-65.97557830810547
2855,-208.8677978515625,-87.08544158935547,234.27854919433597,-54.21358871459961
2856,-209.18569946289062,-74.74376678466797,230.65084838867188,-43.682029724121094
2857,-229.29139709472656,-88.23358917236328,212.048583984375,-58.34991836547852
2858,-221.3889923095703,-99.21019744873048,223.26454162597656,-53.248695373535156
2859,-206.2049865722656,-76.86803436279297,234.89938354492188,-51.27776718139648
2860,-222.7353515625,-71.63217163085938,221.7611083984375,-62.79666137695313
2861,-222.4361572265625,-103.1707534790039,210.0589599609375,-67.60617065429689
2862,-214.36920166015625,-87.30609130859375,225.00733947753903,-66.49542236328125
2863,-204.2116241455078,-68.03439331054689,244.7652282714844,-44.05602264404297
2864,-204.4360198974609,-79.24286651611328,230.9949188232422,-52.14916610717773
2865,-195.07505798339844,-106.75731658935548,227.2026672363281,-65.70256042480469
2866,-218.64390563964844,-95.56753540039062,237.73048400878903,-57.46730422973633
2867,-208.81918334960938,-81.23997497558594,241.20111083984372,-51.47972106933594
2868,-203.20933532714844,-91.24420928955078,231.215576171875,-54.46042251586914
2869,-208.4825897216797,-84.66946411132812,228.39195251464844,-40.75368881225586
2870,-226.96517944335938,-94.19499206542969,215.0928649902344,-34.98302459716797
2871,-211.0780792236328,-77.72073364257812,219.38253784179688,-76.29022216796875
2872,-213.2509613037109,-111.69772338867188,210.1711578369141,-66.68241882324219
2873,-210.8873443603516,-104.3563003540039,209.7560272216797,-64.29261779785156
2874,-221.0411834716797,-100.05915069580078,212.0037078857422,-55.93020248413086
2875,-196.81784057617188,-106.29730987548828,219.60317993164062,-54.93539047241211
2876,-221.56475830078125,-106.83959197998048,213.64926147460938,-58.96326446533203
2877,-201.3169403076172,-96.2294921875,217.4639587402344,-51.76769638061523
2878,-209.05105590820312,-98.66043090820312,216.06524658203125,-55.24954223632813
2879,-220.6597137451172,-108.91897583007812,211.06124877929688,-62.74056243896485
2880,-206.1601104736328,-98.66043090820312,217.11614990234372,-55.99004364013672
2881,-212.0915985107422,-81.0305404663086,222.8419342041016,-44.20935821533203
2882,-206.10401916503903,-100.384521484375,217.4751892089844,-50.42132949829102
2883,-212.7236328125,-99.34109497070312,210.59376525878903,-51.38622665405274
2884,-212.4319305419922,-94.05287170410156,204.50894165039062,-48.32698822021485
2885,-205.72254943847656,-64.33188629150389,209.4979705810547,-36.08255386352539
2886,-222.8737335205078,-132.42424011230472,205.4775848388672,-66.71233367919922
2887,-221.796630859375,-104.63678741455078,205.275634765625,-56.32663345336914
2888,-203.29161071777344,-101.92536163330078,208.2002258300781,-58.93708419799805
2889,-200.03042602539062,-92.81122589111328,213.3912048339844,-65.80728149414061
2890,-201.93028259277344,-78.33033752441406,216.09515380859372,-44.19813919067383
2891,-201.90411376953125,-107.65863037109376,215.70620727539062,-42.47030258178711
2892,-189.9738311767578,-89.30693817138672,224.5884704589844,-54.09017181396485
2893,-224.178955078125,-99.198974609375,203.49917602539062,-62.42641067504883
2894,-213.0415344238281,-88.55148315429688,221.52175903320312,-36.97639083862305
2895,-209.8102569580078,-89.60987091064453,220.5755615234375,-32.15940093994141
2896,-201.7096405029297,-100.03671264648438,215.4481506347656,-37.65705108642578
2897,-202.06866455078125,-89.12368774414062,220.8111724853516,-32.271595001220696
2898,-211.32118225097656,-103.5933609008789,220.88970947265625,-36.015235900878906
2899,-210.2104339599609,-94.95419311523438,223.21966552734372,-35.27473449707031
2900,-226.890380859375,-86.08688354492188,209.92433166503903,-41.3333740234375
2901,-207.5139617919922,-86.83486938476562,222.7259979248047,-25.59213447570801
2902,-200.80831909179688,-93.3946533203125,228.99407958984372,-25.49489784240723
2903,-205.93946838378903,-85.9896469116211,235.2733612060547,-19.724231719970703
2904,-210.51710510253903,-100.75103759765624,221.91818237304688,-38.46487045288086
2905,-215.9810943603516,-88.33831024169922,223.328125,-32.039722442626946
2906,-211.2389068603516,-92.2128448486328,226.1816711425781,-26.81882286071777
2907,-204.5145568847656,-96.70072174072266,229.513916015625,-35.89181900024414
2908,-191.2266998291016,-94.5764617919922,222.0229034423828,-40.29368209838867
2909,-223.30007934570312,-97.9909896850586,210.6835174560547,-47.51916885375977
2910,-222.33143615722656,-95.82184600830078,218.997314453125,-54.18367004394531
2911,-200.269775390625,-86.84982299804688,228.4929351806641,-40.31238174438477
2912,-220.87661743164062,-72.84390258789062,213.47349548339844,-44.418792724609375
2913,-202.06866455078125,-109.98110961914062,215.7398681640625,-67.29202270507811
2914,-232.0963287353516,-107.28838348388672,208.00575256347656,-57.83755111694336
2915,-195.15359497070312,-98.14058685302734,236.41403198242188,-20.124401092529297
2916,-207.3045196533203,-97.80025482177734,223.2047119140625,-29.25723648071289
2917,-216.80386352539062,-114.7382583618164,204.8380584716797,-37.30176162719727
2918,-217.59298706054688,-99.20645904541016,209.57276916503903,-29.35821533203125
2919,-207.6785125732422,-76.4977798461914,227.17648315429688,-8.186640739440918
2920,-212.1963195800781,-93.89205932617188,211.45021057128903,-18.706979751586914
2921,-202.25192260742188,-92.51951599121094,216.94786071777344,-18.789257049560547
2922,-227.2082672119141,-116.42869567871094,210.9901885986328,-24.11113548278809
2923,-222.3090057373047,-97.86009216308594,222.16876220703125,-15.834736824035645
2924,-221.2132110595703,-90.15963745117188,213.7876434326172,-6.058638095855713
2925,-210.4946594238281,-89.46027374267578,220.2352294921875,-24.93391227722168
2926,-212.4842834472656,-90.15963745117188,229.03895568847656,-18.97625160217285
2927,-220.51759338378903,-89.11994934082031,229.37554931640625,-18.3928279876709
2928,-221.4188995361328,-88.90676879882812,221.27865600585938,-33.22901153564453
2929,-206.2760467529297,-64.07383728027344,229.3418884277344,-13.560876846313475
2930,-212.37582397460938,-92.6279754638672,223.36178588867188,-33.876014709472656
2931,-206.99411010742188,-91.65560150146484,233.6240692138672,-55.17100524902344
2932,-200.1463623046875,-81.58030700683594,229.4615631103516,-54.69229507446289
2933,-203.5646209716797,-101.40177917480469,218.55601501464844,-71.40965270996094
2934,-210.1468505859375,-109.84647369384766,216.3980865478516,-63.7278938293457
2935,-208.63966369628903,-90.73932647705078,229.525146484375,-47.3770523071289
2936,-202.5623321533203,-79.7215805053711,230.16839599609372,-41.14637756347656
2937,-210.25157165527344,-118.69881439208984,212.3253326416016,-50.15953826904297
2938,-199.15528869628903,-76.77827453613281,226.8473663330078,-21.280031204223636
2939,-228.70797729492188,-125.24363708496094,210.7770233154297,-38.2816162109375
2940,-205.60287475585938,-84.96492004394531,223.0177154541016,-9.712520599365234
2941,-223.1990966796875,-105.33241271972656,206.63694763183597,-22.828350067138672
2942,-217.98193359375,-98.54075622558594,215.8258819580078,-12.880215644836426
2943,-205.16156005859372,-109.62207794189452,227.6439666748047,-6.559784412384032
2944,-219.2161102294922,-101.3232421875,214.6889495849609,-21.706378936767575
2945,-223.02706909179688,-102.50130462646484,215.86328125,-17.899160385131836
2946,-209.33529663085938,-86.53567504882812,228.56398010253903,-12.992412567138672
2947,-216.44857788085938,-75.78720092773438,230.34043884277344,-15.352289199829102
2948,-218.93560791015625,-75.27483367919922,218.23812866210938,-23.886741638183594
2949,-220.4540100097656,-109.90631103515624,219.74156188964844,-34.9306640625
2950,-226.6098937988281,-99.10173797607422,226.3836212158203,-15.94693374633789
2951,-205.9768524169922,-79.74028015136719,229.8729553222656,-50.16701889038086
2952,-213.6511383056641,-97.92366790771484,215.56784057617188,-55.50011444091797
2953,-215.5697021484375,-100.10403442382812,212.1271209716797,-61.487693786621094
2954,-207.96649169921875,-85.64932250976562,225.64686584472656,-51.44980239868164
2955,-219.7808380126953,-104.52833557128906,219.07211303710938,-69.03481292724611
2956,-219.37692260742188,-95.65728759765624,220.4035186767578,-56.22939682006836
2957,-210.0533447265625,-72.80276489257812,227.9805603027344,-34.250003814697266
2958,-211.19027709960938,-95.87046813964844,229.4540863037109,-31.224424362182614
2959,-202.83908081054688,-97.7740707397461,234.45433044433597,-17.581270217895508
2960,-199.001953125,-87.91944122314453,226.5070343017578,-16.908086776733402
2961,-229.85238647460938,-99.97313690185548,210.5301818847656,-24.76561737060547
2962,-230.51060485839844,-111.88097381591795,214.7226104736328,-18.153474807739254
2963,-228.32276916503903,-98.54823303222656,219.65554809570312,-10.180007934570312
2964,-224.6427001953125,-92.10438537597656,214.0756072998047,-23.18737983703613
2965,-218.71121215820312,-113.92670440673828,208.68641662597656,-34.02186965942383
2966,-216.7103729248047,-87.12657928466797,223.3842315673828,-26.72158432006836
2967,-192.9844512939453,-84.6021499633789,236.40655517578125,-22.84704971313477
2968,-215.4126281738281,-91.2666473388672,229.70838928222656,-19.50357818603516
2969,-203.69552612304688,-103.88880920410156,226.78005981445312,-43.03876876831055
2970,-211.1715850830078,-106.39828491210938,218.93374633789062,-43.259422302246094
2971,-216.0297088623047,-86.48705291748047,219.2292022705078,-51.90607070922852
2972,-208.4601593017578,-102.30683135986328,222.8419342041016,-33.442184448242195
2973,-206.7958984375,-100.35834503173828,221.884521484375,-42.51144409179688
2974,-212.50299072265625,-97.75163269042969,227.2998962402344,-65.03685760498047
2975,-208.69577026367188,-78.76790618896484,236.802978515625,-44.13829803466797
2976,-210.4049072265625,-83.71578979492188,227.1316070556641,-49.280662536621094
2977,-214.20089721679688,-86.43470001220703,216.73468017578125,-49.3218002319336
2978,-196.701904296875,-97.72545623779295,227.7786102294922,-50.22311782836914
2979,-216.00352478027344,-96.92511749267578,221.73866271972656,-47.76226043701172
2980,-218.54666137695312,-85.81761169433594,223.73577880859372,-40.38718032836914
2981,-208.8752899169922,-83.5362777709961,230.58726501464844,-14.439753532409668
2982,-215.693115234375,-102.53496551513672,222.4679412841797,-27.20777130126953
2983,-217.8473052978516,-112.3671646118164,221.69378662109372,-26.02222442626953
2984,-217.08436584472656,-104.62557220458984,220.25767517089844,-24.881553649902344
2985,-215.8277587890625,-86.72267150878906,213.69039916992188,-25.4238395690918
2986,-221.3067169189453,-113.54149627685548,206.0236053466797,-25.25928497314453
2987,-212.6376190185547,-111.16665649414062,217.0450897216797,-22.70867347717285
2988,-197.8201446533203,-97.9535903930664,230.3329620361328,-21.35482788085937
2989,-211.5455780029297,-109.34532165527344,217.19842529296875,-34.956844329833984
2990,-210.2665252685547,-72.16697692871094,224.8166046142578,-25.349040985107425
2991,-214.83294677734372,-121.0399932861328,210.97897338867188,-50.64946365356445
2992,-211.7886657714844,-112.58033752441406,218.8514709472656,-41.449310302734375
2993,-208.6733245849609,-109.86891174316406,219.40870666503903,-30.943931579589844
2994,-203.57958984375,-110.71038818359376,228.94918823242188,-29.919198989868164
2995,-205.58042907714844,-107.0415496826172,223.94520568847656,-51.27776718139648
2996,-205.8945770263672,-94.35580444335938,223.33560180664062,-42.05891418457031
2997,-194.9329376220703,-83.40911865234375,229.03147888183597,-29.58634948730469
2998,-230.0992126464844,-86.23274230957031,217.2657470703125,-39.4671630859375
2999,-221.74053955078125,-117.89099884033205,217.9800720214844,-38.86503982543945
3000,-193.145263671875,-95.17484283447266,225.4336853027344,-16.500438690185547
3001,-222.6119384765625,-113.30587768554688,209.1352081298828,-47.63510513305664
3002,-218.76731872558597,-101.97024536132812,224.7081451416016,-27.40224647521973
3003,-207.3718414306641,-85.4249267578125,232.34503173828125,-24.08869552612305
3004,-205.80856323242188,-88.25602722167969,231.24549865722656,-8.740146636962889
3005,-216.1867828369141,-108.96385192871094,214.15414428710938,-33.64413833618164
3006,-211.05938720703125,-92.87106323242188,232.6442108154297,-16.13018798828125
3007,-219.57139587402344,-105.2800521850586,223.1822662353516,-29.459192276000977
3008,-220.91775512695312,-95.724609375,213.7465057373047,-31.60589408874512
3009,-207.4803009033203,-115.7555160522461,209.2212219238281,-36.81183624267578
3010,-204.24154663085938,-104.71158599853516,221.2412567138672,-36.8380126953125
3011,-211.26133728027344,-108.2944107055664,221.1440277099609,-36.50142288208008
3012,-192.3486633300781,-80.67899322509766,222.0154266357422,-30.020177841186523
3013,-224.71749877929688,-101.88048553466795,207.5681915283203,-36.83427429199219
3014,-223.1467437744141,-114.0127182006836,209.64382934570312,-43.10234832763672
3015,-198.1455078125,-104.84435272216795,217.0076904296875,-9.533004760742188
3016,-215.26303100585938,-103.23993682861328,206.18441772460938,-61.786888122558594
3017,-198.2726593017578,-91.52283477783205,217.16102600097656,-41.77842330932617
3018,-192.8423309326172,-101.7776336669922,223.70211791992188,-43.24446487426758
3019,-204.91847229003903,-84.42449951171875,229.97018432617188,-39.38862609863281
3020,-200.6512451171875,-74.53620910644531,234.3645782470703,-30.94767189025879
3021,-204.75390625,-106.50112915039062,216.18865966796875,-32.196800231933594
3022,-205.93197631835938,-95.2328109741211,219.54335021972656,-40.43579864501953
3023,-200.1313934326172,-79.42425537109375,226.6267242431641,-33.24023056030273
3024,-201.87045288085938,-92.8056182861328,218.72056579589844,-31.88638687133789
3025,-211.5680084228516,-86.82551574707031,220.8373565673828,-30.21839141845703
3026,-209.2567596435547,-110.53648376464844,227.95437622070312,-28.98422431945801
3027,-195.011474609375,-55.197181701660156,249.05490112304688,-6.836536884307861
3028,-199.3871612548828,-108.7001953125,227.3485107421875,-24.93017387390137
3029,-212.4730682373047,-101.30641174316406,221.74240112304688,-31.62833404541016
3030,-208.6845550537109,-97.70862579345705,227.2400665283203,-24.70203971862793
3031,-208.4900665283203,-90.32232666015624,225.71792602539062,-26.886140823364254
3032,-208.29559326171875,-100.20314025878906,212.048583984375,-34.5491943359375
3033,-207.3045196533203,-110.25972747802734,213.8624420166016,-38.54340744018555
3034,-214.75814819335938,-106.8751220703125,213.3874664306641,-37.4887580871582
3035,-212.54412841796875,-106.40015411376952,210.41798400878903,-31.32914161682129
3036,-218.93186950683597,-103.29977416992188,200.4062805175781,-39.54196166992188
3037,-189.30064392089844,-112.20447540283205,203.60763549804688,-35.94791793823242
3038,-206.0815734863281,-109.11531829833984,207.8935546875,-27.64533996582031
3039,-226.01898193359372,-87.6669921875,212.91998291015625,-53.60024642944336
3040,-234.19065856933597,-123.33068084716795,191.2285614013672,-60.06653213500977
3041,-205.1241607666016,-104.48158264160156,209.2511444091797,-50.78036117553711
3042,-216.2952423095703,-106.37771606445312,209.8121337890625,-52.60917282104492
3043,-191.29026794433597,-85.38939666748047,223.9339904785156,-43.371620178222656
3044,-209.9785461425781,-89.48458862304688,215.4892883300781,-42.23094940185547
3045,-212.0093231201172,-90.2325668334961,222.1388397216797,-34.687572479248054
3046,-203.22802734375,-48.03153610229492,250.09458923339844,-11.253358840942383
3047,-219.6798553466797,-105.8728256225586,223.18600463867188,-30.648479461669922
3048,-215.0012359619141,-102.04691314697266,226.39859008789062,-19.368942260742188
3049,-212.8021697998047,-93.17961120605469,222.79705810546875,-31.078569412231445
3050,-220.9402008056641,-104.12255096435548,222.98779296875,-20.29269790649414
3051,-220.52880859375,-113.58450317382812,213.66049194335938,-39.785057067871094
3052,-197.1394805908203,-95.1131362915039,225.97596740722656,-23.62120819091797
3053,-202.79046630859372,-92.2820281982422,219.06463623046875,-25.928726196289066
3054,-218.1240539550781,-108.73011016845705,208.0132293701172,-28.2287654876709
3055,-211.22393798828125,-101.30267333984376,218.0997467041016,-22.44688034057617
3056,-212.7460784912109,-105.8541259765625,209.5092010498047,-28.99918365478516
3057,-215.97735595703125,-127.4109115600586,202.08175659179688,-36.46402359008789
3058,-201.60118103027344,-104.75833892822266,218.97862243652344,-21.2688102722168
3059,-200.37823486328125,-117.5600128173828,203.7011260986328,-40.79108810424805
3060,-233.91017150878903,-125.57836151123048,201.77508544921875,-38.64812469482422
3061,-216.6692352294922,-122.20870971679688,202.5268096923828,-45.78385543823242
3062,-218.04925537109372,-123.64857482910156,210.0963592529297,-41.07532119750977
3063,-217.87722778320312,-100.9324188232422,216.18492126464844,-23.954059600830078
3064,-226.63232421875,-109.47434997558594,207.0595550537109,-14.443493843078613
3065,-219.5901031494141,-91.42559051513672,216.95159912109372,-51.71159744262695
3066,-221.8340301513672,-96.28746795654295,222.2846984863281,-34.34350204467773
3067,-218.2586975097656,-86.22713470458984,226.3424835205078,-36.37052536010742
3068,-218.7373962402344,-94.21556091308594,225.4897918701172,-31.96492576599121
3069,-194.61129760742188,-81.69811248779297,243.66195678710938,-18.778038024902344
3070,-213.60626220703125,-99.39906311035156,240.6663055419922,-26.10824203491211
3071,-219.14878845214844,-104.20109558105469,229.6186370849609,-26.85622215270996
3072,-204.02088928222656,-102.40968322753906,225.60198974609372,-21.54930305480957
3073,-207.3980255126953,-108.38603973388672,207.9085235595703,-23.17989921569824
3074,-214.3467559814453,-118.52864837646484,207.2689971923828,-27.518184661865234
3075,-214.6459503173828,-118.59222412109376,205.84410095214844,-32.290294647216804
3076,-208.1422576904297,-112.03618621826172,202.41835021972656,-34.16024780273437
3077,-184.1919403076172,-120.83242797851562,209.41195678710938,-19.540977478027344
3078,-227.5261688232422,-126.3076400756836,199.336669921875,-33.34868621826172
3079,-214.71327209472656,-112.24935913085938,205.08489990234372,-30.248310089111328
3080,-214.75067138671875,-96.90454864501952,207.72152709960938,-23.51275062561035
3081,-218.60276794433597,-101.43730926513672,209.06040954589844,-29.975297927856445
3082,-223.6665802001953,-123.63361358642578,207.646728515625,-44.11212158203125
3083,-186.38726806640625,-59.43822860717773,242.7307281494141,-8.699007034301758
3084,-231.99908447265625,-122.7921371459961,214.40472412109372,-49.14602661132813
3085,-212.7797393798828,-91.97535705566406,227.72250366210938,-34.668872833251946
3086,-221.19078063964844,-91.91925811767578,229.1922912597656,-28.550395965576172
3087,-226.0077667236328,-74.11734008789062,233.56423950195312,-30.248310089111328
3088,-215.53977966308597,-80.87533569335938,236.28314208984372,-48.92537307739258
3089,-220.01644897460938,-76.46973419189453,230.58726501464844,-37.88518524169922
3090,-218.84585571289062,-78.42570495605469,238.43731689453125,-33.389827728271484
3091,-219.2535095214844,-82.79016876220703,241.896728515625,-27.48078536987305
3092,-204.69407653808597,-86.32063293457031,238.8038330078125,-31.777929306030273
3093,-201.64605712890625,-82.28153991699219,234.92181396484372,-21.280031204223636
3094,-196.6645050048828,-97.85448455810548,234.87319946289062,-26.89362144470215
3095,-225.31588745117188,-99.35792541503906,231.2080993652344,-28.509258270263672
3096,-210.4909210205078,-104.31703186035156,223.21966552734372,-25.0012321472168
3097,-211.0631256103516,-97.4019546508789,223.50390625,-26.960939407348636
3098,-209.5035858154297,-91.3358383178711,222.7895812988281,-26.669225692749023
3099,-204.9596099853516,-97.1999969482422,222.31460571289062,-26.261577606201172
3100,-195.3892059326172,-91.33209991455078,223.4590148925781,-28.449419021606445
3101,-210.6554718017578,-97.83204650878906,209.99163818359372,-36.96517181396485
3102,-205.0082244873047,-81.19322967529297,225.88995361328125,-26.67296600341797
3103,-218.38584899902344,-85.75216674804688,217.0263977050781,-39.94961166381836
3104,-207.1661529541016,-109.29483795166016,219.42367553710938,-38.031044006347656
3105,-204.9670867919922,-107.57073974609376,210.89295959472656,-44.317813873291016
3106,-204.8511505126953,-85.05280303955078,225.276611328125,-46.71134948730469
3107,-222.4847717285156,-71.84722137451172,220.4820556640625,-43.61471176147461
3108,-196.65328979492188,-106.68064880371094,227.55795288085938,-18.44144630432129
3109,-207.98892211914062,-100.68184661865234,213.9335021972656,-64.9022216796875
3110,-182.9577789306641,-70.14182281494139,233.3996734619141,-35.13636016845703
3111,-214.02513122558597,-92.99261474609376,223.5936584472656,-43.48381805419922
3112,-207.6934814453125,-83.22025299072266,220.8036956787109,-25.38644027709961
3113,-211.31744384765625,-98.31075286865234,207.4746856689453,-44.03732299804688
3114,-222.1070556640625,-103.61019134521484,212.81900024414062,-36.55378341674805
3115,-211.87841796875,-99.2232894897461,224.0125274658203,-33.25519180297852
3116,-200.07156372070312,-91.27225494384766,215.3546600341797,-26.10824203491211
3117,-196.81036376953125,-76.71282958984375,220.9009246826172,-13.433720588684082
3118,-223.0345458984375,-117.67221069335938,203.7011260986328,-40.6414909362793
3119,-230.81353759765625,-113.78271484375,203.8955993652344,-40.87710571289063
3120,-222.58575439453125,-95.52826690673828,208.7350311279297,-31.044910430908203
3121,-214.6422119140625,-103.49425506591795,213.5819396972656,-31.022470474243164
3122,-216.9385070800781,-99.6496353149414,222.71478271484372,-25.79783058166504
3123,-199.55545043945312,-104.2459716796875,228.4854431152344,-24.85537528991699
3124,-213.21730041503903,-91.61258697509766,213.88113403320312,-39.10813522338867
3125,-212.9555206298828,-92.48772430419922,212.02989196777344,-49.10862731933594
3126,-217.42843627929688,-101.62429809570312,217.11614990234372,-47.26859664916992
3127,-212.3795623779297,-84.8957290649414,225.69921875,-33.80121612548828
3128,-201.7769470214844,-81.88884735107422,221.52549743652344,-29.76212310791016
3129,-192.78623962402344,-88.22798156738281,211.77931213378903,-35.60758590698242
3130,-229.45968627929688,-94.67930603027344,204.95773315429688,-46.07556915283203
3131,-224.0592803955078,-109.627685546875,201.81622314453125,-44.96481704711914
3132,-219.36196899414062,-99.94508361816406,204.5239105224609,-33.21405029296875
3133,-203.9984588623047,-96.5978775024414,210.29083251953125,-24.79179763793945
3134,-212.11029052734372,-101.44104766845705,208.90333557128903,-28.655113220214844
3135,-211.37353515625,-94.028564453125,221.85459899902344,-18.280630111694336
3136,-209.7279815673828,-86.95641326904297,219.48724365234372,-14.993258476257324
3137,-216.92355346679688,-89.50702667236328,211.9962310791016,-30.768156051635746
3138,-222.488525390625,-103.23993682861328,212.5721740722656,-32.271595001220696
3139,-210.0533447265625,-91.96788024902344,232.28892517089844,-21.149133682250977
3140,-209.7017974853516,-100.3302993774414,218.34283447265625,-26.41865348815918
3141,-209.02487182617188,-95.07947540283205,215.9156494140625,-30.180992126464844
3142,-211.4445953369141,-86.65348052978516,221.1589813232422,-23.400554656982425
3143,-206.66500854492188,-93.04122924804688,219.9659576416016,-24.79927635192871
3144,-214.0064239501953,-98.10879516601562,210.9004364013672,-38.89495849609375
3145,-222.41372680664062,-115.98178100585938,195.2713928222656,-56.94745635986328
3146,-201.0962829589844,-90.39337921142578,230.8827209472656,-31.351581573486328
3147,-201.68719482421875,-98.72962188720705,225.75906372070312,-46.32987976074219
3148,-190.34408569335938,-79.70475006103516,229.9140930175781,-43.01258850097656
3149,-214.0961761474609,-92.25585174560548,214.8011474609375,-52.7550277709961
3150,-207.46534729003903,-97.49171447753906,222.66616821289062,-46.382240295410156
3151,-215.92498779296875,-93.5685577392578,218.2642974853516,-42.496482849121094
3152,-192.10183715820312,-87.6034164428711,220.0968475341797,-34.95310592651367
3153,-218.67007446289062,-96.54925537109376,198.0613555908203,-47.31721496582031
3154,-219.3021240234375,-86.03266143798828,211.91021728515625,-36.205970764160156
3155,-204.2116241455078,-91.997802734375,224.37155151367188,-27.723878860473636
3156,-218.88699340820312,-99.451416015625,212.8526611328125,-40.8995475769043
3157,-207.97396850585938,-95.88355255126952,207.2876892089844,-36.51638412475586
3158,-205.4009094238281,-88.44115447998047,214.9731903076172,-32.432411193847656
3159,-200.1837615966797,-90.43826293945312,229.2222137451172,-25.745471954345703
3160,-202.5623321533203,-79.274658203125,222.6923370361328,-27.959491729736328
3161,-196.5336151123047,-92.31195068359376,220.7550811767578,-37.5897331237793
3162,-200.5876617431641,-88.99092102050781,221.27865600585938,-49.18716430664063
3163,-193.0929107666016,-76.80632781982422,234.5104217529297,-33.83113479614258
3164,-204.01341247558597,-89.24149322509766,216.3756561279297,-52.17160415649414
3165,-212.1925811767578,-98.63238525390624,210.02903747558597,-50.46995162963867
3166,-198.25770568847656,-92.0613784790039,227.89454650878903,-38.835121154785156
3167,-208.1609649658203,-86.6983642578125,222.2435607910156,-46.49443435668945
3168,-200.0154571533203,-89.66783905029297,230.0375061035156,-45.86613464355469
3169,-195.40789794921875,-88.23545837402344,226.8211975097656,-38.78650283813477
3170,-201.4141845703125,-86.75071716308594,220.4633636474609,-49.44895553588867
3171,-202.9438018798828,-106.833984375,218.35780334472656,-51.9434700012207
3172,-216.74029541015625,-91.94918060302734,219.3040008544922,-46.03068923950195
3173,-196.54856872558597,-77.56178283691406,231.69053649902344,-28.520477294921875
3174,-209.1819610595703,-76.30143737792969,224.4388732910156,-41.97289657592773
3175,-202.10606384277344,-79.97028350830078,223.98634338378903,-36.35930633544922
3176,-206.9716796875,-100.70054626464844,214.6141662597656,-42.07013320922852
3177,-204.30886840820312,-84.4693832397461,216.37939453125,-28.116567611694336
3178,-216.23165893554688,-105.29314422607422,216.3232879638672,-40.1590461730957
3179,-210.5245819091797,-91.30965423583984,215.45188903808597,-28.520477294921875
3180,-210.3525390625,-82.11698150634766,220.0968475341797,-23.198598861694336
3181,-208.3404693603516,-81.28672790527344,223.6871490478516,-19.993505477905273
3182,-213.0265655517578,-85.83444213867188,216.4654083251953,-33.68901824951172
3183,-204.1704864501953,-83.347412109375,226.14801025390625,-28.23250389099121
3184,-207.8056640625,-88.86002349853516,222.2435607910156,-35.6001091003418
3185,-210.446044921875,-92.50642395019531,221.2188262939453,-36.83427429199219
3186,-197.91363525390625,-90.74493408203124,230.4114990234375,-34.489356994628906
3187,-209.1445617675781,-101.4747085571289,211.73443603515625,-52.19030380249024
3188,-178.03981018066406,-88.62066650390625,223.9713897705078,-40.14408493041992
3189,-223.322509765625,-90.10540771484376,220.4110107421875,-41.13515853881836
3190,-207.15118408203125,-83.05944061279297,227.142822265625,-30.39416694641113
3191,-205.84222412109372,-85.47541046142578,224.6034393310547,-37.67949295043945
3192,-209.77659606933597,-80.42280578613281,219.07960510253903,-37.402740478515625
3193,-204.3275604248047,-70.76638793945312,221.5928192138672,-30.783117294311523
3194,-208.6920318603516,-88.6468505859375,219.36756896972656,-40.62653350830078
3195,-191.39498901367188,-77.09803771972656,232.81251525878903,-41.3445930480957
3196,-215.56222534179688,-97.25235748291016,220.4932861328125,-50.8476791381836
3197,-203.81146240234372,-78.58651733398438,228.61260986328125,-49.69205093383789
3198,-201.7058868408203,-81.05485534667969,236.39907836914062,-42.036476135253906
3199,-203.2691650390625,-80.53500366210938,228.90805053710938,-46.86468505859375
3200,-197.10955810546875,-92.75325775146484,209.4904937744141,-42.16737365722656
3201,-216.94972229003903,-90.52427673339844,216.7608642578125,-37.63835144042969
3202,-201.01400756835938,-82.79016876220703,222.2659912109375,-27.61168098449707
3203,-214.1822052001953,-80.16849517822266,216.2933807373047,-39.0333366394043
3204,-207.79071044921875,-91.41437530517578,221.5853271484375,-28.879507064819336
3205,-199.66390991210938,-83.13797760009766,231.7391662597656,-17.723386764526367
3206,-204.6118011474609,-86.45526885986328,225.54214477539062,-20.00472450256348
3207,-212.92559814453125,-95.214111328125,223.81805419921875,-40.07302856445313
3208,-205.4794464111328,-84.30482482910156,227.7786102294922,-35.83198165893555
3209,-194.86187744140625,-86.5412826538086,218.00999450683597,-43.5586166381836
3210,-224.1265869140625,-94.78402709960938,215.07041931152344,-48.02031707763672
3211,-203.72169494628903,-65.40711212158203,235.56134033203125,-28.49803733825684
3212,-204.15179443359372,-79.85808563232422,222.905517578125,-40.98556518554688
3213,-202.1285095214844,-86.92649841308594,218.7617034912109,-37.32046127319336
3214,-202.33045959472656,-82.52088928222656,221.12905883789062,-44.08594131469727
3215,-195.43408203125,-90.976806640625,222.2697296142578,-40.61905288696289
3216,-196.1521453857422,-83.23521423339844,215.96987915039062,-47.57900619506836
3217,-202.1285095214844,-83.45960998535156,221.65826416015625,-36.25458908081055
3218,-207.4429016113281,-81.16704559326172,225.16629028320312,-45.660438537597656
3219,-191.91110229492188,-78.1938247680664,229.9384002685547,-32.383792877197266
3220,-209.2530059814453,-91.81828308105469,216.2167053222656,-41.10150146484375
3221,-203.91616821289062,-81.4625015258789,219.23106384277344,-44.08219909667969
3222,-211.3398742675781,-76.67916870117188,224.08544921875,-36.24337005615234
3223,-211.6091461181641,-74.61848449707031,220.611083984375,-36.99882888793945
3224,-201.7245941162109,-87.11348724365234,214.96383666992188,-33.84235382080078
3225,-209.02487182617188,-85.5950927734375,204.87733459472656,-37.24940490722656
3226,-204.11813354492188,-72.92430877685547,221.291748046875,-29.141300201416016
3227,-213.13128662109372,-84.62271881103516,214.5262756347656,-39.98326873779297
3228,-197.23670959472656,-75.27296447753906,218.239990234375,-30.15107345581055
3229,-202.3790740966797,-88.45985412597656,211.6577606201172,-46.37475967407226
3230,-203.8638153076172,-91.54153442382812,220.73825073242188,-37.2082633972168
3231,-205.44204711914062,-75.8638687133789,222.17062377929688,-34.60903549194336
3232,-198.2203063964844,-100.64070892333984,210.59564208984372,-55.26824188232422
3233,-215.08724975585938,-95.4310302734375,213.72593688964844,-48.70097732543945
3234,-205.45327758789062,-77.60292053222656,226.57249450683597,-50.4587287902832
3235,-200.7783966064453,-70.70655059814453,228.89871215820312,-37.974945068359375
3236,-187.33346557617188,-74.72319793701172,231.7447662353516,-33.733898162841804
3237,-211.9794006347656,-79.19985961914062,208.2432403564453,-50.82149887084961
3238,-198.32876586914062,-85.77460479736328,227.9599914550781,-36.26955032348633
3239,-189.66342163085938,-91.00672912597656,225.6262969970703,-32.952259063720696
3240,-212.6002197265625,-87.71187591552734,221.5086669921875,-40.12164688110352
3241,-197.9472961425781,-69.45742034912111,223.98822021484372,-28.4755973815918
3242,-201.82183837890625,-91.7808837890625,223.18414306640625,-40.24132537841797
3243,-217.2115173339844,-81.52981567382812,220.8915863037109,-38.56958770751953
3244,-218.7373962402344,-84.4319839477539,216.2541046142578,-33.79747772216797
3245,-208.7481231689453,-87.19577026367188,212.36460876464844,-44.28789520263672
3246,-210.7377471923828,-83.36237335205078,215.9736175537109,-36.14613342285156
3247,-219.37692260742188,-99.286865234375,213.9914703369141,-26.3326358795166
3248,-212.8956756591797,-94.56710815429688,210.80880737304688,-34.30236053466797
3249,-201.0439300537109,-91.20494079589844,212.73486328125,-53.517967224121094
3250,-198.41851806640625,-96.60535430908205,215.67816162109372,-48.41674423217773
3251,-210.1842498779297,-95.00841522216795,211.960693359375,-49.9949836730957
3252,-188.71722412109372,-85.10516357421875,223.97325134277344,-42.186073303222656
3253,-205.6140899658203,-75.82646942138672,219.40310668945312,-41.25109481811523
3254,-180.19024658203125,-90.5167999267578,227.1072998046875,-45.13311386108398
3255,-217.9894256591797,-77.82357788085938,226.11996459960938,-33.7451171875
3256,-195.82302856445312,-80.10118103027344,230.0992126464844,-46.24760437011719
3257,-211.00701904296875,-108.24392700195312,214.2607421875,-48.820655822753906
3258,-198.47836303710938,-91.8407211303711,223.8311462402344,-40.925724029541016
3259,-201.51890563964844,-69.47611999511719,232.96397399902344,-33.33746719360352
3260,-208.7892608642578,-96.25006866455078,217.86599731445312,-47.79218292236328
3261,-211.8746795654297,-84.9368667602539,212.71615600585938,-44.83766174316406
3262,-214.2906646728516,-64.37490081787111,221.01499938964844,-40.319862365722656
3263,-218.0343017578125,-112.514892578125,214.2158660888672,-52.53811645507813
3264,-204.2639923095703,-79.7197036743164,222.76153564453125,-37.24192428588867
3265,-218.72991943359372,-88.88246154785156,212.27859497070312,-46.13166427612305
3266,-203.919921875,-79.88800048828125,222.54087829589844,-36.98760986328125
3267,-216.96469116210938,-87.83155059814453,218.5840606689453,-44.48236846923828
3268,-182.5426483154297,-86.00273895263672,219.67611694335938,-37.45509719848633
3269,-216.26531982421875,-100.27793884277344,200.2473297119141,-48.708457946777344
3270,-205.1690368652344,-82.25535583496094,219.96408081054688,-31.650774002075195
3271,-219.5153045654297,-98.95775604248048,215.63702392578125,-16.956707000732422
3272,-208.7892608642578,-100.31907653808594,215.24058532714844,-48.17365264892578
3273,-205.98434448242188,-84.64515686035156,214.23455810546875,-44.95733642578125
3274,-209.0772399902344,-59.943115234375,221.99859619140625,-34.11910629272461
3275,-212.70867919921875,-116.72227478027344,214.10366821289062,-49.34049987792969
3276,-199.1777191162109,-71.19273376464844,226.95396423339844,-35.03912353515625
3277,-204.69407653808597,-106.18324279785156,218.38211059570312,-37.31672286987305
3278,-202.72314453125,-105.97754669189452,219.8967742919922,-41.09402084350586
3279,-202.96624755859372,-95.47964477539062,228.55838012695312,-41.400691986083984
3280,-198.3212890625,-70.27272033691406,233.3304901123047,-30.82799530029297
3281,-182.49777221679688,-80.8229751586914,230.22262573242188,-43.34543991088867
3282,-208.0375518798828,-89.87727355957031,220.98507690429688,-47.24989700317383
3283,-200.92051696777344,-79.25969696044922,226.2246856689453,-43.831626892089844
3284,-186.80987548828125,-75.46743774414062,232.4104766845703,-31.086048126220703
3285,-202.89144897460938,-84.73491668701172,214.42529296875,-48.944068908691406
3286,-223.91342163085938,-92.162353515625,209.88131713867188,-57.91983032226562
3287,-204.3874053955078,-90.42704010009766,221.5124053955078,-51.1992301940918
3288,-208.2207946777344,-87.32292175292969,213.1948699951172,-42.90413284301758
3289,-213.4828338623047,-97.54781341552734,204.62301635742188,-47.51916885375977
3290,-212.2411956787109,-99.71694946289062,208.7069854736328,-51.38996505737305
3291,-201.58995056152344,-99.56361389160156,216.57199096679688,-42.82559585571289
3292,-197.558349609375,-88.74408721923828,209.31658935546875,-46.94696426391602
3293,-184.77911376953125,-81.14460754394531,216.85623168945312,-38.41625213623047
3294,-194.4093475341797,-83.82611846923828,218.1988525390625,-41.43435287475586
3295,-214.57489013671875,-103.0641632080078,216.73655700683597,-43.05746841430664
3296,-189.37918090820312,-83.29878997802734,224.5080718994141,-32.12200164794922
3297,-199.98179626464844,-80.26199340820312,211.08181762695312,-44.7254638671875
3298,-201.48150634765625,-75.23930358886719,217.16290283203125,-41.95045852661133
3299,-204.7202606201172,-72.3483657836914,229.49708557128903,-41.52037048339844
3300,-203.6431579589844,-77.52064514160156,228.95480346679688,-29.69106483459473
3301,-205.7786407470703,-105.6933135986328,213.52772521972656,-45.20043182373047
3302,-187.4194793701172,-64.7376708984375,240.35775756835938,-41.804603576660156
3303,-199.43577575683597,-102.3610610961914,233.1173095703125,-49.6733512878418
3304,-202.4389190673828,-70.22784423828125,238.7757873535156,-35.68612670898437
3305,-200.28846740722656,-69.78652954101561,232.11502075195312,-50.27921676635742
3306,-213.1612091064453,-111.13860321044922,225.51036071777344,-56.4276123046875
3307,-198.908447265625,-80.42655181884766,238.94407653808597,-37.34289932250977
3308,-202.78298950195312,-98.34815216064452,223.18040466308597,-47.51916885375977
3309,-197.83135986328125,-76.46973419189453,222.57827758789062,-35.68612670898437
3310,-200.41937255859372,-99.03255462646484,221.03369140625,-55.51881408691406
3311,-203.0933990478516,-109.51548767089844,218.20632934570312,-53.56284713745117
3312,-212.4132232666016,-97.0616226196289,214.5561981201172,-44.20187759399414
3313,-210.1505889892578,-95.72274017333984,207.3045196533203,-52.66901016235352
3314,-220.79808044433597,-109.79224395751952,204.25650024414062,-56.24435424804688
3315,-200.5689697265625,-93.26188659667969,223.61422729492188,-36.31068801879883
3316,-196.60841369628903,-72.71487426757812,226.61737060546875,-24.92269325256348
3317,-201.7432861328125,-93.07115173339844,209.8588714599609,-43.09112548828125
3318,-196.8141021728516,-98.93531036376952,214.5674133300781,-52.04070663452149
3319,-200.7671813964844,-90.89078521728516,227.7767333984375,-45.93719100952149
3320,-209.1669921875,-101.64299774169922,213.77828979492188,-53.08039855957031
3321,-202.1172790527344,-91.60511016845705,229.33253479003903,-14.477152824401855
3322,-188.02908325195312,-76.89234161376953,242.9644775390625,-53.626426696777344
3323,-172.8488311767578,-51.73777770996094,251.9925842285156,-43.54739379882813
3324,-208.04129028320312,-68.11853790283203,235.447265625,-55.25328063964844
3325,-208.29185485839844,-95.07573699951172,215.3191375732422,-64.54693603515625
3326,-197.2105407714844,-58.13674545288086,241.6854248046875,-38.45738983154297
3327,-209.49984741210938,-100.24801635742188,221.6769561767578,-54.87555313110352
3328,-196.6757354736328,-78.1489486694336,226.45281982421875,-50.68686294555664
3329,-209.1707305908203,-92.63358306884766,214.343017578125,-51.382484436035156
3330,-198.5643768310547,-99.15970611572266,227.0998077392578,-53.39081192016602
3331,-207.3307037353516,-96.90454864501952,222.33892822265625,-43.5586166381836
3332,-211.8933868408203,-104.93411254882812,206.13394165039062,-53.94431686401367
3333,-205.08676147460938,-77.91333770751953,218.3447113037109,-37.1072883605957
3334,-187.52420043945312,-92.92155456542969,223.87228393554688,-37.71315002441406
3335,-204.90350341796875,-92.7233428955078,225.1363677978516,-33.973251342773445
3336,-211.4146728515625,-73.2758560180664,230.64149475097656,-18.684539794921875
3337,-180.4408264160156,-98.89417266845705,223.6778106689453,-4.476660251617432
3338,-215.88758850097656,-98.05269622802734,219.36196899414062,-62.37779235839844
3339,-206.90809631347656,-59.8496208190918,236.28126525878903,-30.356767654418945
3340,-210.46473693847656,-105.94762420654295,215.6519775390625,-55.59735107421875
3341,-192.77127075195312,-82.58073425292969,228.64439392089844,-45.11067199707031
3342,-191.0509185791016,-54.13131332397461,241.984619140625,-33.722679138183594
3343,-203.12332153320312,-84.33100128173828,223.80496215820312,-54.15748977661133
3344,-199.6489562988281,-82.96968078613281,226.31817626953125,-42.06265640258789
3345,-203.73292541503903,-87.06861114501953,216.73655700683597,-62.8826789855957
3346,-196.73182678222656,-56.37151336669922,231.36703491210938,-35.04660415649414
3347,-197.36387634277344,-77.55056762695312,230.29368591308597,-40.46571731567383
3348,-203.4786071777344,-98.8231201171875,215.82028198242188,-60.73971557617188
3349,-207.64859008789062,-94.94483947753906,211.3697967529297,-48.07267379760742
3350,-208.80796813964844,-73.2721176147461,214.1373291015625,-55.64223098754883
3351,-181.36831665039062,-84.58158111572266,217.0731506347656,-43.076168060302734
3352,-206.5303649902344,-102.79489135742188,208.0038909912109,-59.47188949584961
3353,-198.46339416503903,-98.66230010986328,212.6862335205078,-49.433998107910156
3354,-193.04054260253903,-83.90091705322266,221.2543487548828,-38.78650283813477
3355,-210.7227935791016,-72.82333374023438,222.1407012939453,-45.4771842956543
3356,-211.7250823974609,-106.6170654296875,205.22140502929688,-55.29067993164063
3357,-204.4547271728516,-80.28816986083984,218.3596649169922,-45.76515579223633
3358,-180.00698852539062,-68.40650939941406,239.0562744140625,1.0957907438278198
3359,-207.57752990722656,-102.35358428955078,221.60589599609372,-68.97871398925781
3360,-187.6663055419922,-83.81489562988281,239.5761260986328,-32.181838989257805
3361,-196.80288696289062,-88.42245483398438,231.7859039306641,-40.72377014160156
3362,-200.54278564453125,-72.56527709960938,233.3417053222656,-33.73763656616211
3363,-199.69009399414062,-83.79619598388672,232.71714782714844,-25.5696964263916
3364,-214.41781616210938,-97.7011489868164,214.8404235839844,-59.29237365722656
3365,-202.58102416992188,-79.36067962646484,220.3941802978516,-41.84199905395508
3366,-224.2911529541016,-99.43646240234376,211.77371215820312,-67.26210021972656
3367,-191.4847412109375,-83.22773742675781,240.86639404296875,-42.94153213500977
3368,-199.00942993164062,-86.58616638183594,220.13986206054688,-58.626670837402344
3369,-227.58973693847656,-77.20275115966797,209.55593872070312,-55.20092391967773
3370,-217.58924865722656,-114.67655181884766,206.64630126953125,-62.27307510375977
3371,-204.49212646484372,-95.00467681884766,216.8076171875,-45.447265625
3372,-221.3291473388672,-91.83698272705078,204.9596099853516,-38.34519577026367
3373,-232.1449432373047,-116.71853637695312,195.3293609619141,-49.93140411376953
3374,-222.0846099853516,-99.47760009765624,210.9584045410156,-35.2597770690918
3375,-225.65621948242188,-83.43716430664062,209.31658935546875,-35.52531051635742
3376,-202.1808624267578,-91.08526611328124,219.99774169921875,-17.8468017578125
3377,-205.1166839599609,-107.39122772216795,216.0297088623047,-12.293050765991213
3378,-210.80880737304688,-96.71381378173828,220.9663848876953,-55.72076797485352
3379,-207.06517028808597,-81.27924346923828,231.75973510742188,-39.64294052124024
3380,-205.19895935058597,-88.11952209472656,222.67550659179688,-49.40781784057617
3381,-206.197509765625,-111.16104888916016,223.9208984375,-56.99233627319336
3382,-202.56607055664062,-86.14111328125,230.39093017578125,-44.93489837646485
3383,-211.1341857910156,-79.14749908447266,232.20477294921875,-45.9110107421875
3384,-206.3097076416016,-65.89703369140625,233.0013732910156,-43.48007583618164
3385,-211.09678649902344,-107.45480346679688,215.60336303710938,-62.67698287963867
3386,-194.58139038085938,-81.06980895996094,232.66477966308597,-37.163387298583984
3387,-212.9555206298828,-81.61209869384766,230.93695068359372,-47.90063858032226
3388,-207.8206329345703,-104.63117980957031,228.1881256103516,-40.96686553955078
3389,-223.56561279296875,-70.73272705078125,223.10186767578125,-33.812435150146484
3390,-232.0177764892578,-113.26660919189452,212.3795623779297,-46.83102798461914
3391,-217.88470458984372,-113.10205078125,223.04576110839844,-41.26979446411133
3392,-218.3596649169922,-92.61114501953124,219.16748046875,-30.36424827575684
3393,-224.44448852539062,-122.29098510742188,203.7404022216797,-44.003662109375
3394,-205.4794464111328,-97.89936065673828,208.5835723876953,-34.807247161865234
3395,-231.9803771972656,-104.77703857421876,209.4175720214844,-23.381855010986328
3396,-215.95864868164062,-112.78042602539062,212.82835388183597,-22.39078140258789
3397,-209.77659606933597,-114.6653289794922,213.64366149902344,-52.88592529296875
3398,-207.9440460205078,-103.1389617919922,208.65463256835938,-43.82788848876953
3399,-204.90350341796875,-84.23002624511719,236.5243682861328,-27.18159294128418
3400,-207.16989135742188,-96.90454864501952,219.86685180664062,-36.68467712402344
3401,-209.1221160888672,-101.80755615234376,218.3372344970703,-43.80170822143555
3402,-211.6764678955078,-73.12252044677734,223.87228393554688,-45.1368522644043
3403,-214.40284729003903,-112.44009399414062,227.00631713867188,-48.17365264892578
3404,-191.13319396972656,-80.8603744506836,238.0165863037109,-38.40877151489258
3405,-227.8291015625,-84.67881774902344,218.26617431640625,-46.92078399658203
3406,-222.21176147460938,-106.46746826171876,221.14962768554688,-52.31745910644531
3407,-200.1313934326172,-92.39422607421876,228.65560913085938,-43.36788177490234
3408,-212.20005798339844,-76.34632110595703,228.5396728515625,-50.787841796875
3409,-191.3164520263672,-81.4176254272461,232.5301513671875,-36.78939437866211
3410,-203.8189392089844,-108.92084503173828,228.81642150878903,-40.11042785644531
3411,-217.0133056640625,-100.77908325195312,231.22866821289062,-39.20911026000977
3412,-206.61264038085938,-110.46168518066406,222.16314697265625,-46.68891143798828
3413,-213.33323669433597,-112.24935913085938,214.99375915527344,-49.99872207641602
3414,-211.5530548095703,-93.1235122680664,221.64703369140625,-27.01329803466797
3415,-217.9183654785156,-109.23125457763672,213.7745513916016,-41.92053985595703
3416,-235.18548583984372,-127.32115173339844,197.3414306640625,-69.46490478515625
3417,-195.92774963378903,-77.0138931274414,224.28553771972656,-29.070241928100586
3418,-207.7832336425781,-122.5808334350586,213.7539825439453,-41.737281799316406
3419,-222.02850341796875,-127.56985473632812,207.68038940429688,-52.65031051635742
3420,-200.3109130859375,-93.64522552490234,230.8789825439453,-33.210311889648445
3421,-199.14779663085938,-98.90352630615234,230.26564025878903,-46.12792587280274
3422,-192.8011932373047,-95.50769805908205,234.2486267089844,-49.85286712646485
3423,-207.2222442626953,-96.1060791015625,239.71263122558597,-44.43001174926758
3424,-220.2333526611328,-86.52071380615234,233.7213134765625,-48.78699493408203
3425,-206.40321350097656,-98.92970275878906,226.4172821044922,-62.49372863769531
3426,-196.08856201171875,-78.18821716308594,245.0681610107422,-45.70905685424805
3427,-203.71795654296875,-98.76889038085938,240.6326446533203,-48.81317520141602
3428,-202.465087890625,-74.59791564941406,232.5133209228516,-45.60433959960938
3429,-199.78358459472656,-85.55207824707031,231.3838653564453,-40.024410247802734
3430,-216.8861541748047,-105.80364227294922,219.91734313964844,-60.2310905456543
3431,-197.43492126464844,-70.28955078125,238.9796142578125,-46.56923294067383
3432,-203.34022521972656,-106.06169128417969,218.81033325195312,-21.65402030944824
3433,-204.76513671875,-88.22985076904297,208.3124237060547,-66.96665191650389
3434,-227.98243713378903,-118.6501922607422,206.87255859375,-47.24615478515625
3435,-202.75680541992188,-97.01487731933594,229.4092102050781,-28.359661102294922
3436,-226.3929748535156,-100.21248626708984,214.0494384765625,-35.061561584472656
3437,-220.00897216796875,-107.36317443847656,203.8694305419922,-38.59576797485352
3438,-201.2384033203125,-100.04045104980469,219.40496826171875,-29.298376083374023
3439,-216.4859771728516,-114.4128875732422,210.0664367675781,-30.58116149902344
3440,-228.1320343017578,-106.67129516601562,214.53561401367188,-40.925724029541016
3441,-211.94573974609372,-102.75562286376952,215.92312622070312,-36.50890350341797
3442,-208.7032470703125,-78.1994400024414,230.4563751220703,-36.348087310791016
3443,-193.13031005859372,-102.49756622314452,234.6862030029297,-39.788795471191406
3444,-200.83824157714844,-102.94635772705078,220.20530700683597,-53.31227493286133
3445,-204.6865997314453,-86.6703109741211,216.94412231445312,-52.54559326171875
3446,-203.1420135498047,-62.99300384521485,234.75726318359372,-37.5485954284668
3447,-200.8943328857422,-85.45110321044922,237.8426818847656,-39.88229370117188
3448,-206.3097076416016,-92.7962646484375,218.38397216796875,-46.63655090332031
3449,-212.4543609619141,-87.14154052734375,211.5511779785156,-41.81956100463867
3450,-233.6109771728516,-107.92042541503906,212.68063354492188,-49.46017837524414
3451,-216.0297088623047,-103.78409576416016,222.63624572753903,-26.77768325805664
3452,-216.10450744628903,-99.62158203125,218.18576049804688,-44.04854202270508
3453,-184.68934631347656,-85.56330108642578,220.26515197753903,-55.384178161621094
3454,-217.7762451171875,-103.16326904296876,210.1973419189453,-58.0058479309082
3455,-203.8189392089844,-72.1333236694336,221.5180206298828,-37.64583206176758
3456,-191.73532104492188,-84.47872924804688,214.1391906738281,-37.22696304321289
3457,-215.2705078125,-85.51094055175781,209.53163146972656,-40.44327926635742
3458,-217.96324157714844,-95.38801574707031,205.6945037841797,-47.29851531982422
3459,-207.7308654785156,-84.04864501953125,224.1957855224609,-29.148780822753906
3460,-214.02513122558597,-100.7024154663086,219.6817169189453,-41.85322189331055
3461,-210.3263702392578,-100.07411193847656,217.822998046875,-43.29308319091797
3462,-220.00148010253903,-120.22469329833984,206.3302764892578,-57.9721908569336
3463,-209.78781127929688,-107.7483901977539,228.57147216796875,-52.42217636108398
3464,-202.3566436767578,-88.2373275756836,231.62322998046875,-39.14553451538086
3465,-201.72085571289062,-90.15216064453124,218.0810394287109,-66.24485015869139
3466,-210.786376953125,-107.9727783203125,214.0195159912109,-67.79316711425781
3467,-188.7733154296875,-95.04020690917969,226.2602081298828,-57.69169616699219
3468,-224.87457275390625,-89.3443374633789,208.5704803466797,-62.280555725097656
3469,-212.82835388183597,-75.85078430175781,221.77606201171875,-34.97554397583008
3470,-224.683837890625,-103.74295806884766,208.7911376953125,-57.444862365722656
3471,-209.8850555419922,-72.12210083007812,228.39569091796875,-13.052250862121582
3472,-227.45884704589844,-102.0487823486328,200.53343200683597,-80.14231872558594
3473,-196.7505340576172,-95.05516815185548,223.7956085205078,-42.17485046386719
3474,-208.9650421142578,-51.50777053833008,231.6007843017578,-24.99001121520996
3475,-204.4996032714844,-125.19876098632812,216.9702911376953,-46.12044525146485
3476,-193.732421875,-108.15603637695312,213.3874664306641,-42.129974365234375
3477,-222.5184326171875,-110.46355438232422,208.77243041992188,-50.00994110107422
3478,-199.1851959228516,-107.90546417236328,225.0596923828125,-38.00112533569336
3479,-204.78756713867188,-101.57381439208984,225.7141876220703,-36.96517181396485
3480,-196.6308441162109,-84.29547882080078,221.94810485839844,-45.97832870483398
3481,-199.9257049560547,-93.42831420898438,218.6158447265625,-35.158798217773445
3482,-192.02703857421875,-90.99363708496094,228.3695068359375,-36.46028518676758
3483,-218.18389892578125,-104.76768493652344,223.2009735107422,-55.17848205566406
