,T7,F8,Cz,P4
8000,-127.26692199707031,31.03182029724121,207.04833984375,-176.2259521484375
8001,-102.83789825439452,32.045333862304695,223.2346343994141,-177.7667999267578
8002,-112.62521362304688,28.843978881835934,217.91275024414062,-166.79766845703125
8003,-113.90052032470705,22.415090560913086,200.21180725097656,-184.38267517089844
8004,-99.12043762207031,28.07729911804199,207.03712463378903,-182.2434539794922
8005,-95.35810089111328,45.16116333007813,225.48605346679688,-168.050537109375
8006,-106.81341552734376,28.26803398132324,218.4550323486328,-170.18601989746094
8007,-110.84876251220705,25.63514518737793,220.68028259277344,-168.56663513183594
8008,-100.01801300048828,29.80139350891113,210.1300201416016,-182.0041046142578
8009,-91.91738891601562,40.71442031860352,232.1206359863281,-163.70103454589844
8010,-103.07725524902344,36.64915084838867,216.3644256591797,-168.64517211914062
8011,-132.02407836914062,24.15040397644043,199.40399169921875,-180.62782287597656
8012,-91.0871353149414,26.154991149902344,207.27647399902344,-172.4075164794922
8013,-112.3634262084961,30.1716423034668,219.8014068603516,-168.7349395751953
8014,-113.23856353759766,24.718868255615234,208.89959716796875,-172.21304321289062
8015,-115.6994171142578,22.46370887756348,198.64105224609372,-181.9554901123047
8016,-107.7483901977539,28.294212341308594,208.4283599853516,-158.39785766601562
8017,-109.79037475585938,39.71960830688477,218.4512939453125,-170.15609741210938
8018,-103.36522674560548,36.33873748779297,222.8980407714844,-167.86727905273438
8019,-117.73766326904295,19.509187698364254,192.08126831054688,-189.90277099609372
8020,-106.50299835205078,27.501354217529297,208.9519500732422,-173.2714385986328
8021,-103.49612426757812,33.283241271972656,227.95437622070312,-155.61537170410156
8022,-112.3821258544922,29.03845405578613,203.0765686035156,-177.60972595214844
8023,-112.69253540039062,30.98320198059082,200.5147399902344,-176.8692169189453
8024,-85.62313842773438,26.31954574584961,206.13580322265625,-170.13365173339844
8025,-103.6494598388672,27.38915824890137,218.5111389160156,-167.97573852539062
8026,-114.89907836914062,33.10746383666992,207.7664031982422,-180.1341552734375
8027,-113.75840759277344,25.20131492614746,196.2736968994141,-178.66436767578125
8028,-108.4926300048828,30.01456642150879,206.6332092285156,-179.80877685546875
8029,-89.60987091064453,43.21641540527344,230.66580200195312,-159.21688842773438
8030,-99.539306640625,31.854597091674805,214.2476501464844,-172.81517028808594
8031,-110.396240234375,22.67688369750977,206.93614196777344,-174.24380493164062
8032,-117.74140167236328,40.08611679077149,215.92312622070312,-170.02894592285156
8033,-94.81581115722656,33.07006454467773,225.7964630126953,-176.9066162109375
8034,-105.59420776367188,38.81081008911133,226.78005981445312,-169.89804077148438
8035,-103.6756362915039,18.581693649291992,213.7539825439453,-164.2321014404297
8036,-108.01392364501952,18.45453643798828,206.9623260498047,-184.0386047363281
8037,-77.48511505126953,36.6379280090332,228.05535888671875,-166.23294067382812
8038,-110.2578582763672,14.292027473449707,206.51353454589844,-178.84014892578125
8039,-116.5408935546875,20.201068878173828,200.21180725097656,-180.3510589599609
8040,-107.8044891357422,18.40965843200684,209.4643096923828,-174.90577697753906
8041,-87.7324447631836,29.47976112365723,230.4114990234375,-165.70187377929688
8042,-100.79965209960938,23.948450088500977,214.82359313964844,-172.73663330078125
8043,-111.48455047607422,8.12867259979248,205.0362701416016,-177.25816345214844
8044,-105.65404510498048,33.01022720336914,216.09141540527344,-161.0120391845703
8045,-93.63026428222656,28.78413963317871,227.7524261474609,-168.48062133789062
8046,-106.09535217285156,26.5028018951416,219.20675659179688,-177.59475708007812
8047,-114.32313537597656,15.933843612670898,202.0406188964844,-172.15695190429688
8048,-114.94021606445312,23.342586517333984,202.33981323242188,-184.7192687988281
8049,-97.72545623779295,27.318099975585934,222.91673278808597,-169.55397033691406
8050,-99.78614044189452,33.85918426513672,212.62826538085938,-177.0674285888672
8051,-90.48126983642578,18.005748748779297,198.4540557861328,-174.93568420410156
8052,-122.3227767944336,28.238115310668945,202.66143798828125,-175.79212951660156
8053,-103.776611328125,27.20216178894043,220.88597106933597,-165.91879272460938
8054,-99.30369567871094,30.227741241455078,214.5243988037109,-167.885986328125
8055,-99.65524291992188,16.711742401123047,202.19395446777344,-179.8723602294922
8056,-108.64596557617188,18.3872184753418,211.95509338378903,-170.40293884277344
8057,-95.25337982177734,27.82672500610352,224.8203430175781,-165.49244689941406
8058,-93.36846923828124,18.78738784790039,217.4377899169922,-173.87730407714844
8059,-107.09390258789062,11.244009017944336,206.7790679931641,-176.79067993164062
8060,-106.19632720947266,37.49436569213867,224.34164428710938,-165.7168426513672
8061,-98.58563232421876,40.92759704589844,231.68679809570312,-175.45179748535156
8062,-110.55331420898438,26.74589538574219,217.06753540039062,-181.08409118652344
8063,-92.72895050048828,24.65529060363769,222.0640411376953,-164.998779296875
8064,-116.48479461669922,29.70415496826172,213.42112731933597,-188.59381103515625
8065,-109.0947494506836,42.015907287597656,233.99806213378903,-154.37371826171875
8066,-110.6206283569336,19.09779930114746,212.84518432617188,-178.65689086914062
8067,-114.39044952392578,10.784001350402832,213.76145935058597,-163.14378356933594
8068,-106.58901977539062,28.38397026062012,219.6817169189453,-167.1155548095703
8069,-96.15095520019531,22.66566276550293,225.54214477539062,-160.7876434326172
8070,-100.32842254638672,15.107325553894045,221.3759002685547,-157.10385131835938
8071,-110.8786849975586,12.971842765808105,212.83023071289062,-167.77003479003906
8072,-88.04285430908203,18.9856014251709,221.8770446777344,-157.52272033691406
8073,-100.45558166503906,37.789817810058594,243.4824523925781,-150.30470275878906
8074,-101.19982147216795,25.19757652282715,217.1460723876953,-175.91928100585938
8075,-84.81158447265625,26.132551193237305,217.9763336181641,-164.99130249023438
8076,-107.8680648803711,29.292766571044922,220.42222595214844,-173.46591186523438
8077,-100.55281829833984,56.76607131958008,245.546875,-154.87112426757812
8078,-111.58926391601562,33.313159942626946,221.12158203125,-182.38931274414062
8079,-118.11164855957031,29.453582763671875,208.12168884277344,-189.9700927734375
8080,-101.92162322998048,33.982601165771484,210.75457763671875,-180.19024658203125
8081,-103.20066833496094,31.88451766967773,220.2352294921875,-177.6321563720703
8082,-119.74224853515624,34.031219482421875,208.8247985839844,-192.6478576660156
8083,-101.8094253540039,28.541046142578125,206.7379302978516,-184.8127593994141
8084,-101.08014678955078,26.89175033569336,222.3295745849609,-173.82867431640625
8085,-107.37813568115234,46.16719436645508,229.83929443359372,-164.8791046142578
8086,-103.79905700683594,36.45654296875,226.87355041503903,-172.8338623046875
8087,-111.02828216552734,18.87901496887207,214.7001800537109,-170.9826202392578
8088,-115.48998260498048,35.671165466308594,213.14437866210938,-169.72601318359375
8089,-98.64173126220705,39.7962760925293,241.7733154296875,-160.22293090820312
8090,-84.8452377319336,28.96926498413086,229.98141479492188,-168.58534240722656
8091,-123.97207641601562,22.102807998657227,213.08079528808597,-176.68222045898438
8092,-115.10851287841795,38.39007186889648,227.6065673828125,-172.73663330078125
8093,-106.25242614746094,44.76286315917969,234.4730224609375,-178.13330078125
8094,-96.97373962402344,35.28595733642578,225.5645904541016,-179.78634643554688
8095,-111.50698852539062,24.26821136474609,216.47288513183597,-171.71937561035156
8096,-105.26883697509766,37.26062393188477,215.8296203613281,-181.4505920410156
8097,-99.11669921875,42.268348693847656,228.35081481933597,-164.9464111328125
8098,-103.00245666503906,15.150334358215332,223.081298828125,-169.6624298095703
8099,-105.97941589355469,20.232858657836914,195.2564392089844,-182.5426483154297
8100,-105.89714050292969,38.18063735961914,215.63888549804688,-159.08973693847656
8101,-99.8983383178711,21.34734916687012,215.51173400878903,-164.9950408935547
8102,-107.03032684326172,26.699146270751953,206.3901214599609,-185.97213745117188
8103,-90.19329833984376,21.496944427490234,196.9169464111328,-193.321044921875
8104,-126.59748077392578,35.49913024902344,214.22146606445312,-173.84738159179688
8105,-104.87614440917969,35.85068130493164,231.8102264404297,-161.0045623779297
8106,-108.08497619628906,37.18582534790039,227.0642852783203,-171.46505737304688
8107,-111.49576568603516,24.93391227722168,217.62852478027344,-174.999267578125
8108,-115.0150146484375,29.73220443725586,224.96994018554688,-175.02171325683594
8109,-95.12622833251952,35.6225471496582,247.9217071533203,-159.5235595703125
8110,-111.26763153076172,25.19196701049805,232.3786773681641,-174.5729217529297
8111,-107.66236877441406,33.812435150146484,220.71392822265625,-172.34768676757812
8112,-106.69747924804688,30.07253646850586,220.60174560546875,-176.59994506835938
8113,-94.25109100341795,27.959491729736328,236.2195587158203,-172.05970764160156
8114,-94.07157135009766,28.74861145019531,234.28228759765625,-161.01951599121094
8115,-123.43352508544922,28.647634506225586,218.46250915527344,-175.69862365722656
8116,-98.60433197021484,25.69311332702637,219.4685516357422,-172.07839965820312
8117,-89.23213958740234,41.22117614746094,232.7227478027344,-173.11436462402344
8118,-86.9732437133789,37.0960693359375,224.8502655029297,-175.07406616210938
8119,-129.12939453125,10.830750465393066,209.9804229736328,-171.7866973876953
8120,-108.76564025878906,28.93934631347656,212.11216735839844,-182.8530578613281
8121,-95.3394012451172,46.083045959472656,225.00360107421875,-173.20411682128906
8122,-109.93248748779295,32.769004821777344,220.29507446289062,-179.68536376953125
8123,-106.2860870361328,14.42479419708252,202.08175659179688,-184.2143859863281
8124,-113.73596954345705,40.50685501098633,215.8408508300781,-176.1436767578125
8125,-100.53038024902344,35.443031311035156,227.6028289794922,-177.05247497558594
8126,-110.74778747558594,33.098114013671875,222.9840545654297,-174.5355224609375
8127,-109.34906768798828,17.67850685119629,210.5713195800781,-178.5260009765625
8128,-108.81051635742188,29.53399085998535,231.0771942138672,-160.89984130859375
8129,-97.40008544921876,47.29103469848633,239.7462921142578,-165.5896759033203
8130,-96.28559112548828,34.08170700073242,226.98948669433597,-170.4627685546875
8131,-85.8250961303711,21.68394088745117,210.7358856201172,-172.123291015625
8132,-112.71497344970705,29.459192276000977,218.74301147460938,-175.18252563476562
8133,-100.48176574707031,45.63800048828125,237.6220245361328,-167.3287353515625
8134,-112.3896026611328,31.2805233001709,223.69464111328125,-178.2716827392578
8135,-120.6360855102539,21.30994987487793,216.9815216064453,-175.7996063232422
8136,-108.55620574951172,32.009803771972656,223.7395172119141,-173.09939575195312
8137,-104.08702850341795,57.57575988769531,235.00408935546875,-171.3453826904297
8138,-104.74150848388672,20.558229446411133,214.50570678710938,-191.98590087890625
8139,-116.21178436279295,28.434459686279297,211.0836944580078,-187.92062377929688
8140,-117.4870834350586,33.73015594482422,217.811767578125,-179.33755493164062
8141,-100.57525634765624,46.35606002807617,236.8179473876953,-172.4112548828125
8142,-120.22095489501952,24.19341278076172,209.7560272216797,-186.2750701904297
8143,-117.94709777832031,36.53508377075195,207.0259094238281,-187.8907012939453
8144,-114.34183502197266,38.90991973876953,214.8572540283203,-185.8524627685547
8145,-90.1633758544922,66.33834838867189,240.4942626953125,-172.628173828125
8146,-83.84668731689453,34.5491943359375,226.87728881835938,-190.33285522460938
8147,-125.42315673828124,31.79662895202637,214.8796844482422,-183.6982727050781
8148,-100.1825714111328,39.67659759521485,227.04933166503903,-172.05223083496094
8149,-84.56848907470703,49.71823120117188,244.783935546875,-165.73553466796875
8150,-107.13504028320312,31.31418228149414,220.1379852294922,-180.0780487060547
8151,-104.9397201538086,24.28691101074219,205.72067260742188,-183.0063934326172
8152,-114.84671783447266,33.973251342773445,214.5580596923828,-173.12557983398438
8153,-84.57970428466797,42.01777648925781,227.95811462402344,-159.9947967529297
8154,-114.66345977783205,15.026918411254885,204.3668365478516,-186.8809356689453
8155,-111.37982940673828,21.31743049621582,200.2230224609375,-173.1293182373047
8156,-107.50155639648438,45.15181350708008,215.9530487060547,-178.36517333984375
8157,-99.74500274658205,37.09980773925781,222.5277862548828,-184.00868225097656
8158,-109.4163818359375,43.12104797363281,221.74615478515625,-176.97767639160156
8159,-99.02320098876952,20.78636360168457,197.3732147216797,-192.06069946289062
8160,-99.34109497070312,37.63087463378906,207.306396484375,-193.42575073242188
8161,-101.7271499633789,51.532081604003906,235.9502868652344,-173.48086547851562
8162,-104.97711944580078,29.044063568115234,216.52525329589844,-184.9137420654297
8163,-111.3050308227539,12.910134315490724,211.67459106445312,-178.91868591308594
8164,-95.48151397705078,37.047447204589844,226.69029235839844,-163.42428588867188
8165,-82.63121795654297,48.66357803344727,243.84521484375,-165.25308227539062
8166,-98.35749816894531,33.64413833618164,234.28228759765625,-161.6852264404297
8167,-111.25641632080078,23.65860748291016,216.26719665527344,-172.1905975341797
8168,-98.82872772216795,39.20162963867188,229.13992309570312,-156.2623748779297
8169,-101.54015350341795,35.83572006225586,234.33839416503903,-165.5896759033203
8170,-107.29959869384766,21.455806732177734,222.8344573974609,-181.8245849609375
8171,-117.49830627441406,30.85043525695801,203.03916931152344,-178.1370391845703
8172,-82.84439086914062,27.757537841796875,214.4271697998047,-177.82662963867188
8173,-117.3075714111328,51.14313125610352,231.6681060791016,-168.3385009765625
8174,-106.07291412353516,43.77927017211914,221.5516662597656,-180.74749755859372
8175,-121.0399932861328,29.80326271057129,204.1835784912109,-191.6605224609375
8176,-114.48768615722656,38.55088806152344,210.16741943359372,-189.98130798339844
8177,-103.42132568359376,51.9846076965332,227.5018615722656,-182.9577789306641
8178,-113.26100158691406,40.25628280639648,204.2097625732422,-194.13633728027344
8179,-118.26872253417969,44.52724838256836,195.944580078125,-188.0253448486328
8180,-105.32867431640624,28.24746513366699,200.53717041015625,-189.98878479003903
8181,-83.17350769042969,56.8203010559082,225.68426513671875,-175.44058227539062
8182,-99.70386505126952,35.151321411132805,216.86932373046875,-176.35311889648438
8183,-108.60856628417969,16.339622497558597,206.43499755859372,-177.7518310546875
8184,-90.24191284179688,30.966371536254886,227.68136596679688,-155.1104736328125
8185,-72.2567367553711,43.1696662902832,236.3841094970703,-157.0552215576172
8186,-73.79757690429688,25.32286262512207,230.26190185546875,-151.47903442382812
8187,-125.52039337158205,31.841508865356445,222.84942626953125,-168.23753356933594
8188,-98.24903869628906,39.81123352050781,234.33091735839844,-155.92578125
8189,-87.38463592529297,42.17111206054688,243.51235961914062,-157.26092529296875
8190,-106.40202331542969,25.08724975585937,214.4795227050781,-173.79876708984375
8191,-99.90581512451172,26.568248748779297,220.7438507080078,-173.3350067138672
8192,-111.76129913330078,37.31298065185547,213.1181945800781,-184.8539123535156
8193,-92.63919067382812,50.52604675292969,233.0294189453125,-174.7823486328125
8194,-105.1603775024414,40.95938491821289,217.5612030029297,-192.52818298339844
8195,-113.8893051147461,22.768510818481445,203.9591827392578,-195.8940887451172
8196,-108.70954132080078,41.82329940795898,205.57107543945312,-196.021240234375
8197,-95.65354919433594,50.656944274902344,216.76834106445312,-179.58438110351562
8198,-112.24000549316406,39.17919158935547,210.08140563964844,-181.29725646972656
8199,-103.7953109741211,37.43265914916992,204.9128570556641,-177.13101196289062
8200,-83.55123138427734,39.64667892456055,216.89923095703125,-169.060302734375
8201,-106.2636489868164,44.81521987915039,235.3668670654297,-158.02386474609375
8202,-97.2878875732422,44.65066528320313,224.9325408935547,-161.58798217773438
8203,-94.6662139892578,16.455560684204098,206.91744995117188,-166.80514526367188
8204,-102.2694320678711,22.028011322021484,219.04220581054688,-169.060302734375
8205,-86.26640319824219,44.22431564331055,244.267822265625,-154.87112426757812
8206,-104.56947326660156,27.151674270629886,221.3160552978516,-172.4972686767578
8207,-101.17738342285156,25.479938507080078,207.7589263916016,-172.0335235595703
8208,-100.67623901367188,51.34508514404297,214.853515625,-172.65809631347656
8209,-108.92271423339844,38.80520248413086,220.2314910888672,-177.17962646484375
8210,-109.63330078125,45.36498641967773,214.86846923828125,-184.4574737548828
8211,-109.82403564453124,35.32709503173828,203.9928436279297,-192.51695251464844
8212,-115.13095092773438,50.20815658569336,206.99972534179688,-193.91567993164062
8213,-71.28810119628906,72.10153198242188,234.1401824951172,-172.04100036621094
8214,-126.8630142211914,32.406234741210945,205.4476623535156,-205.11294555664062
8215,-109.46500396728516,44.89376068115234,200.96353149414062,-197.67428588867188
8216,-101.95154571533205,40.70881271362305,212.79283142089844,-188.3133087158203
8217,-89.66596984863281,42.05891418457031,229.5288848876953,-173.70526123046875
8218,-87.42203521728516,31.90134620666504,219.61441040039062,-166.5209197998047
8219,-117.3861083984375,38.689266204833984,204.9614715576172,-166.73782348632812
8220,-103.9972686767578,41.026702880859375,208.7013702392578,-173.28639221191406
8221,-82.38438415527344,52.3436393737793,234.23367309570312,-153.6407012939453
8222,-111.24893188476562,39.11935424804688,218.13340759277344,-163.60752868652344
8223,-92.6952896118164,41.05662155151367,216.7982635498047,-171.8203582763672
8224,-104.00100708007812,37.64583206176758,212.9349365234375,-168.1365509033203
8225,-62.57787704467773,59.18391799926758,233.9718780517578,-160.21543884277344
8226,-114.26703643798828,47.414451599121094,217.5612030029297,-174.14657592773438
8227,-110.30648040771484,38.99967575073242,203.7086181640625,-195.66221618652344
8228,-97.85635375976562,59.47562789916992,210.42173767089844,-194.81326293945312
8229,-86.32250213623047,63.884971618652344,225.7366180419922,-189.67837524414062
8230,-99.8385009765625,52.45957565307617,217.7332305908203,-190.9985656738281
8231,-105.04444122314452,36.31068801879883,215.111572265625,-175.3022003173828
8232,-106.61893463134766,68.52993011474611,213.42860412597656,-190.7554626464844
8233,-89.65100860595703,62.72560119628906,222.29591369628903,-181.64132690429688
8234,-99.71881866455078,58.548133850097656,212.3029022216797,-180.7175750732422
8235,-118.17523193359376,49.75188827514648,193.67071533203125,-191.795166015625
8236,-104.44605255126952,47.73234176635742,205.8665313720703,-180.5754547119141
8237,-100.45932006835938,62.33291244506836,219.70416259765625,-164.18722534179688
8238,-84.53856658935547,60.795814514160156,220.99069213867188,-170.5188751220703
8239,-105.37355041503906,43.48007583618164,212.4786834716797,-161.67401123046875
8240,-111.9856948852539,50.20067596435547,222.0565643310547,-170.1748046875
8241,-93.18521881103516,58.17040252685547,237.7454376220703,-158.16598510742188
8242,-102.45269012451172,46.79362869262695,222.31460571289062,-178.88128662109375
8243,-102.2320327758789,44.77408218383789,212.8489227294922,-188.5601501464844
8244,-95.05516815185548,59.67758178710938,221.52549743652344,-190.12342834472656
8245,-82.8593521118164,67.30697631835939,236.49630737304688,-176.09132385253906
8246,-95.17110443115234,52.03696823120117,221.40956115722656,-191.2678375244141
8247,-97.4898452758789,48.31950759887695,206.6145172119141,-190.88262939453125
8248,-101.13250732421876,47.10403823852539,212.2729797363281,-184.659423828125
8249,-82.27218627929688,58.3873176574707,231.45492553710938,-172.40377807617188
8250,-89.95394134521484,60.223609924316406,222.29217529296875,-166.4423828125
8251,-102.45642852783205,41.92053985595703,200.8214111328125,-188.7882843017578
8252,-114.80558013916016,52.58673477172852,213.14437866210938,-175.2012176513672
8253,-90.45509338378906,52.51567459106445,228.87814331054688,-165.2605743408203
8254,-100.99038696289062,44.42627334594727,220.6578369140625,-166.9435272216797
8255,-103.98604583740234,44.87506103515625,210.5601043701172,-170.17105102539062
8256,-90.0212631225586,44.73294448852539,221.9630584716797,-167.8373565673828
8257,-101.74211120605469,63.507240295410156,228.9641571044922,-170.91529846191406
8258,-106.7273941040039,44.08594131469727,214.9170837402344,-172.95729064941406
8259,-113.94540405273438,28.19884490966797,206.08718872070312,-175.14138793945312
8260,-99.20271301269531,55.69084930419922,215.9380798339844,-173.08444213867188
8261,-99.93573760986328,70.84492492675781,236.28314208984372,-165.23812866210938
8262,-102.78553771972656,53.20007705688477,225.22052001953125,-182.6772766113281
8263,-109.76419067382812,35.39441299438477,209.20626831054688,-191.5483245849609
8264,-95.6834716796875,41.77094268798828,219.07586669921875,-180.3435821533203
8265,-63.71106719970703,52.32868194580078,238.844970703125,-171.6483154296875
8266,-119.6337890625,35.39067459106445,211.57362365722656,-202.36785888671875
8267,-99.41214752197266,42.49274444580078,216.2447509765625,-179.2926788330078
8268,-91.71543884277344,55.92646408081055,225.5309295654297,-167.01458740234375
8269,-100.67623901367188,57.98714828491211,221.64517211914062,-183.15972900390625
8270,-103.7392120361328,51.079551696777344,209.9991149902344,-180.69888305664062
8271,-110.67672729492188,42.54510116577149,190.3235015869141,-188.71722412109372
8272,-103.0548095703125,49.54245376586914,214.9806671142578,-168.23753356933594
8273,-95.16736602783205,41.02296447753906,213.04339599609372,-173.08444213867188
8274,-104.28150177001952,38.9734992980957,205.86279296875,-179.90975952148438
8275,-103.48490142822266,39.29512786865234,202.8334808349609,-177.93508911132812
8276,-80.04695129394531,57.39250564575195,207.2428131103516,-179.73023986816406
8277,-98.08822631835938,40.892066955566406,221.7237091064453,-168.86209106445312
8278,-98.7763671875,45.88483428955078,213.42486572265625,-180.2388610839844
8279,-100.19004821777344,48.66357803344727,218.7878875732422,-171.00131225585938
8280,-100.67623901367188,34.623992919921875,215.71368408203125,-176.26708984375
8281,-85.82135772705078,60.29092788696289,230.38905334472656,-174.54299926757812
8282,-98.93344116210938,38.262916564941406,217.58737182617188,-195.1049652099609
8283,-111.57056427001952,31.445077896118164,202.6726531982422,-192.4571228027344
8284,-110.85250091552734,46.97688293457031,216.36068725585938,-184.13211059570312
8285,-99.90956115722656,34.926925659179695,225.3813323974609,-182.7333831787109
8286,-107.004150390625,46.89086532592773,218.10348510742188,-180.53057861328125
8287,-111.85479736328124,40.38718032836914,203.5010528564453,-193.145263671875
8288,-109.66695404052734,45.032135009765625,211.76995849609372,-173.04330444335938
8289,-106.8096694946289,48.63365936279297,220.25205993652344,-172.47109985351562
8290,-89.56873321533203,37.25314331054688,210.1131896972656,-174.5355224609375
8291,-126.34690856933594,29.94911956787109,193.6052703857422,-182.81565856933597
8292,-104.38621520996094,45.78759384155274,214.74317932128903,-174.329833984375
8293,-96.73812103271484,51.57696151733398,228.6294403076172,-170.65350341796875
8294,-102.11609649658205,29.5489501953125,205.88336181640625,-169.97657775878906
8295,-102.1871566772461,32.39501190185547,195.15359497070312,-183.84413146972656
8296,-109.15084838867188,34.60155487060547,207.81689453125,-177.6732940673828
8297,-91.8463363647461,48.98521041870117,228.1881256103516,-168.24501037597656
8298,-99.22889709472656,34.84464645385742,210.2066802978516,-180.53805541992188
8299,-110.88616180419922,34.55667495727539,196.9263000488281,-190.7180633544922
8300,-110.44485473632812,37.32046127319336,216.0521545410156,-182.4192352294922
8301,-102.41529083251952,56.72680282592773,228.99220275878903,-188.732177734375
8302,-115.5423355102539,48.861793518066406,221.6881866455078,-182.48280334472656
8303,-100.59021759033205,38.977237701416016,216.3700408935547,-184.98106384277344
8304,-92.04080963134766,51.48720169067383,225.72352600097656,-182.82687377929688
8305,-123.39987182617188,51.70037841796875,237.18258666992188,-169.69235229492188
8306,-108.53376770019531,34.24252319335937,218.580322265625,-179.62551879882812
8307,-111.38731384277344,32.58574676513672,211.85972595214844,-165.7168426513672
8308,-99.35979461669922,37.30550384521485,221.02621459960938,-172.5720672607422
8309,-96.04998016357422,36.89037322998047,229.57937622070312,-160.7876434326172
8310,-113.48165130615234,25.827749252319336,203.11582946777344,-182.06393432617188
8311,-115.40022277832031,22.465579986572266,199.4918670654297,-175.7996063232422
8312,-106.71243286132812,27.98567199707031,204.8025360107422,-174.8197479248047
8313,-95.73957061767578,41.3520736694336,222.1968078613281,-163.472900390625
8314,-112.03430938720705,24.70951843261719,203.0634765625,-191.4922332763672
8315,-120.0115203857422,17.521430969238278,189.753173828125,-187.75607299804688
8316,-98.271484375,45.0844955444336,213.52023315429688,-178.051025390625
8317,-83.8990478515625,37.17460632324219,217.08062744140625,-179.68536376953125
8318,-116.2828369140625,52.85600662231445,217.7164001464844,-176.184814453125
8319,-121.922607421875,23.45291328430176,195.82676696777344,-194.17747497558597
8320,-98.43977355957031,50.83646011352539,233.70822143554688,-159.4412841796875
8321,-97.6955337524414,39.55318069458008,223.08316040039062,-172.99842834472656
8322,-110.62811279296876,30.55498313903809,219.32830810546875,-183.4140472412109
8323,-114.5138702392578,37.47379684448242,210.04586791992188,-178.00241088867188
8324,-111.63788604736328,37.47005844116211,214.3878936767578,-180.4632568359375
8325,-91.00859832763672,52.38103866577149,233.39031982421875,-168.53297424316406
8326,-102.6509017944336,48.1175537109375,225.49913024902344,-169.67364501953125
8327,-102.66212463378906,36.67345809936523,213.6212158203125,-177.17962646484375
8328,-99.44954681396484,41.04540252685547,219.11886596679688,-174.17648315429688
8329,-84.3440933227539,37.66453170776367,227.60470581054688,-169.25477600097656
8330,-93.435791015625,29.070241928100586,221.32540893554688,-172.3289794921875
8331,-126.11129760742188,28.39706039428711,206.2461395263672,-177.43020629882812
8332,-103.52603912353516,39.85237503051758,215.0685577392578,-178.49234008789062
8333,-105.8634796142578,44.46366882324219,229.63172912597656,-166.28904724121094
8334,-104.36377716064452,36.55378341674805,226.7669677734375,-171.61839294433594
8335,-113.75840759277344,38.057220458984375,211.98687744140625,-182.8493194580078
8336,-107.65115356445312,55.75069046020508,222.5146942138672,-168.2711944580078
8337,-97.98725128173828,45.37620544433594,224.91197204589844,-178.3053436279297
8338,-106.27112579345705,48.33446884155274,216.94224548339844,-188.32827758789062
8339,-100.560302734375,37.46631622314453,211.7138671875,-186.0656280517578
8340,-102.64716339111328,37.00257110595703,214.5674133300781,-185.37374877929688
8341,-88.00919342041016,56.42013168334961,231.61387634277344,-166.5695343017578
8342,-95.93778228759766,38.76780319213867,215.93621826171875,-178.86257934570312
8343,-88.32708740234375,33.632919311523445,208.63592529296875,-178.0659942626953
8344,-115.00379180908205,58.19658279418945,219.83319091796875,-170.60488891601562
8345,-89.80809020996094,42.5077018737793,238.49154663085938,-152.63092041015625
8346,-107.47537231445312,46.98810195922852,226.7295684814453,-164.6173095703125
8347,-114.74574279785156,29.466670989990234,215.3004302978516,-157.68727111816406
8348,-100.65380096435548,44.67684555053711,218.2474670410156,-170.6759490966797
8349,-95.29826354980469,46.67021179199219,228.09837341308597,-166.19927978515625
8350,-94.1800308227539,46.81980895996094,218.21755981445312,-167.33995056152344
8351,-116.93732452392578,27.607940673828125,202.79046630859372,-174.52056884765625
8352,-102.37415313720705,50.92247772216797,220.7831268310547,-160.87741088867188
8353,-87.21260070800781,46.16532516479492,236.8497314453125,-165.35032653808594
8354,-101.07640838623048,33.674060821533196,207.0165557861328,-185.56822204589844
8355,-95.02899169921876,28.03055000305176,204.79879760742188,-189.8728485107422
8356,-112.87953186035156,27.79867553710937,203.6244659423828,-192.1616668701172
8357,-102.62472534179688,40.72751235961914,228.49105834960938,-177.30679321289062
8358,-102.66586303710938,41.10898208618164,220.8280029296875,-176.9028778076172
8359,-103.26050567626952,32.79144287109375,209.7541656494141,-179.98455810546875
8360,-97.06723022460938,26.50093078613281,206.85574340820312,-184.98106384277344
8361,-104.5021514892578,33.99943161010742,218.33349609375,-175.1600799560547
8362,-99.9207763671875,28.84584808349609,214.99749755859372,-176.1885528564453
8363,-117.52074432373048,27.518184661865234,206.5864562988281,-182.88671875
8364,-107.84188842773438,29.975297927856445,215.2854766845703,-171.4463653564453
8365,-90.56354522705078,40.65271377563477,227.25689697265625,-163.977783203125
8366,-111.43218994140624,20.79010391235352,211.9345245361328,-162.97549438476562
8367,-110.70664978027344,19.64943504333496,200.06407165527344,-180.0406494140625
8368,-74.02944946289062,31.74427032470703,219.06277465820312,-163.80575561523438
8369,-115.3553466796875,50.49238967895508,230.3946685791016,-160.52584838867188
8370,-98.17798614501952,26.02596473693848,218.12779235839844,-164.1834716796875
8371,-115.76673126220705,34.646434783935554,206.76597595214844,-172.04100036621094
8372,-101.87674713134766,46.06434631347656,221.9312744140625,-170.53382873535156
8373,-107.26593780517578,46.91704559326172,231.0005340576172,-166.1469268798828
8374,-113.36197662353516,31.68069267272949,208.1534881591797,-180.2613067626953
8375,-116.42869567871094,43.82040786743164,205.50189208984372,-177.381591796875
8376,-99.41214752197266,41.08654022216797,216.3289031982422,-179.14682006835938
8377,-96.5324249267578,43.81666946411133,224.19764709472656,-172.1195526123047
8378,-99.12417602539062,54.72595596313477,218.0305633544922,-185.24285888671875
8379,-108.9114990234375,26.21669960021973,204.55943298339844,-187.2436981201172
8380,-74.27628326416016,42.395503997802734,226.3219146728516,-167.13800048828125
8381,-115.46754455566406,30.8691349029541,227.8739776611328,-170.36553955078125
8382,-109.9175262451172,34.051788330078125,226.6360626220703,-164.02639770507812
8383,-112.32976531982422,27.66029930114746,210.79759216308597,-180.3361053466797
8384,-105.81859588623048,24.66838073730469,209.3726959228516,-174.93568420410156
8385,-96.63340759277344,36.26580810546875,234.99099731445312,-164.81552124023438
8386,-107.4491958618164,31.44133949279785,212.3571319580078,-179.64422607421875
8387,-107.43797302246094,22.58525657653809,198.7513732910156,-175.69862365722656
8388,-99.28125762939452,13.695513725280762,210.4497833251953,-162.77728271484375
8389,-99.27003479003906,46.954444885253906,225.962890625,-164.92771911621094
8390,-103.4138412475586,14.129342079162598,201.9976043701172,-183.133544921875
8391,-107.75212860107422,21.12669563293457,194.34576416015625,-182.98394775390625
8392,-108.77686309814452,22.091588973999023,207.57752990722656,-173.31631469726562
8393,-75.07662200927734,40.76116943359375,211.455810546875,-179.62925720214844
8394,-116.73910522460938,28.6214542388916,195.48643493652344,-184.5360107421875
8395,-112.086669921875,26.52337074279785,194.91796875,-179.8312225341797
8396,-109.0536117553711,44.37017440795898,216.27281188964844,-165.40267944335938
8397,-106.7049560546875,33.45340347290039,215.50238037109372,-168.88453674316406
8398,-114.82427978515624,33.27014923095703,205.8272705078125,-181.4842529296875
8399,-124.13662719726562,21.4146671295166,206.1376800537109,-168.75363159179688
8400,-95.642333984375,44.078460693359375,222.1893310546875,-164.03762817382812
8401,-96.47632598876952,44.48236846923828,226.39671325683597,-170.26829528808594
8402,-114.44654846191406,27.56306266784668,214.39537048339844,-169.42308044433594
8403,-114.64850616455078,12.734359741210938,208.63592529296875,-174.92820739746094
8404,-103.53352355957031,41.09402084350586,222.96722412109372,-164.38169860839844
8405,-96.49877166748048,42.55632019042969,236.2700500488281,-161.58798217773438
8406,-99.4794692993164,22.2075252532959,223.7152099609375,-168.7611083984375
8407,-82.0328369140625,21.014497756958008,207.28582763671875,-178.78778076171875
8408,-116.4773178100586,29.18618011474609,224.1153717041016,-165.24560546875
8409,-92.70276641845705,35.23359680175781,228.5359344482422,-170.82554626464844
8410,-100.42566680908205,20.633028030395508,208.20957946777344,-187.06044006347656
8411,-113.36571502685548,25.16204643249512,198.19786071777344,-184.4537353515625
8412,-113.6312484741211,16.197505950927734,199.6938323974609,-181.00555419921875
8413,-101.01657104492188,43.640892028808594,226.86419677734372,-165.9711456298828
8414,-117.7862777709961,22.233705520629886,195.1947326660156,-191.619384765625
8415,-125.6325912475586,18.336729049682614,192.31126403808597,-190.01123046875
8416,-99.10547637939452,28.26616477966309,211.9681854248047,-163.4167938232422
8417,-106.96300506591795,35.76466369628906,208.1123504638672,-179.7040557861328
8418,-98.96336364746094,32.15940093994141,203.47113037109372,-183.57485961914062
8419,-83.8803482055664,27.06191635131836,200.64376831054688,-180.9419708251953
8420,-102.086181640625,30.3118896484375,215.05360412597656,-174.1951904296875
8421,-102.51626586914062,42.17859268188477,222.12200927734372,-172.8301239013672
8422,-95.87794494628906,29.227317810058594,217.7164001464844,-170.19723510742188
8423,-110.34387969970705,13.568357467651367,196.94500732421875,-184.670654296875
8424,-106.91065216064452,39.08943557739258,216.61688232421875,-168.49559020996094
8425,-92.21658325195312,45.10693359375,240.69808959960938,-155.7051239013672
8426,-115.34786224365234,31.501176834106445,216.35882568359372,-173.83241271972656
8427,-117.8274154663086,26.68792533874512,195.61734008789062,-189.95138549804688
8428,-104.13190460205078,38.57332992553711,212.6488342285156,-179.13185119628906
8429,-108.7544174194336,43.40901947021485,216.3027191162109,-176.91409301757812
8430,-104.7527313232422,39.09317398071289,211.82606506347656,-176.80563354492188
8431,-131.97172546386722,25.120908737182614,193.50428771972656,-188.25721740722656
8432,-76.92787170410156,41.845741271972656,220.85044860839844,-164.4041290283203
8433,-123.1492919921875,40.67889022827149,214.2158660888672,-181.7759704589844
8434,-125.14266204833984,30.439044952392575,201.6610107421875,-188.03656005859372
8435,-119.52159118652344,20.92848014831543,197.66305541992188,-180.74002075195312
8436,-106.61519622802734,39.57562255859375,213.9615478515625,-177.01507568359375
8437,-101.85430908203124,38.96601867675781,226.2695617675781,-173.5556640625
8438,-101.65235137939452,30.076274871826172,224.1677398681641,-171.52490234375
8439,-104.65548706054688,32.27533721923828,215.1171722412109,-173.5556640625
8440,-99.79361724853516,32.982177734375,214.9451446533203,-180.61285400390625
8441,-89.58743286132812,51.05711364746094,233.24073791503903,-176.61489868164062
8442,-98.40237426757812,28.86828804016113,212.7647857666016,-193.22006225585938
8443,-88.04659271240234,24.866594314575195,209.3801727294922,-184.1620178222656
8444,-98.7389678955078,28.913166046142575,206.6350860595703,-185.53829956054688
8445,-107.76334381103516,47.7959213256836,222.57080078125,-172.2317352294922
8446,-118.38092041015624,36.50142288208008,204.4098358154297,-188.65737915039062
8447,-122.40131378173828,28.51673698425293,197.64810180664062,-186.4022216796875
8448,-108.85540008544922,41.00052261352539,209.9748077392578,-175.40318298339844
8449,-98.45099639892578,47.70242309570313,226.9876251220703,-165.76171875
8450,-107.54269409179688,36.22093200683594,219.23106384277344,-170.74325561523438
8451,-109.83151245117188,28.404541015625,215.19944763183597,-164.153564453125
8452,-104.48345184326172,53.66008377075195,221.2468719482422,-184.6332550048828
8453,-85.87371063232422,49.63969039916992,235.29766845703125,-167.47459411621094
8454,-110.28404235839844,28.296083450317386,226.3817596435547,-169.84194946289062
8455,-113.91921997070312,48.03901672363281,214.5000915527344,-183.6945343017578
8456,-100.87445068359376,35.56644821166992,225.04661560058597,-172.63565063476562
8457,-67.83243560791016,43.86528778076172,238.30455017089844,-163.3756561279297
8458,-126.23845672607422,48.4990234375,224.08544921875,-170.8068389892578
8459,-119.56272888183594,44.366432189941406,207.46908569335938,-177.43768310546875
8460,-102.03008270263672,37.2082633972168,222.76901245117188,-170.41041564941406
8461,-97.38138580322266,49.75188827514648,232.71714782714844,-170.14862060546875
8462,-102.1497573852539,24.01015853881836,209.6793670654297,-182.53143310546875
8463,-102.59854888916016,33.22901153564453,202.1322479248047,-182.7857360839844
8464,-109.86517333984376,31.748010635375977,217.3985137939453,-163.7646026611328
8465,-99.6589813232422,46.23638153076172,214.8105010986328,-177.89395141601562
8466,-113.6499481201172,38.86878204345703,203.9049530029297,-178.87754821777344
8467,-109.26304626464844,42.212249755859375,202.981201171875,-174.7449493408203
8468,-97.2878875732422,36.13491439819336,210.6704406738281,-173.2190704345703
8469,-84.97613525390625,56.04988098144531,227.3840484619141,-165.43634033203125
8470,-89.60987091064453,36.19475173950195,206.9155731201172,-187.09410095214844
8471,-127.51375579833984,46.34857940673828,207.5476226806641,-185.11569213867188
8472,-100.44436645507812,41.71484375,221.5161437988281,-169.8269805908203
8473,-89.84174346923828,59.09041976928711,229.6392059326172,-183.4776153564453
8474,-98.98954010009766,59.69628143310547,229.8074951171875,-173.62298583984375
8475,-107.9727783203125,47.26859664916992,210.1842498779297,-188.32827758789062
8476,-111.45462799072266,51.36004638671875,227.97494506835938,-173.23403930664062
8477,-101.58502960205078,65.2425537109375,240.8028106689453,-167.46336364746094
8478,-104.63304901123048,49.77806854248047,222.0846099853516,-180.1939849853516
8479,-117.13927459716795,49.91270446777344,210.34132385253903,-182.95030212402344
8480,-108.45149230957031,66.12516784667969,224.3846435546875,-174.68885803222656
8481,-68.67017364501953,69.93612670898439,236.13916015625,-161.32994079589844
8482,-121.79170989990234,57.6655158996582,224.07049560546875,-160.48097229003906
8483,-128.53474426269528,38.83885955810547,202.300537109375,-177.62094116210938
8484,-102.54244995117188,59.5728645324707,225.3233642578125,-156.70741271972656
8485,-96.41275024414062,75.57215881347656,236.1989898681641,-159.00746154785156
8486,-103.02115631103516,49.134803771972656,206.80337524414062,-172.17564392089844
8487,-117.63668060302734,34.8895263671875,192.86851501464844,-183.54867553710938
8488,-101.47283935546876,44.07472229003906,206.5864562988281,-175.3302459716797
8489,-98.76140594482422,60.94915008544922,215.89881896972656,-178.33712768554688
8490,-99.53182983398438,47.20501708984375,206.0928039550781,-179.1973114013672
8491,-111.25641632080078,53.8283805847168,183.72071838378903,-202.3360748291016
8492,-96.06120300292969,59.4793701171875,204.342529296875,-189.85975646972656
8493,-68.62529754638672,77.85723876953125,218.6775665283203,-185.51773071289062
8494,-116.58950805664062,48.31202697753906,207.0913543701172,-191.3033599853516
8495,-117.42724609375,52.56429290771485,206.9641876220703,-179.27210998535156
8496,-102.19837951660156,49.01512908935547,214.24951171875,-173.82681274414062
8497,-96.59600830078124,72.18380737304688,227.37657165527344,-162.80532836914062
8498,-96.5324249267578,42.23469161987305,216.7627258300781,-172.12889099121094
8499,-112.97303009033205,29.634967803955078,210.0496063232422,-163.5981903076172
8500,-99.0718231201172,49.2432632446289,216.2129669189453,-166.79205322265625
8501,-108.07749938964844,56.21443557739258,233.4576416015625,-152.34107971191406
8502,-114.23711395263672,43.98870468139648,221.5086669921875,-160.9241485595703
8503,-110.69542694091795,41.310935974121094,207.1960601806641,-177.43206787109375
8504,-126.36186981201172,44.96107864379883,210.18051147460938,-177.06556701660156
8505,-112.95433044433594,59.41579055786133,229.84864807128903,-165.58407592773438
8506,-90.4438705444336,39.52326202392578,217.0619201660156,-184.85577392578125
8507,-128.30287170410156,37.238182067871094,205.27749633789062,-184.0292510986328
8508,-107.1500015258789,42.82559585571289,208.9987030029297,-179.23097229003906
8509,-94.53157806396484,50.810279846191406,225.5701904296875,-176.71026611328125
8510,-90.93006134033205,41.05662155151367,210.7302703857422,-180.36415100097656
8511,-99.4794692993164,19.137067794799805,189.5474853515625,-196.52426147460938
8512,-92.69902801513672,35.536529541015625,213.34446716308597,-178.8981170654297
8513,-78.76790618896484,42.320709228515625,221.4301300048828,-176.28018188476562
8514,-96.18087768554688,28.449419021606445,213.10885620117188,-178.45306396484375
8515,-101.68226623535156,13.572096824645994,204.3911437988281,-183.5243682861328
8516,-88.44676208496094,38.04226303100586,224.7025451660156,-159.19631958007812
8517,-103.57839965820312,42.96023178100586,227.5149383544922,-169.19680786132812
8518,-87.86708068847656,43.640892028808594,218.1801605224609,-166.63497924804688
8519,-104.32637786865234,14.907240867614744,206.3022308349609,-157.8424835205078
8520,-115.5385971069336,45.1480712890625,218.18389892578125,-157.2029571533203
8521,-109.40516662597656,43.07242965698242,215.6632080078125,-173.7707061767578
8522,-95.88916778564452,26.908580780029297,206.99411010742188,-173.3443603515625
8523,-109.57720184326172,25.199445724487305,209.0809783935547,-168.1010284423828
8524,-101.54015350341795,37.76176834106445,216.1381683349609,-168.0598907470703
8525,-100.3396453857422,37.60843276977539,221.8003692626953,-172.02792358398438
8526,-105.05565643310548,39.68033981323242,211.0294647216797,-177.61532592773438
8527,-103.94864654541016,35.693603515625,204.90350341796875,-181.96109008789062
8528,-102.71448516845705,52.79616928100586,217.7238922119141,-167.4166259765625
8529,-80.34988403320312,64.07944488525389,225.67864990234372,-189.97195434570312
8530,-114.53630828857422,30.93271255493164,209.33529663085938,-191.26222229003903
8531,-96.3865737915039,38.38633346557617,211.9681854248047,-183.056884765625
8532,-79.35132598876953,36.69963836669922,203.5272216796875,-204.7370758056641
8533,-99.89459991455078,56.63330459594727,233.24073791503903,-174.7056884765625
8534,-88.25228881835938,41.606388092041016,208.4115295410156,-192.5599670410156
8535,-100.37330627441406,45.17425155639648,212.28607177734372,-171.98678588867188
8536,-101.01657104492188,25.319122314453125,214.95635986328125,-173.3480987548828
8537,-94.62507629394531,54.10513305664063,222.00233459472656,-174.97496032714844
8538,-96.7643051147461,40.604095458984375,210.6704406738281,-179.23097229003906
8539,-100.6874542236328,39.684078216552734,207.64111328125,-176.62051391601562
8540,-103.42506408691406,48.11007308959961,223.1168212890625,-167.47271728515625
8541,-98.02090454101562,48.77577590942383,228.6406555175781,-159.1439666748047
8542,-105.14915466308594,34.328540802001946,221.6694793701172,-162.80532836914062
8543,-113.69483184814452,23.42673301696777,212.0579376220703,-164.7874755859375
8544,-106.50674438476562,40.50685501098633,217.9856719970703,-168.71437072753906
8545,-88.67115783691406,60.06279373168945,223.8199157714844,-177.01319885253906
8546,-114.74200439453124,21.34360885620117,196.98614501953125,-191.80450439453125
8547,-116.8812255859375,34.85586929321289,207.6785125732422,-173.9053497314453
8548,-102.76683807373048,32.140701293945305,219.22732543945312,-178.15760803222656
8549,-96.77925872802734,50.13335800170898,221.9013519287109,-178.48672485351562
8550,-105.79241943359376,44.29537582397461,212.15892028808597,-172.8357391357422
8551,-104.7789077758789,25.749210357666016,197.1469573974609,-178.04916381835938
8552,-100.2573699951172,51.62557983398438,227.5299072265625,-160.95033264160156
8553,-84.4226303100586,42.70591735839844,234.2205810546875,-162.7193145751953
8554,-103.80279541015624,28.490558624267575,219.2198486328125,-166.5639190673828
8555,-98.24156188964844,33.54690170288086,212.74981689453125,-172.83200073242188
8556,-102.426513671875,33.329986572265625,218.59153747558597,-166.14878845214844
8557,-88.20367431640625,46.83476638793945,244.3519744873047,-156.6980743408203
8558,-113.29840087890624,37.09232711791992,209.1221160888672,-182.2041931152344
8559,-87.63894653320312,34.85586929321289,209.67562866210938,-175.07594299316406
8560,-122.04602813720705,59.24749374389648,225.3607635498047,-171.2200927734375
8561,-103.81027221679688,53.91439819335938,230.31239318847656,-181.0709991455078
8562,-102.93513488769531,61.13988494873047,229.766357421875,-175.10958862304688
8563,-112.96180725097656,41.08654022216797,201.7545166015625,-191.8755645751953
8564,-99.18401336669922,54.53522109985352,218.9131774902344,-183.056884765625
8565,-94.50540161132812,55.91150283813477,229.83367919921875,-181.4674224853516
8566,-107.89798736572266,46.89460372924805,213.9578094482422,-188.55079650878903
8567,-116.95602416992188,42.66103744506836,203.6094970703125,-190.88449096679688
8568,-108.36173248291016,51.77143478393555,216.549560546875,-174.07737731933594
8569,-97.45992279052734,61.40167617797852,241.57696533203125,-151.4248046875
8570,-102.71822357177734,56.69688415527344,224.57537841796875,-154.11753845214844
8571,-101.88422393798828,36.815574645996094,203.2355194091797,-170.19911193847656
8572,-83.76815032958984,49.59855270385742,216.9197998046875,-160.40057373046875
8573,-111.39479064941406,60.07775115966797,235.2079162597656,-150.1195831298828
8574,-104.22166442871094,49.04504776000977,213.80821228027344,-168.5161590576172
8575,-118.01441192626952,45.43978500366211,212.8545379638672,-167.26329040527344
8576,-113.17498016357422,56.36029052734375,222.75405883789062,-164.48080444335938
8577,-99.0718231201172,55.46645736694336,230.75743103027344,-167.20718383789062
8578,-119.94419860839844,46.53931427001953,213.30706787109372,-179.8256072998047
8579,-120.92779541015624,42.97145080566406,203.8301544189453,-186.1535186767578
8580,-110.84502410888672,46.33736038208008,213.19113159179688,-181.4375
8581,-93.86587524414062,48.88423156738281,224.5641632080078,-176.1941680908203
8582,-114.0725555419922,42.28330993652344,209.0809783935547,-184.3957672119141
8583,-115.67323303222656,35.12887954711914,194.13259887695312,-195.15919494628903
8584,-103.3914031982422,47.29851531982422,214.7768402099609,-182.74647521972656
8585,-82.68731689453125,59.47562789916992,226.4266357421875,-172.61508178710938
8586,-71.0711898803711,33.18039321899414,212.36460876464844,-179.5675506591797
8587,-130.32991027832028,30.47644424438477,209.85513305664062,-170.3711395263672
8588,-116.32023620605469,63.424964904785156,219.61253356933597,-170.53570556640625
8589,-102.1460189819336,60.48914337158203,228.7004852294922,-159.817138671875
8590,-108.15977478027344,32.301517486572266,218.56163024902344,-151.1742401123047
8591,-120.2546157836914,28.853328704833984,201.60491943359372,-175.756591796875
8592,-102.5087890625,43.554874420166016,218.3933258056641,-165.8122100830078
8593,-106.08039093017578,57.14567184448242,229.96832275390625,-164.82113647460938
8594,-121.80667114257812,31.2805233001709,207.82437133789062,-174.25689697265625
8595,-120.50892639160156,38.01234436035156,207.15118408203125,-172.81329345703125
8596,-111.36861419677734,39.96083068847656,216.17556762695312,-174.77674865722656
8597,-101.30079650878906,48.45040512084961,224.519287109375,-169.78024291992188
8598,-103.2492904663086,39.867332458496094,203.4935607910156,-190.170166015625
8599,-119.60387420654295,25.438798904418945,194.9890289306641,-189.7961883544922
8600,-93.0767593383789,48.21105194091797,209.06602478027344,-178.9055938720703
8601,-100.91932678222656,60.95288848876953,221.93875122070312,-178.04916381835938
8602,-105.80738067626952,31.05238914489746,206.0105133056641,-182.7053375244141
8603,-110.96844482421876,27.592981338500977,197.28907775878903,-181.08221435546875
8604,-97.04853057861328,38.80146026611328,208.9463348388672,-164.68275451660156
8605,-96.21453857421876,41.88314056396485,217.8884429931641,-174.00257873535156
8606,-108.84791564941406,36.14613342285156,207.6448516845703,-173.1760711669922
8607,-108.9975128173828,39.04081726074219,204.2639923095703,-162.99606323242188
8608,-103.3727035522461,40.73125076293945,214.13357543945312,-158.49322509765625
8609,-111.72016143798828,32.866241455078125,213.9615478515625,-167.34930419921875
8610,-102.85659790039062,46.67769241333008,219.5153045654297,-163.5869598388672
8611,-121.02877044677734,31.83028793334961,207.61119079589844,-176.8187255859375
8612,-118.9119873046875,43.20706558227539,214.62350463867188,-178.7335662841797
8613,-101.19234466552734,58.48081588745117,232.3618469238281,-165.10536193847656
8614,-96.65584564208984,34.69131088256836,205.65896606445312,-186.19091796875
8615,-130.58795166015622,25.016191482543945,196.59344482421875,-191.7147521972656
8616,-119.13638305664062,46.41215896606445,206.2760467529297,-184.758544921875
8617,-98.26399993896484,54.011634826660156,223.8760223388672,-174.23446655273438
8618,-115.1982650756836,32.985916137695305,196.5149078369141,-180.36788940429688
8619,-126.21975708007812,30.1473331451416,184.50608825683597,-194.10455322265625
8620,-114.43907165527344,47.17136001586914,207.734619140625,-177.97061157226562
8621,-105.97193145751952,59.9131965637207,222.2603912353516,-175.28536987304688
8622,-96.97373962402344,36.48646545410156,209.6793670654297,-179.25714111328125
8623,-124.66395568847656,32.80640411376953,203.41876220703125,-173.8604736328125
8624,-97.11585235595705,45.33132553100586,216.11947631835938,-164.60421752929688
8625,-100.14891052246094,60.2423095703125,226.92030334472656,-158.8859100341797
8626,-109.68191528320312,28.4456787109375,208.2881164550781,-167.0762939453125
8627,-92.7925262451172,26.082061767578125,202.0873565673828,-172.6711883544922
8628,-115.5423355102539,41.123939514160156,211.9008636474609,-170.91717529296875
8629,-100.5827407836914,57.71787643432617,230.9556579589844,-163.49346923828125
8630,-116.39503479003906,35.43181228637695,212.93307495117188,-177.79110717773438
8631,-116.49227142333984,38.84634017944336,193.5342102050781,-189.3399200439453
8632,-101.0838851928711,57.59819793701172,220.07627868652344,-169.7316131591797
8633,-95.1037826538086,57.23542785644531,217.34616088867188,-188.93600463867188
8634,-107.32203674316406,41.00800323486328,201.35433959960938,-188.78640747070312
8635,-113.45547485351562,40.17400360107422,196.1932830810547,-184.64259338378903
8636,-107.8867645263672,44.7778205871582,201.197265625,-183.2401428222656
8637,-99.73751831054688,59.25497436523438,222.12200927734372,-162.89134216308594
8638,-113.07400512695312,30.94767189025879,199.15528869628903,-177.8359832763672
8639,-117.70026397705078,32.413711547851555,196.3540954589844,-180.92514038085938
8640,-87.98301696777344,40.52181625366211,211.2127227783203,-167.5811767578125
8641,-94.0790557861328,52.05566787719727,231.6475372314453,-157.6068572998047
8642,-121.85154724121094,51.00475692749024,210.0421295166016,-173.83802795410156
8643,-123.60556030273438,41.87565994262695,199.8321990966797,-177.82850646972656
8644,-103.68311309814452,55.002708435058594,218.404541015625,-166.93417358398438
8645,-104.1393814086914,60.34702682495117,228.12828063964844,-165.98797607421875
8646,-98.21538543701172,47.3546142578125,213.27340698242188,-181.5684051513672
8647,-105.75875854492188,50.49612808227539,211.6203765869141,-178.4829864501953
8648,-97.07845306396484,50.68312454223633,220.4914093017578,-179.1860809326172
8649,-90.05492401123047,61.31940078735352,232.7882080078125,-172.62255859375
8650,-117.4085464477539,37.686973571777344,211.04067993164062,-178.87940979003906
8651,-111.39852905273438,42.15989303588867,208.43771362304688,-189.17535400390625
8652,-101.34941864013672,50.49987030029297,218.8832550048828,-175.99595642089844
8653,-60.84256362915039,46.15036392211914,227.29429626464844,-183.43087768554688
8654,-124.5330581665039,36.26206970214844,204.7838287353516,-173.5650177001953
8655,-113.16376495361328,35.95166015625,194.3794250488281,-184.7099151611328
8656,-100.56777954101562,49.6845703125,210.9397125244141,-167.28945922851562
8657,-97.03357696533205,52.74380874633789,216.30645751953125,-173.80062866210938
8658,-98.40612030029295,35.51782989501953,208.6284484863281,-169.4511260986328
8659,-104.37873840332031,39.08943557739258,203.07095336914062,-172.09523010253906
8660,-84.35157012939453,39.61676025390625,220.15855407714844,-162.78662109375
8661,-107.68855285644531,62.64332580566406,221.1309356689453,-164.89593505859375
8662,-106.69373321533205,51.89859008789063,214.44024658203125,-163.35134887695312
8663,-128.29539489746094,46.3036994934082,195.89035034179688,-186.19091796875
8664,-108.41783142089844,56.28175354003906,223.13177490234372,-169.8699951171875
8665,-96.9512939453125,76.27899932861328,238.95529174804688,-165.00437927246094
8666,-112.77481079101562,51.82379531860352,213.79324340820312,-183.97315979003903
8667,-103.02115631103516,38.67804718017578,212.3047637939453,-176.2764434814453
8668,-100.85948944091795,67.78569030761719,222.5184326171875,-167.281982421875
8669,-115.30672454833984,72.71861267089844,231.2997283935547,-172.51036071777344
8670,-102.2282943725586,59.1577377319336,216.4597930908203,-181.5235290527344
8671,-107.10138702392578,52.66901016235352,198.43348693847656,-187.64947509765625
8672,-100.5977020263672,58.17040252685547,212.2299652099609,-177.27499389648438
8673,-96.69698333740234,64.69652557373047,228.1806488037109,-163.91981506347656
8674,-102.8865203857422,52.3847770690918,209.9822998046875,-170.59927368164062
8675,-115.1010284423828,51.45354461669922,190.7292938232422,-185.0764312744141
8676,-100.10777282714844,71.8846206665039,214.82546997070312,-164.7388458251953
8677,-90.95997619628906,73.96774291992188,224.5230255126953,-163.0035400390625
8678,-108.7132797241211,56.36777114868164,210.4497833251953,-168.20199584960938
8679,-103.5522232055664,65.32857513427734,206.72483825683597,-173.8866424560547
8680,-94.76345825195312,55.57117462158203,216.3363800048828,-175.53221130371094
8681,-100.7472915649414,67.10128784179689,221.0486602783203,-173.3443603515625
8682,-114.61858367919922,49.553672790527344,204.2041473388672,-177.40963745117188
8683,-113.73223114013672,51.42736434936523,204.9857940673828,-170.93960571289062
8684,-113.46295166015624,69.59579467773439,215.3714904785156,-172.58889770507812
8685,-94.08279418945312,66.76469421386719,231.2585906982422,-160.73341369628906
8686,-119.97412109375,45.15181350708008,199.52178955078125,-187.90005493164062
8687,-116.73162841796876,48.83935165405274,197.9398193359375,-183.36355590820312
8688,-103.09220886230469,72.95048522949219,218.27365112304688,-167.64476013183594
8689,-111.5163345336914,72.74666595458984,218.79910278320312,-167.885986328125
8690,-121.412109375,62.24876403808594,208.4208831787109,-172.05223083496094
8691,-127.56424713134766,60.80890274047852,198.9103240966797,-170.44781494140625
8692,-102.33488464355469,58.9987907409668,212.5572204589844,-165.93374633789062
8693,-84.77605438232422,55.05319595336914,227.20640563964844,-156.9841766357422
8694,-112.35033416748048,49.21895217895508,204.7557830810547,-170.9302520751953
8695,-120.63421630859376,49.12919616699219,195.6902618408203,-180.2164306640625
8696,-115.74242401123048,62.59657669067383,207.88607788085938,-176.39051818847656
8697,-98.55758666992188,61.26143264770508,222.0154266357422,-173.76136779785156
8698,-107.54082489013672,55.16165542602539,211.8915100097656,-180.14910888671875
8699,-109.33971405029295,54.32017517089844,202.0069580078125,-189.4913787841797
8700,-92.92155456542969,65.12848663330078,226.5594024658203,-172.52719116210938
8701,-94.873779296875,62.20014572143555,228.18624877929688,-192.0083312988281
8702,-101.62429809570312,61.66534042358398,212.5085906982422,-198.3661651611328
8703,-127.14537811279295,65.09108734130861,204.6884613037109,-197.00857543945312
8704,-99.92638397216795,68.47570037841797,226.26394653320312,-180.7100982666016
8705,-110.4280242919922,70.24092864990234,233.65399169921875,-174.4420166015625
8706,-108.3187255859375,49.342369079589844,214.5991973876953,-174.5355224609375
8707,-103.8271026611328,46.14475631713867,210.8256378173828,-165.73927307128906
8708,-99.57857513427734,45.69596862792969,220.4521484375,-152.92263793945312
8709,-103.0417251586914,73.16179656982422,235.43792724609372,-149.54551696777344
8710,-127.16033935546876,35.231727600097656,200.3352203369141,-171.95872497558594
8711,-119.45988464355469,33.354297637939446,203.21495056152344,-171.3117218017578
8712,-99.84410858154295,57.615028381347656,215.3135223388672,-163.24102783203125
8713,-102.20772552490234,52.73072052001953,207.23159790039062,-171.29676818847656
8714,-117.56749725341795,49.58172225952149,196.4045867919922,-180.62408447265625
8715,-121.46073150634766,52.97381210327149,201.12060546875,-170.72830200195312
8716,-106.5946273803711,69.15635681152344,219.8500213623047,-163.8394012451172
8717,-100.90624237060548,65.67451477050781,219.337646484375,-179.24404907226562
8718,-118.63336944580078,55.03075790405274,208.16282653808597,-184.3116149902344
8719,-113.96223449707031,60.08710098266602,210.58628845214844,-175.4592742919922
8720,-113.07587432861328,60.1020622253418,220.4184875488281,-177.06369018554688
8721,-81.33534240722656,69.0628662109375,220.4072570800781,-176.1997833251953
8722,-125.05851745605469,52.4539680480957,203.5664978027344,-181.0915679931641
8723,-125.21559143066406,40.08611679077149,195.63790893554688,-173.813720703125
8724,-100.29290008544922,60.4124755859375,204.11251831054688,-183.8329162597656
8725,-106.51982879638672,64.50766754150389,209.92433166503903,-176.08009338378906
8726,-110.20362854003906,54.48099136352539,204.2097625732422,-174.93568420410156
8727,-105.25574493408205,50.98418426513672,197.2984161376953,-172.3738555908203
8728,-109.6052474975586,54.67920684814453,204.6024475097656,-177.87899780273438
8729,-90.9356689453125,66.52346801757811,231.22679138183597,-161.8086395263672
8730,-114.59427642822266,54.7427864074707,223.44032287597656,-169.36697387695312
8731,-109.61647033691406,59.66823196411133,209.30349731445312,-183.1372985839844
8732,-100.90624237060548,66.90119934082031,229.82432556152344,-174.08673095703125
8733,-99.70573425292969,93.06928253173828,248.53878784179688,-151.87173461914062
8734,-94.66434478759766,67.11811828613281,218.35406494140625,-180.07431030273438
8735,-126.93220520019531,70.09133148193361,213.4884490966797,-178.9486083984375
8736,-104.48906707763672,78.681884765625,224.5099334716797,-172.7141876220703
8737,-100.47988891601562,88.02041625976562,233.38845825195312,-170.45155334472656
8738,-124.75558471679688,62.21884536743164,215.80718994140625,-174.56170654296875
8739,-116.74097442626952,68.75618743896484,202.13037109375,-185.0034942626953
8740,-106.72926330566406,79.31766510009766,220.4484100341797,-169.77088928222656
8741,-102.68643188476562,81.01557922363281,219.03097534179688,-177.72190856933594
8742,-110.6898193359375,70.54012298583984,208.04315185546875,-181.16636657714844
8743,-107.80635833740234,66.85258483886719,204.6361083984375,-168.07672119140625
8744,-102.87716674804688,75.2710952758789,221.7162322998047,-173.5519256591797
8745,-90.07923126220705,88.60009765625,231.02484130859372,-173.49583435058594
8746,-115.47315216064452,70.71589660644531,206.86134338378903,-184.58837890625
8747,-117.0326919555664,65.86151123046875,194.13446044921875,-183.7095031738281
8748,-109.57907104492188,75.74980163574219,212.3290863037109,-185.92726135253903
8749,-73.38805389404297,85.72411346435547,211.51377868652344,-188.51901245117188
8750,-108.95450592041016,75.23369598388672,206.5023193359375,-184.1134033203125
8751,-105.7905502319336,73.79009246826172,196.88330078125,-191.31271362304688
8752,-98.95401000976562,75.62265014648438,218.85520935058597,-177.3441925048828
8753,-87.76422882080078,85.07711791992188,219.91734313964844,-183.8291778564453
8754,-105.45770263671876,67.05827331542969,215.30230712890625,-178.53347778320312
8755,-109.27613830566406,65.07612609863281,207.02215576171875,-188.1562347412109
8756,-94.73540496826172,91.29656982421876,238.4672393798828,-152.4962921142578
8757,-93.01505279541016,85.88493347167969,229.689697265625,-180.96066284179688
8758,-92.93277740478516,53.57593536376953,217.06005859375,-175.82205200195312
8759,-105.86534881591795,63.527809143066406,211.56988525390625,-176.9627227783203
8760,-93.95750427246094,89.80060577392578,229.431640625,-167.81118774414062
8761,-98.71466064453124,85.1032943725586,234.04293823242188,-164.81178283691406
8762,-92.70089721679688,63.80082321166992,214.12049865722656,-183.2644500732422
8763,-128.3309326171875,66.62818908691406,210.38058471679688,-174.4981231689453
8764,-107.48098754882812,77.9825210571289,216.4093170166016,-186.38352966308597
8765,-95.35248565673828,91.39754486083984,228.2086944580078,-176.63734436035156
8766,-110.19989013671876,60.90240097045898,203.5814514160156,-181.0391998291016
8767,-109.22003936767578,66.74038696289061,202.2089080810547,-180.9157867431641
8768,-92.5400848388672,97.59829711914062,227.21388244628903,-163.79078674316406
8769,-99.90768432617188,78.11341857910156,224.6483154296875,-181.2261962890625
8770,-98.47530364990234,71.25818634033203,207.23159790039062,-189.96261596679688
8771,-104.3245086669922,76.54640197753906,209.52415466308597,-181.1813201904297
8772,-90.37842559814452,92.78131103515624,225.4897918701172,-184.2891845703125
8773,-89.15547180175781,96.00884246826172,238.81130981445312,-176.49522399902344
8774,-103.71490478515624,64.07009887695311,210.8817443847656,-187.58029174804688
8775,-102.48448181152344,61.28013229370117,205.0624542236328,-193.01437377929688
8776,-93.95002746582031,77.86658477783203,222.89056396484372,-175.32090759277344
8777,-84.62271881103516,69.87815856933594,222.7222595214844,-183.44021606445312
8778,-115.55168914794922,65.74557495117189,212.7703857421875,-184.10592651367188
8779,-121.11292266845705,72.70552825927734,201.2963714599609,-183.8067321777344
8780,-94.10710144042969,81.83836364746094,228.19747924804688,-167.205322265625
8781,-97.9629364013672,88.71977996826172,234.0952911376953,-176.94775390625
8782,-92.4802474975586,68.94318389892578,219.6929473876953,-175.63131713867188
8783,-105.0911865234375,70.7757339477539,210.93409729003903,-179.6554412841797
8784,-104.13003540039062,75.27483367919922,212.17575073242188,-173.34249877929688
8785,-78.60895538330078,95.23468017578124,220.77377319335938,-180.2388610839844
8786,-109.02182006835938,70.18482971191406,205.13351440429688,-179.56942749023438
8787,-96.65771484375,68.96936798095703,206.0684814453125,-174.96560668945312
8788,-98.35936737060548,78.45001220703125,224.5435943603516,-175.9828643798828
8789,-90.20264434814452,83.2819595336914,228.81455993652344,-181.54409790039062
8790,-96.54177856445312,81.61396789550781,216.91046142578125,-176.41294860839844
8791,-111.20966339111328,53.17950820922852,201.9284210205078,-191.73532104492188
8792,-77.71138000488281,79.01473999023438,232.83120727539062,-172.1494598388672
8793,-76.61184692382812,76.22103118896484,228.6612243652344,-181.1065216064453
8794,-128.24116516113278,56.810951232910156,209.0865936279297,-183.0288391113281
8795,-112.64952850341795,57.60380935668945,217.57989501953125,-165.17454528808594
8796,-109.55288696289062,55.06441879272461,216.4504547119141,-173.8922576904297
8797,-96.35104370117188,80.55557250976562,228.4817047119141,-177.1123046875
8798,-107.70537567138672,52.24079132080078,208.60040283203125,-180.4632568359375
8799,-118.28181457519531,53.52357864379883,201.00840759277344,-187.23248291015625
8800,-105.48014068603516,68.28870391845703,218.72804260253903,-173.63046264648438
8801,-95.31883239746094,80.65655517578125,229.6859588623047,-180.90830993652344
8802,-116.97659301757812,77.07746887207031,209.01927185058597,-178.02859497070312
8803,-118.5361328125,62.51429748535156,202.9007873535156,-190.89010620117188
8804,-98.02278137207031,75.31971740722656,215.7997131347656,-189.65219116210938
8805,-93.08611297607422,78.80904388427734,231.34646606445312,-175.27227783203125
8806,-103.44189453125,65.8353271484375,202.62777709960938,-201.6385803222656
8807,-131.02738952636722,89.81182861328125,201.0233612060547,-192.1841125488281
8808,-120.57063293457031,78.68562316894531,220.7475891113281,-180.96441650390625
8809,-112.7205810546875,85.85501098632812,227.3672180175781,-181.38702392578125
8810,-115.0056610107422,78.44253540039062,209.3558654785156,-183.20460510253903
8811,-124.05622100830078,62.6713752746582,200.63067626953125,-173.8174591064453
8812,-107.08455657958984,94.10523223876952,225.00360107421875,-161.1279754638672
8813,-100.11711883544922,86.95454406738281,228.3246307373047,-167.52694702148438
8814,-108.52067565917969,50.08287048339844,210.7059631347656,-171.62588500976562
8815,-119.51598358154295,71.4975357055664,201.8872833251953,-174.59910583496094
8816,-123.46157836914062,64.38424682617189,219.13943481445312,-170.70211791992188
8817,-112.03618621826172,69.72108459472656,223.03640747070312,-174.7038116455078
8818,-118.04246520996094,50.217506408691406,201.68907165527344,-193.39208984375
8819,-118.54734802246094,58.63602066040039,199.1571502685547,-184.96609497070312
8820,-103.59896850585938,84.47125244140625,219.36383056640625,-169.75967407226562
8821,-87.36032104492188,74.39221954345703,225.1606750488281,-172.48605346679688
8822,-95.24403381347656,48.35503768920898,203.573974609375,-188.9154357910156
8823,-125.4399871826172,64.85547637939453,191.31832885742188,-198.2203063964844
8824,-103.67002868652344,59.32416152954102,212.8414459228516,-186.2227020263672
8825,-92.10625457763672,78.44253540039062,228.6724395751953,-174.42332458496094
8826,-117.69091033935548,67.82121276855469,209.06414794921875,-178.84014892578125
8827,-120.79502868652344,64.268310546875,209.1539001464844,-171.7866973876953
8828,-114.9271240234375,74.47824096679688,211.2108459472656,-178.30160522460938
8829,-114.02581024169922,76.7558364868164,222.0041961669922,-173.56689453125
8830,-125.39510345458984,57.824462890625,201.12060546875,-180.7811584472656
8831,-114.19036865234376,67.578125,206.0759735107422,-181.4917297363281
8832,-126.13560485839844,62.39462280273438,207.7514495849609,-181.1401824951172
8833,-108.8198699951172,73.763916015625,227.46820068359372,-164.142333984375
8834,-105.95510864257812,50.60271453857422,194.47105407714844,-195.7332763671875
8835,-140.36592102050778,54.941001892089844,196.9917449951172,-174.6626739501953
8836,-110.05403900146484,65.63711547851561,222.89056396484372,-170.55252075195312
8837,-97.91058349609376,85.68297576904297,233.72879028320312,-165.91131591796875
8838,-129.74461364746094,55.90215301513672,202.2313537597656,-190.15708923339844
8839,-120.4659194946289,57.72722625732422,202.1341094970703,-186.43214416503903
8840,-101.60934448242188,64.06635284423828,221.61898803710938,-176.3119659423828
8841,-100.21810150146484,67.37242889404297,227.38966369628903,-177.29930114746094
8842,-108.7450714111328,55.62166213989258,200.686767578125,-190.0149688720703
8843,-119.7815170288086,62.66763305664063,195.5331878662109,-191.5408477783203
8844,-113.24417114257812,65.86151123046875,219.58448791503903,-178.41380310058594
8845,-111.834228515625,82.93041229248047,224.6483154296875,-181.38702392578125
8846,-119.95729064941406,49.23391342163086,200.6044921875,-193.2686767578125
8847,-114.51573944091795,65.69321441650389,207.82249450683597,-171.6221466064453
8848,-120.93340301513672,62.49559783935547,214.760009765625,-169.1799774169922
8849,-92.91781616210938,68.74871063232422,214.66651916503903,-176.95523071289062
8850,-138.19677734375,44.61887741088867,200.50726318359372,-172.53466796875
8851,-119.4449234008789,50.2062873840332,197.23858642578125,-169.28469848632812
8852,-115.73868560791016,53.71431350708008,213.60438537597656,-161.853515625
8853,-107.3201675415039,60.56954956054688,225.7478485107422,-155.72756958007812
8854,-115.81348419189452,49.873435974121094,197.2647705078125,-188.7808074951172
8855,-121.77862548828124,57.15876007080078,208.0992584228516,-164.8192596435547
8856,-112.00252532958984,63.34455490112305,217.28445434570312,-165.9674072265625
8857,-100.3527374267578,62.05429077148438,221.9406280517578,-170.01023864746094
8858,-117.44407653808594,49.794898986816406,207.53826904296875,-180.1229248046875
8859,-112.11097717285156,46.15597534179688,198.54754638671875,-183.11485290527344
8860,-90.94688415527344,53.23186492919922,208.50689697265625,-181.2224578857422
8861,-118.15091705322266,71.0337905883789,221.69378662109372,-175.90806579589844
8862,-122.12643432617188,54.79888534545898,202.9531555175781,-184.12835693359372
8863,-118.48377227783205,53.42634201049805,204.0414581298828,-174.97308349609375
8864,-109.41077423095705,70.82435607910156,215.67254638671875,-169.4417724609375
8865,-117.30944061279295,43.29495239257813,209.69993591308597,-181.42442321777344
8866,-120.76510620117188,51.45541381835938,209.09780883789062,-170.39918518066406
8867,-131.60708618164062,44.5852165222168,190.6937561035156,-186.46954345703125
8868,-102.4807357788086,55.1728744506836,215.89694213867188,-165.76919555664062
8869,-110.95909118652344,52.81299591064453,209.8981475830078,-181.618896484375
8870,-116.16129302978516,48.55324935913086,200.1856231689453,-186.536865234375
8871,-119.26914978027344,44.99286651611328,195.1255340576172,-179.34129333496094
8872,-98.10879516601562,74.02197265625,224.9549865722656,-163.36070251464844
8873,-117.70960998535156,49.90709686279297,212.58338928222656,-181.3832855224609
8874,-114.01458740234376,53.81155014038086,212.41136169433597,-179.52081298828125
8875,-88.43367767333984,40.22075271606445,200.77279663085938,-185.4747314453125
8876,-113.700439453125,61.95331192016602,215.54165649414062,-179.00096130371094
8877,-104.71345520019531,57.764625549316406,230.95751953125,-164.9426727294922
8878,-111.75942993164062,35.53839874267578,206.203125,-178.8551025390625
8879,-131.65196228027344,56.39956283569336,206.04605102539062,-180.762451171875
8880,-104.81069946289062,72.9000015258789,226.637939453125,-163.32330322265625
8881,-107.82505798339844,64.30570983886719,221.8134613037109,-168.82843017578125
8882,-116.52780151367188,56.317283630371094,208.63780212402344,-181.1813201904297
8883,-120.11436462402344,61.48956680297852,198.24087524414062,-178.6868133544922
8884,-117.72830963134766,59.23066711425781,212.1832275390625,-176.16238403320312
8885,-99.95630645751952,57.88056182861328,227.04559326171875,-163.83566284179688
8886,-121.61406707763672,27.220861434936523,189.45211791992188,-184.80528259277344
8887,-97.94049835205078,45.85304260253906,192.3916778564453,-193.3696594238281
8888,-104.13003540039062,40.07115936279297,208.29747009277344,-175.38821411132812
8889,-112.17829895019531,46.04751968383789,219.49473571777344,-173.98574829101562
8890,-109.96054077148438,42.24591064453125,208.8491058349609,-180.4632568359375
8891,-112.6158676147461,30.397907257080078,204.6678924560547,-182.6211853027344
8892,-107.81757354736328,53.93683624267578,221.2842712402344,-168.6938018798828
8893,-108.87596893310548,47.85202026367188,219.3806610107422,-188.75836181640625
8894,-108.96946716308594,46.43833923339844,213.4080352783203,-187.0903625488281
8895,-115.91072082519531,41.797122955322266,206.47427368164062,-183.36541748046875
8896,-107.75399780273438,58.4471549987793,218.6364288330078,-174.24380493164062
8897,-111.41909790039062,55.90776443481445,223.38609313964844,-181.80963134765625
8898,-121.15779876708984,39.98701095581055,203.61325073242188,-187.6663055419922
8899,-121.61406707763672,47.23119735717773,197.8911895751953,-186.6602783203125
8900,-104.2497100830078,52.20152282714844,212.70494079589844,-175.59017944335938
8901,-103.89816284179688,59.9131965637207,222.1855926513672,-173.96705627441406
8902,-91.24234008789062,35.35701370239258,195.9913330078125,-181.6114044189453
8903,-112.84774017333984,41.97289657592773,209.425048828125,-161.81985473632812
8904,-103.76726531982422,47.31721496582031,211.98687744140625,-174.90951538085938
8905,-100.89875793457031,57.5832405090332,230.0281524658203,-158.74940490722656
8906,-95.76387786865234,32.23419952392578,223.6778106689453,-161.101806640625
8907,-112.38399505615234,29.91546058654785,201.197265625,-177.90516662597656
8908,-107.24536895751952,44.61700820922852,211.1080017089844,-172.73663330078125
8909,-99.09986877441406,40.589134216308594,218.8757781982422,-172.28036499023438
8910,-113.03099822998048,36.23215103149414,205.4383087158203,-182.7408599853516
8911,-116.48666381835938,35.27473449707031,192.31126403808597,-194.3682098388672
8912,-104.75833892822266,54.66611862182617,219.14878845214844,-164.25827026367188
8913,-104.885498046875,52.03696823120117,220.3118896484375,-179.66665649414062
8914,-107.14065551757812,35.22611618041992,203.6394195556641,-188.70974731445312
8915,-100.3676986694336,37.731849670410156,203.9460906982422,-179.7489471435547
8916,-114.33995819091795,48.23722839355469,220.4390563964844,-170.10374450683594
8917,-103.864501953125,50.98605728149414,233.2893524169922,-160.8400115966797
8918,-113.50596618652344,34.46317672729492,212.46185302734372,-169.85690307617188
8919,-111.28820037841795,37.46257781982422,211.6689910888672,-167.60922241210938
8920,-99.54866027832031,51.28524780273438,231.35955810546875,-150.4879608154297
8921,-105.97006225585938,55.365478515625,231.9878692626953,-162.0255584716797
8922,-111.32559967041016,45.1368522644043,213.4192657470703,-171.89141845703125
8923,-107.55204010009766,27.73883819580078,210.11692810058597,-171.6931915283203
8924,-87.6482925415039,57.38502502441406,235.15182495117188,-162.111572265625
8925,-102.6191177368164,64.79376983642578,229.4746551513672,-168.45819091796875
8926,-105.07997131347656,28.64389419555664,218.08665466308597,-167.68028259277344
8927,-121.25877380371094,32.92607879638672,202.4576110839844,-184.76040649414062
8928,-94.58206939697266,44.38139343261719,216.8263092041016,-171.89141845703125
8929,-70.4185791015625,45.97832870483398,223.22528076171875,-175.5116424560547
8930,-131.41635131835938,27.25265121459961,199.0617828369141,-182.2509307861328
8931,-111.14982604980469,34.75115203857422,200.8681640625,-186.71263122558597
8932,-102.53683471679688,48.439186096191406,217.5668029785156,-172.93484497070312
8933,-98.1611557006836,37.18582534790039,221.5460662841797,-169.58389282226562
8934,-99.48133850097656,27.271350860595703,203.0223388671875,-173.20411682128906
8935,-92.40544891357422,32.709163665771484,198.0669708251953,-181.9667053222656
8936,-93.2880630493164,41.14637756347656,219.930419921875,-171.11724853515625
8937,-92.9664306640625,43.15096664428711,223.3748779296875,-168.8134765625
8938,-92.73455810546876,38.10210037231445,213.8792724609375,-160.06959533691406
8939,-113.19181060791016,15.457006454467773,207.8879547119141,-178.64193725585938
8940,-101.5382843017578,48.46162414550781,231.2099609375,-159.53477478027344
8941,-83.3885498046875,48.81691360473633,228.7939910888672,-158.03134155273438
8942,-96.6390151977539,35.001724243164055,214.1223602294922,-169.22113037109375
8943,-124.03378295898438,37.76924896240234,202.69322204589844,-178.38014221191406
8944,-102.6565170288086,53.0355224609375,223.30007934570312,-164.39291381835938
8945,-100.45745086669922,40.69385147094727,217.9445343017578,-178.87380981445312
8946,-113.63311767578124,51.32638549804688,207.5513610839844,-178.9860076904297
8947,-109.33597564697266,45.1181526184082,211.5156555175781,-178.29037475585938
8948,-96.26502227783205,53.94431686401367,218.09413146972656,-167.8710174560547
8949,-95.73395538330078,63.36138534545898,229.57188415527344,-164.7855987548828
8950,-107.3388671875,39.75139617919922,203.27291870117188,-177.5424041748047
8951,-108.7188949584961,42.38428497314453,203.39633178710938,-170.2047119140625
8952,-109.8446044921875,60.35076522827149,219.8780670166016,-160.49594116210938
8953,-89.45840454101562,63.91489028930664,221.2281646728516,-166.98092651367188
8954,-102.62659454345705,41.08654022216797,211.39971923828125,-164.20217895507812
8955,-83.18659210205078,49.83416748046875,212.1551818847656,-164.72203063964844
8956,-85.84566497802734,54.06399536132813,230.2787322998047,-160.39495849609375
8957,-106.89008331298828,55.79930877685547,236.74876403808597,-153.9286651611328
8958,-108.69644927978516,52.336158752441406,216.06710815429688,-178.08468627929688
8959,-117.51887512207031,41.7559814453125,201.42539978027344,-184.90252685546875
8960,-99.39906311035156,59.02310180664063,226.0040283203125,-173.2265625
8961,-89.16295623779297,66.37200164794922,238.27088928222656,-164.96885681152344
8962,-106.8713836669922,66.02419281005861,215.21067810058597,-179.27023315429688
8963,-117.01399230957031,48.581298828125,210.71157836914062,-186.75376892089844
8964,-97.26731872558594,68.67951965332031,218.55413818359372,-181.267333984375
8965,-100.8576202392578,64.31505584716797,221.91632080078125,-176.06887817382812
8966,-107.596923828125,62.5498275756836,208.9500732421875,-171.62588500976562
8967,-114.3624038696289,44.07098007202149,204.8548889160156,-170.17105102539062
8968,-75.1420669555664,49.10114669799805,210.3151397705078,-170.3243865966797
8969,-109.33971405029295,62.05615997314453,221.8527374267578,-159.84146118164062
8970,-106.59088897705078,45.48466491699219,210.7788848876953,-170.06260681152344
8971,-110.70478057861328,51.08329391479492,206.2012481689453,-172.17564392089844
8972,-87.01251220703125,57.56827926635742,229.2577362060547,-144.470458984375
8973,-93.3852996826172,66.07281494140625,229.54571533203125,-168.14402770996094
8974,-120.1255874633789,35.43181228637695,208.0599822998047,-186.61166381835938
8975,-111.08625030517578,45.53702163696289,205.9357147216797,-188.7508850097656
8976,-93.47132110595705,59.78604125976562,225.4579925537109,-175.60887145996094
8977,-101.07453918457031,57.41868591308594,222.07339477539062,-188.97154235839844
8978,-113.04969787597656,48.9627685546875,207.95152282714844,-191.4323883056641
8979,-96.7624282836914,45.18921279907226,211.6689910888672,-178.4474639892578
8980,-78.80342864990234,55.36922073364258,218.7074737548828,-179.20664978027344
8981,-101.56820678710938,45.15555191040039,231.0753326416016,-164.7855987548828
8982,-114.27638244628906,47.8370590209961,210.70034790039062,-175.35081481933594
8983,-121.25129699707031,41.48670959472656,203.2242889404297,-165.48870849609375
8984,-99.53743743896484,38.02730178833008,221.66200256347656,-158.7606201171875
8985,-94.4287338256836,44.52724838256836,223.19161987304688,-162.39581298828125
8986,-97.0167465209961,38.412513732910156,222.33143615722656,-151.36309814453125
8987,-111.64349365234376,26.65800666809082,201.08880615234372,-170.7170867919922
8988,-102.49195861816406,45.4884033203125,219.86685180664062,-157.85182189941406
8989,-102.40968322753906,60.2946662902832,223.05697631835938,-166.55084228515625
8990,-104.14125061035156,34.73992919921875,215.6258087158203,-165.9636688232422
8991,-112.38399505615234,34.03308868408203,210.4497833251953,-173.14053344726562
8992,-95.9172134399414,54.2210693359375,236.46826171875,-169.47543334960938
8993,-79.70848846435547,59.1913948059082,244.5763702392578,-165.70187377929688
8994,-80.25077056884766,33.37860870361328,214.7319641113281,-184.41259765625
8995,-127.23513793945312,44.474891662597656,214.4701690673828,-177.96875
8996,-97.30845642089844,42.66851806640625,230.46946716308597,-167.43345642089844
8997,-96.64649200439452,61.24460220336914,234.2579803466797,-172.74411010742188
8998,-96.64649200439452,29.80326271057129,217.83233642578125,-174.494384765625
8999,-105.7905502319336,29.395612716674805,222.12200927734372,-156.10903930664062
9000,-87.4837417602539,33.30754852294922,230.0468597412109,-158.52127075195312
9001,-93.63961791992188,43.07242965698242,229.1978912353516,-167.7064666748047
9002,-92.02397918701172,29.76960372924805,216.4859771728516,-170.5076446533203
9003,-102.57423400878906,26.01100349426269,211.9345245361328,-165.1221923828125
9004,-89.33125305175781,40.03189086914063,225.26351928710938,-156.0043182373047
9005,-88.90116119384766,48.97772979736328,227.92259216308597,-162.76231384277344
9006,-100.0722427368164,35.6524658203125,214.8030242919922,-169.0341339111328
9007,-84.92938995361328,25.689373016357425,209.53350830078125,-180.24261474609372
9008,-99.04003143310548,43.49503707885742,228.7491149902344,-172.02230834960938
9009,-97.41317749023438,48.59252166748047,230.3310852050781,-168.49932861328125
9010,-101.6205596923828,25.461238861083984,222.9148712158203,-167.22401428222656
9011,-108.73011016845705,26.549549102783203,200.12391662597656,-193.79600524902344
9012,-95.43850708007812,40.40961837768555,222.8961639404297,-183.21583557128903
9013,-85.3183364868164,54.2210693359375,231.03793334960938,-171.24441528320312
9014,-101.3550262451172,21.37352752685547,211.5904541015625,-181.5702667236328
9015,-111.10494995117188,23.782024383544922,203.4823455810547,-187.45687866210938
9016,-89.5145034790039,48.34194564819336,233.24073791503903,-160.4585418701172
9017,-92.62984466552734,41.37451171875,221.9611968994141,-174.71878051757812
9018,-89.14051818847656,24.526264190673828,217.49200439453125,-168.08045959472656
9019,-97.3757781982422,27.99689102172852,212.476806640625,-165.57846069335938
9020,-90.61029815673828,27.918354034423828,217.18533325195312,-168.7611083984375
9021,-108.53937530517578,40.8808479309082,235.61557006835938,-151.75204467773438
9022,-124.62842559814452,15.097975730895994,208.12730407714844,-173.73892211914062
9023,-111.73699188232422,21.418407440185547,211.1641082763672,-167.03701782226562
9024,-103.03050231933594,29.84066200256348,225.83946228027344,-162.76231384277344
9025,-102.61537170410156,30.77189636230469,220.4278259277344,-170.29074096679688
9026,-113.4049835205078,11.646048545837402,207.8468170166016,-172.6244354248047
9027,-110.29338836669922,12.797937393188475,195.4640045166016,-181.4393768310547
9028,-96.2725067138672,23.50153160095215,213.4566650390625,-174.64772033691406
9029,-101.47096252441406,38.48731231689453,211.23141479492188,-181.9554901123047
9030,-111.38543701171876,33.68527984619141,204.9670867919922,-184.6295166015625
9031,-106.92373657226562,14.98577880859375,201.38052368164062,-184.5995941162109
9032,-86.24209594726562,21.11173439025879,215.4014129638672,-180.3061828613281
9033,-91.63502502441406,46.3111801147461,224.9082336425781,-179.65170288085938
9034,-113.360107421875,15.112936019897461,216.0297088623047,-180.99806213378903
9035,-103.22872161865234,22.56281661987305,209.69805908203125,-170.2047119140625
9036,-87.59219360351562,29.32455635070801,221.2543487548828,-165.5821990966797
9037,-93.18708801269531,30.562461853027344,231.0416717529297,-161.37855529785156
9038,-105.42404174804688,19.85512924194336,208.0824279785156,-179.4572296142578
9039,-99.3317413330078,24.492605209350586,209.99725341796875,-170.43284606933594
9040,-110.29712677001952,20.778884887695312,212.6151885986328,-171.71189880371094
9041,-100.1545181274414,36.70337677001953,220.5063781738281,-174.43080139160156
9042,-106.20568084716795,14.062024116516113,202.7605438232422,-181.7722320556641
9043,-106.30291748046876,14.780084609985352,201.71337890625,-181.3645782470703
9044,-95.28517150878906,34.17894744873047,220.9065399169922,-162.94183349609375
9045,-98.43416595458984,31.34410095214844,216.5121612548828,-179.9134979248047
9046,-120.33128356933594,27.091835021972656,217.054443359375,-179.741455078125
9047,-113.13571166992188,22.330942153930664,211.08181762695312,-182.03402709960938
9048,-93.41896057128906,41.7447624206543,227.37657165527344,-172.5084991455078
9049,-92.27828979492188,28.4755973815918,233.6558532714844,-154.80755615234375
9050,-105.5137939453125,20.38245391845703,211.30621337890625,-182.43792724609372
9051,-104.36564636230469,22.076629638671875,202.7942047119141,-179.09445190429688
9052,-97.59268951416016,29.06650161743164,216.6355743408203,-167.51199340820312
9053,-86.29444885253906,26.01100349426269,223.51324462890625,-168.8097381591797
9054,-105.0724868774414,18.864055633544922,197.77525329589844,-189.27821350097656
9055,-100.98851776123048,18.82291603088379,201.3393859863281,-183.4701385498047
9056,-105.72322845458984,26.32141494750977,215.528564453125,-178.41006469726562
9057,-90.29988098144531,31.79662895202637,223.4272308349609,-176.16238403320312
9058,-78.73237609863281,15.109195709228516,203.1382751464844,-197.0946044921875
9059,-128.02799987792972,22.3720817565918,209.7429351806641,-183.3916015625
9060,-106.8564224243164,41.84199905395508,217.8473052978516,-179.2515411376953
9061,-100.78656768798828,32.16687774658203,226.0937805175781,-168.15525817871094
9062,-112.84774017333984,30.693359375,212.21875,-170.30943298339844
9063,-116.22860717773438,25.580915451049805,198.4409637451172,-173.9109649658203
9064,-90.5766372680664,27.11053466796875,221.4301300048828,-161.1803436279297
9065,-108.44961547851562,34.769851684570305,229.99449157714844,-155.12918090820312
9066,-112.72806549072266,14.757645606994627,209.50732421875,-179.97708129882812
9067,-109.35093688964844,32.065902709960945,204.9334259033203,-178.5521697998047
9068,-89.78377532958984,41.92053985595703,226.63980102539062,-165.21194458007812
9069,-96.2164077758789,33.924633026123054,232.4329071044922,-164.6135711669922
9070,-105.7082748413086,20.87986183166504,205.58790588378903,-193.6426696777344
9071,-94.4923095703125,14.933420181274414,203.72543334960938,-186.1479034423828
9072,-77.70016479492188,31.770450592041016,224.8147430419922,-166.95848083496094
9073,-106.5160903930664,30.584901809692386,224.14903259277344,-173.1779327392578
9074,-104.31328582763672,25.04611015319824,204.35748291015625,-185.6430206298828
9075,-113.30400848388672,20.210418701171875,197.44615173339844,-180.1191864013672
9076,-104.7321548461914,32.626888275146484,216.56451416015625,-171.30050659179688
9077,-92.93651580810548,34.22008514404297,224.53050231933597,-168.32728576660156
9078,-115.9892578125,29.18991851806641,205.1092071533203,-174.26251220703125
9079,-121.3073959350586,23.561368942260746,194.61129760742188,-180.4782257080078
9080,-83.14545440673828,34.710010528564446,211.6241149902344,-168.69754028320312
9081,-104.7471160888672,25.390180587768555,219.69107055664062,-161.99563598632812
9082,-107.33139038085938,26.931018829345703,210.4535217285156,-180.34732055664062
9083,-105.67835235595705,31.011249542236328,206.5976867675781,-172.0821533203125
9084,-94.55963134765624,46.98062133789063,227.3990020751953,-165.01747131347656
9085,-89.68280029296875,57.15315246582031,227.7281188964844,-162.792236328125
9086,-83.86351776123047,29.634967803955078,208.26568603515625,-180.8970947265625
9087,-116.7147979736328,36.68467712402344,203.22802734375,-177.77801513671875
9088,-94.58206939697266,58.57805252075195,234.1345672607422,-164.1573028564453
9089,-99.41402435302734,48.37934494018555,227.20079040527344,-177.65834045410156
9090,-109.22003936767578,31.95370483398437,217.9183654785156,-184.1171417236328
9091,-101.1343765258789,54.26220703125,205.88710021972656,-190.1383819580078
9092,-104.14873504638672,44.29911422729492,216.65802001953125,-183.3055877685547
9093,-99.46263885498048,61.34557723999024,224.93067932128903,-180.8073272705078
9094,-94.08466339111328,42.073875427246094,210.84994506835938,-186.61166381835938
9095,-114.85232543945312,27.312488555908203,200.86441040039062,-182.43418884277344
9096,-89.37612915039062,52.47079467773438,221.53485107421875,-179.13185119628906
9097,-104.95281219482422,60.47044372558594,230.0655517578125,-164.85665893554688
9098,-89.18539428710938,46.62907409667969,207.3045196533203,-171.0087890625
9099,-110.7496566772461,43.139747619628906,202.82786560058597,-183.1746826171875
9100,-110.65615844726562,56.04240036010742,215.693115234375,-172.875
9101,-91.82950592041016,64.69278717041016,233.61471557617188,-168.20387268066406
9102,-106.06356048583984,35.07278060913086,208.93511962890625,-179.56568908691406
9103,-115.5479507446289,50.46995162963867,213.0415344238281,-175.844482421875
9104,-107.937255859375,65.21263885498047,223.2552032470703,-180.5417938232422
9105,-86.0177001953125,59.17643737792969,231.37826538085938,-175.5565185546875
9106,-110.07647705078124,33.584300994873054,214.65342712402344,-187.5952453613281
9107,-103.28482055664062,44.366432189941406,212.2935485839844,-187.6513519287109
9108,-108.01953125,59.5205078125,234.29537963867188,-177.44515991210938
9109,-108.62913513183594,52.291282653808594,239.34425354003903,-162.63890075683594
9110,-125.7616195678711,42.71713638305664,209.9860382080078,-186.03196716308597
9111,-117.42537689208984,52.62787246704102,202.4127349853516,-181.0616455078125
9112,-88.2878189086914,46.51687622070313,210.46847534179688,-175.9791259765625
9113,-117.58619689941406,56.89883804321289,215.30416870117188,-171.1060333251953
9114,-138.30523681640622,36.17979049682617,193.4893341064453,-191.13693237304688
9115,-112.45879364013672,48.790733337402344,197.62191772460938,-168.7686004638672
9116,-102.50691986083984,44.54220962524414,207.2147674560547,-179.10194396972656
9117,-94.79898071289062,40.529296875,213.3781280517578,-179.89854431152344
9118,-97.1251983642578,27.091835021972656,214.65342712402344,-172.5421600341797
9119,-106.01868438720705,37.1671257019043,196.4102020263672,-191.1631164550781
9120,-90.2587432861328,42.76575469970703,213.1163330078125,-182.7857360839844
9121,-84.40953826904297,56.81282043457031,224.82595825195312,-180.2351226806641
9122,-111.66967010498048,43.48381805419922,208.38909912109372,-187.5017547607422
9123,-91.00672912597656,29.272197723388672,209.0735015869141,-184.30039978027344
9124,-113.7640151977539,43.00885009765625,214.2046356201172,-180.53057861328125
9125,-98.4042510986328,52.99438095092773,235.7950897216797,-169.72227478027344
9126,-115.43201446533205,29.642446517944336,199.0917053222656,-185.175537109375
9127,-103.68498992919922,36.95021057128906,218.4008026123047,-171.09107971191406
9128,-108.16912841796876,56.07231903076172,226.8866424560547,-186.1553955078125
9129,-89.23027038574219,38.6219482421875,233.0312957763672,-172.51223754882812
9130,-104.07767486572266,44.61700820922852,221.0037841796875,-180.9831085205078
9131,-114.04824829101562,29.5788688659668,209.82147216796875,-176.50271606445312
9132,-103.83832550048828,45.447265625,227.7842102050781,-170.72830200195312
9133,-94.7728042602539,47.68372344970703,239.8827972412109,-166.0235137939453
9134,-108.65531158447266,28.64389419555664,208.5274658203125,-195.07505798339844
9135,-92.62984466552734,33.95081329345703,217.9482727050781,-174.68511962890625
9136,-104.3245086669922,58.43219757080078,235.99703979492188,-160.89610290527344
9137,-93.7069320678711,50.92247772216797,244.9129638671875,-161.42343139648438
9138,-104.89671325683594,31.445077896118164,217.32745361328125,-187.1651611328125
9139,-110.50282287597656,35.72352600097656,218.7486114501953,-164.40786743164062
9140,-86.5225830078125,41.03418350219727,226.65850830078125,-177.8490753173828
9141,-95.80501556396484,43.79796981811523,226.5537872314453,-185.06333923339844
9142,-109.09288024902344,24.85163497924805,208.568603515625,-193.42575073242188
9143,-110.29338836669922,25.880107879638672,204.4248046875,-188.7770538330078
9144,-93.21326446533205,44.65440368652344,228.0347900390625,-172.4673614501953
9145,-82.5657730102539,42.0439567565918,223.3112945556641,-182.0601959228516
9146,-119.96476745605469,18.34046936035156,201.2533721923828,-192.2439422607422
9147,-93.60969543457031,37.9412841796875,213.7595977783203,-170.37301635742188
9148,-102.3012237548828,30.92523193359375,218.72244262695312,-168.27867126464844
9149,-117.90782928466795,26.7028865814209,222.78396606445312,-170.39544677734375
9150,-114.31752014160156,31.32914161682129,204.57440185546875,-172.69175720214844
9151,-127.86717987060548,25.03489112854004,198.77755737304688,-179.4160919189453
9152,-97.73480224609376,47.7473030090332,236.0830535888672,-155.77618408203125
9153,-103.99913787841795,40.67515182495117,236.2176971435547,-162.7548370361328
9154,-104.35443115234376,35.38319396972656,219.32081604003903,-175.87066650390625
9155,-112.94497680664062,33.034534454345696,212.3608703613281,-183.24948120117188
9156,-90.3185806274414,57.78893280029297,240.0623016357422,-176.74954223632812
9157,-103.52043151855469,55.14856338500977,238.05398559570312,-173.88851928710938
9158,-108.26262664794922,39.67659759521485,226.87542724609372,-176.29701232910156
9159,-105.7942886352539,42.417945861816406,226.1461334228516,-177.34793090820312
9160,-71.48445129394531,48.66357803344727,238.66358947753903,-173.92965698242188
9161,-92.94025421142578,47.14891815185547,236.7674560546875,-162.08538818359375
9162,-113.79393768310548,31.68817138671875,212.7647857666016,-180.0967559814453
9163,-101.02591705322266,39.42976379394531,216.69541931152344,-165.10350036621094
9164,-89.90719604492188,24.58236312866211,227.46258544921875,-161.1055450439453
9165,-92.71959686279295,26.89735984802246,226.27330017089844,-172.00735473632812
9166,-91.4592514038086,31.86020851135254,216.9160614013672,-170.85545349121094
9167,-100.23680114746094,12.207033157348633,199.1964263916016,-183.5337219238281
9168,-91.19371795654295,44.91619873046875,225.17376708984372,-173.9820098876953
9169,-96.10047149658205,42.18233108520508,224.0106506347656,-176.3044891357422
9170,-100.66688537597656,21.324909210205078,211.4969482421875,-185.2690277099609
9171,-104.79573822021484,29.66114616394043,208.1198272705078,-175.72854614257812
9172,-103.59896850585938,38.04226303100586,222.4361572265625,-179.59934997558594
9173,-86.08876037597656,48.61495971679688,232.3992462158203,-173.39859008789062
9174,-90.12410736083984,37.18208694458008,210.9322204589844,-177.0674285888672
9175,-126.39366149902344,44.37017440795898,215.63702392578125,-172.42247009277344
9176,-106.916259765625,41.72232437133789,223.9246368408203,-173.21533203125
9177,-89.0881576538086,41.03418350219727,236.8385162353516,-163.44297790527344
9178,-104.67980194091795,38.42373275756836,207.0053253173828,-179.84243774414062
9179,-113.53588104248048,28.9917049407959,204.6865997314453,-177.73313903808594
9180,-91.63128662109376,46.86094665527344,227.1446990966797,-166.45733642578125
9181,-89.37612915039062,41.47549057006836,227.7243804931641,-168.40582275390625
9182,-100.95111846923828,27.90713310241699,208.1160888671875,-176.77198791503906
9183,-109.8633041381836,26.31767654418945,208.1085968017578,-167.029541015625
9184,-89.84735870361328,38.15071868896485,215.1657867431641,-179.99951171875
9185,-83.78498077392578,47.08160018920898,233.59976196289062,-171.67823791503906
9186,-103.99913787841795,8.42225456237793,200.3146514892578,-187.6812744140625
9187,-99.19710540771484,35.93669891357422,203.744140625,-188.7845458984375
9188,-70.92720031738281,39.766357421875,231.90933227539062,-167.9196319580078
9189,-108.95450592041016,39.0146369934082,227.37657165527344,-172.10458374023438
9190,-104.55264282226562,32.413711547851555,208.0225830078125,-178.71673583984375
9191,-108.49076080322266,35.042861938476555,209.7205047607422,-175.76220703125
9192,-87.06861114501953,43.44267654418945,228.8837432861328,-168.16647338867188
9193,-91.0403823852539,53.99667739868164,237.3433990478516,-156.96546936035156
9194,-118.09856414794922,17.053943634033207,211.40719604492188,-178.02110290527344
9195,-123.79442596435548,35.50661087036133,201.50767517089844,-174.1989288330078
9196,-96.4370574951172,55.39913940429688,226.10873413085938,-171.20327758789062
9197,-92.1997528076172,40.00944900512695,221.61338806152344,-170.94522094726562
9198,-106.8115463256836,12.521184921264648,204.6192779541016,-180.79611206054688
9199,-97.42439270019531,23.995197296142575,202.0948486328125,-179.51332092285156
9200,-93.44139862060548,45.701576232910156,221.52362060546875,-173.6903076171875
9201,-68.69448089599611,29.42927360534668,234.8189697265625,-164.68836975097656
9202,-104.51150512695312,29.440492630004886,214.5524444580078,-168.83216857910156
9203,-104.41053009033205,13.826410293579102,201.9003753662109,-188.6125030517578
9204,-92.4391098022461,63.2641487121582,231.9055938720703,-168.1328125
9205,-100.36021423339844,39.938392639160156,220.1249084472656,-182.92037963867188
9206,-110.96282958984376,30.300668716430664,213.08267211914062,-179.25527954101562
9207,-109.0629653930664,18.089895248413086,210.80506896972656,-177.19833374023438
9208,-102.21520233154295,38.6518669128418,224.57537841796875,-162.8371124267578
9209,-94.31279754638672,50.02864074707031,233.39031982421875,-162.72117614746094
9210,-113.3002700805664,20.60684967041016,207.0988311767578,-188.7284393310547
9211,-103.15017700195312,37.559814453125,210.8798675537109,-169.4417724609375
9212,-93.59473419189452,53.90691757202149,236.96566772460938,-161.37481689453125
9213,-97.66748809814452,42.799415588378906,238.44667053222656,-166.98092651367188
9214,-102.89586639404295,38.008602142333984,218.95057678222656,-176.13619995117188
9215,-82.04966735839844,32.05468368530273,219.02163696289062,-177.15719604492188
9216,-90.18769073486328,39.30260848999024,227.0137939453125,-172.8076934814453
9217,-98.84929656982422,47.02176284790039,234.29537963867188,-174.1091766357422
9218,-108.83108520507812,39.18292999267578,220.2894592285156,-178.92990112304688
9219,-106.2580337524414,15.617822647094727,206.47052001953125,-184.04608154296875
9220,-90.64395141601562,51.31516647338867,237.20127868652344,-159.58340454101562
9221,-95.14305114746094,42.24964904785156,239.613525390625,-159.9087677001953
9222,-105.99998474121094,29.95659828186035,218.8570709228516,-175.00674438476562
9223,-113.33018493652344,31.168325424194336,212.21127319335938,-178.11834716796875
9224,-94.21182250976562,49.74814987182617,231.303466796875,-168.87330627441406
9225,-88.59822845458984,52.93828201293945,241.99583435058597,-161.78994750976562
9226,-114.5082550048828,12.106056213378904,209.65692138671875,-191.0509185791016
9227,-100.15826416015624,32.611927032470696,216.889892578125,-180.1378936767578
9228,-87.6669921875,44.64692687988281,232.84803771972656,-171.92881774902344
9229,-84.82840728759766,49.59107208251953,232.1561584472656,-175.07406616210938
9230,-71.00948333740234,27.970712661743164,215.188232421875,-181.2823028564453
9231,-120.55567169189452,31.37402153015137,209.1707305908203,-185.9010772705078
9232,-84.10286712646484,46.37102127075195,229.66539001464844,-166.4386444091797
9233,-88.29529571533203,46.96940231323242,236.6103820800781,-158.8391571044922
9234,-105.4277801513672,27.34240913391113,212.70867919921875,-181.4393768310547
9235,-110.60379791259766,27.48452568054199,218.6251983642578,-173.8548583984375
9236,-96.98308563232422,41.3520736694336,235.12564086914062,-163.0540313720703
9237,-95.6142807006836,37.047447204589844,236.1802978515625,-164.51632690429688
9238,-113.08709716796876,34.590335845947266,211.9195556640625,-176.3231964111328
9239,-104.53394317626952,32.675506591796875,220.37173461914062,-166.76026916503906
9240,-105.93640899658205,49.33676147460938,224.92318725585938,-170.96017456054688
9241,-96.47071838378906,53.43194961547852,236.1428985595703,-165.53358459472656
9242,-96.72502899169922,44.75912094116211,226.22093200683597,-174.90203857421875
9243,-79.45791625976562,24.238290786743164,215.58465576171875,-187.2511749267578
9244,-99.88898468017578,34.64269256591797,235.540771484375,-171.43515014648438
9245,-91.71356964111328,45.738975524902344,250.56021118164062,-164.1161651611328
9246,-109.76232147216795,31.89760589599609,221.69940185546875,-186.46206665039062
9247,-106.8751220703125,21.69141960144043,211.2127227783203,-181.75726318359372
9248,-73.72090911865234,40.65271377563477,240.91500854492188,-160.61935424804688
9249,-88.52716827392578,45.4884033203125,238.3120422363281,-170.2982177734375
9250,-111.00396728515624,16.014251708984375,214.05503845214844,-173.48460388183594
9251,-103.17636108398438,26.770204544067386,210.0496063232422,-176.4466094970703
9252,-97.49545288085938,54.74839401245117,215.9062957763672,-170.74700927734375
9253,-92.23715209960938,41.90557861328125,218.56536865234372,-172.48231506347656
9254,-104.05897521972656,27.73883819580078,203.4412078857422,-177.9313507080078
9255,-111.8978042602539,39.407325744628906,204.86236572265625,-168.2562255859375
9256,-91.98657989501952,32.89242172241211,223.7152099609375,-164.77064514160156
9257,-86.90779876708984,48.25967025756836,244.5240020751953,-152.7954864501953
9258,-94.34272003173828,23.26965713500977,209.0435791015625,-185.14935302734372
9259,-117.85173034667969,36.007755279541016,215.2443389892578,-179.94715881347656
9260,-103.41197204589844,40.47693634033203,235.93345642089844,-172.89744567871094
9261,-83.76254272460938,46.39719772338867,253.12203979492188,-157.86679077148438
9262,-113.78645324707031,34.885787963867195,216.68418884277344,-180.95692443847656
9263,-106.73674774169922,34.33975982666016,220.63352966308597,-176.36807250976562
9264,-97.61138916015624,46.9432258605957,233.96627807617188,-159.11965942382812
9265,-89.533203125,41.20247650146485,230.23385620117188,-181.2336883544922
9266,-110.43924713134766,38.88747787475586,208.43397521972656,-192.4010162353516
9267,-109.4257354736328,29.122600555419922,199.8359375,-192.1317443847656
9268,-90.74493408203124,51.58443832397461,226.4677734375,-169.80081176757812
9269,-77.97691345214844,38.93235778808594,231.07907104492188,-171.91758728027344
9270,-90.96184539794922,30.15481376647949,213.1499938964844,-177.53866577148438
9271,-107.18179321289062,30.439044952392575,209.9860382080078,-166.67051696777344
9272,-67.68470764160156,39.4559440612793,233.9700164794922,-159.02615356445312
9273,-106.12339782714844,33.04575729370117,225.89930725097656,-171.0611572265625
9274,-106.20941925048828,33.08689498901367,219.1637420654297,-164.66966247558594
9275,-108.75254821777344,19.095930099487305,202.58477783203125,-178.71298217773438
9276,-100.46118927001952,57.96096801757813,229.04830932617188,-161.11676025390625
9277,-97.42813110351562,41.273536682128906,232.489013671875,-174.6963348388672
9278,-115.0056610107422,36.052635192871094,212.74234008789062,-182.0789031982422
9279,-114.9233856201172,21.545562744140625,215.55474853515625,-179.74520874023438
9280,-98.68473815917969,53.93309783935547,230.07302856445312,-171.53611755371094
9281,-89.450927734375,55.61979293823242,232.3543701171875,-179.4086151123047
9282,-111.22462463378906,27.61168098449707,213.17242431640625,-186.88841247558597
9283,-106.82276153564452,51.75647735595703,224.1639862060547,-174.21014404296875
9284,-93.55733489990234,39.317569732666016,239.261962890625,-169.05282592773438
9285,-85.50159454345703,44.80774307250977,233.86529541015625,-171.00131225585938
9286,-84.69751739501953,40.52181625366211,219.4143218994141,-173.11062622070312
9287,-115.84339904785156,30.356767654418945,209.10340881347656,-178.226806640625
9288,-89.27515411376953,43.69699096679688,233.9363555908203,-160.26780700683594
9289,-91.20494079589844,43.53617477416992,235.0171813964844,-163.92169189453125
9290,-106.2954330444336,33.98821258544922,205.2288818359375,-172.21304321289062
9291,-103.33717346191406,27.155412673950195,199.48439025878903,-177.22825622558594
9292,-95.89664459228516,47.16948699951172,223.42349243164062,-162.94183349609375
9293,-89.91280364990234,49.28253173828125,222.1519317626953,-170.09625244140625
9294,-107.73342895507812,33.395435333251946,202.96624755859372,-180.3809814453125
9295,-101.37185668945312,42.76388549804688,208.6995086669922,-176.67474365234375
9296,-106.81715393066406,51.60501098632813,217.36859130859372,-181.7909240722656
9297,-94.78215789794922,48.44479370117188,227.58973693847656,-175.57147216796875
9298,-99.74500274658205,32.452980041503906,218.0230712890625,-188.24974060058597
9299,-101.6448745727539,43.65398406982422,202.9400634765625,-197.78648376464844
9300,-66.84136199951172,57.4317741394043,231.03419494628903,-185.3139190673828
9301,-105.36981201171876,59.62709426879883,239.4751434326172,-179.3599853515625
9302,-93.82473754882812,34.745540618896484,217.1666412353516,-184.2742156982422
9303,-118.5716552734375,47.03859329223633,208.66958618164062,-180.938232421875
9304,-97.52349853515624,67.57437896728516,241.0458984375,-165.87765502929688
9305,-101.08014678955078,61.97575378417969,234.8376617431641,-169.8718719482422
9306,-113.16002655029295,39.08382415771485,211.99061584472656,-169.59510803222656
9307,-117.27017211914062,40.65458297729492,209.41009521484372,-168.0467987060547
9308,-96.67454528808594,54.05838394165039,221.7704620361328,-168.54794311523438
9309,-113.78084564208984,48.60560989379883,223.7152099609375,-177.710693359375
9310,-118.92321014404295,40.50498580932617,210.49839782714844,-176.34188842773438
9311,-108.92645263671876,32.703556060791016,215.0087127685547,-157.25344848632812
9312,-104.92850494384766,46.062477111816406,214.48513793945312,-170.22715759277344
9313,-66.78900146484375,56.20508575439453,224.1752166748047,-176.80189514160156
9314,-124.34606170654295,35.72165298461914,196.6495513916016,-194.56642150878903
9315,-111.86227416992188,34.49496841430664,199.67138671875,-188.3656768798828
9316,-92.250244140625,49.28627014160156,219.51904296875,-176.6522979736328
9317,-98.87360382080078,54.69416809082031,219.7022857666016,-182.5426483154297
9318,-109.93248748779295,30.91214370727539,191.30897521972656,-198.1679534912109
9319,-111.80243682861328,39.6261100769043,199.31236267089844,-190.51611328125
9320,-94.28474426269531,41.79899215698242,218.9131774902344,-177.51622009277344
9321,-99.90581512451172,56.2275276184082,225.64498901367188,-170.63107299804688
9322,-125.4343719482422,22.22435569763184,196.0137634277344,-183.4439697265625
9323,-107.31082153320312,40.14221572875977,197.10955810546875,-176.07635498046875
9324,-95.88168334960938,60.67800521850586,226.28077697753903,-158.4651641845703
9325,-110.32518005371094,45.6772689819336,224.7810821533203,-167.66159057617188
9326,-123.71028137207031,34.44260787963867,209.71676635742188,-181.6001892089844
9327,-112.77481079101562,34.603424072265625,213.4604034423828,-171.1808319091797
9328,-100.23493194580078,37.2961540222168,214.99375915527344,-182.5837860107422
9329,-111.3461685180664,51.57883071899414,228.3377227783203,-175.34707641601562
9330,-110.90486145019531,28.75048065185547,204.22283935546875,-195.97262573242188
9331,-117.48334503173828,48.3812141418457,215.08351135253903,-180.3435821533203
9332,-101.75706481933594,58.51260375976562,220.3492889404297,-189.80926513671875
9333,-103.34652709960938,50.49799728393555,226.4715118408203,-184.6182861328125
9334,-106.45812225341795,54.63432693481445,206.2573547363281,-186.196533203125
9335,-109.39020538330078,35.691734313964844,196.96743774414062,-193.8072204589844
9336,-110.04094696044922,76.81193542480469,218.6214599609375,-177.31053161621094
9337,-110.44859313964844,52.31185150146485,225.7422332763672,-168.46566772460938
9338,-107.85310363769531,31.495567321777344,197.15817260742188,-179.0682830810547
9339,-110.14940643310548,31.86581802368164,195.78189086914062,-180.1191864013672
9340,-106.45438385009766,53.48991775512695,216.6280975341797,-166.41993713378906
9341,-98.38742065429688,38.84073257446289,212.9106292724609,-168.69754028320312
9342,-89.07132720947266,38.87065124511719,197.042236328125,-178.29037475585938
9343,-133.21336364746094,41.94858932495117,196.66824340820312,-159.2393341064453
9344,-112.11285400390624,49.8248176574707,210.2665252685547,-178.98226928710938
9345,-96.12104034423828,57.91048049926758,222.76153564453125,-175.57894897460938
9346,-106.54039764404295,55.38604736328125,208.920166015625,-172.3289794921875
9347,-125.3371353149414,39.15114212036133,197.8089141845703,-189.04258728027344
9348,-94.9429702758789,55.41596603393555,222.0322570800781,-177.3853302001953
9349,-94.14636993408205,58.61358261108398,220.2632751464844,-185.96466064453125
9350,-109.8988265991211,39.34935760498047,210.9397125244141,-192.93582153320312
9351,-109.54354095458984,49.19277572631836,203.24673461914062,-192.87225341796875
9352,-94.5577621459961,58.456504821777344,221.1758117675781,-193.7473907470703
9353,-100.71737670898438,53.95740509033203,228.6855316162109,-185.42236328125
9354,-109.21443176269531,53.02243041992188,211.5605316162109,-183.33551025390625
9355,-98.7389678955078,44.65253448486328,197.82388305664062,-190.2954559326172
9356,-92.05950927734376,44.97416687011719,223.9321136474609,-169.07901000976562
9357,-98.7950668334961,58.31064987182617,230.91452026367188,-164.9052734375
9358,-113.66117095947266,38.19372940063477,205.42335510253903,-181.79840087890625
9359,-108.11863708496094,45.66230773925781,202.53614807128903,-169.0191650390625
9360,-101.21104431152344,35.755313873291016,214.92269897460938,-157.06271362304688
9361,-99.92825317382812,37.18769454956055,217.36485290527344,-171.96621704101562
9362,-105.37355041503906,28.32787132263184,206.82208251953125,-179.6965789794922
9363,-113.50409698486328,36.177921295166016,206.0928039550781,-171.58848571777344
9364,-94.00425720214844,62.68633270263672,223.1766662597656,-175.52285766601562
9365,-97.44122314453124,45.29205703735352,220.34181213378903,-182.72216796875
9366,-91.1694107055664,35.51596069335937,207.57005310058597,-187.1988220214844
9367,-106.48429870605469,39.89164352416992,204.36122131347656,-185.8599395751953
9368,-69.61262512207031,61.156715393066406,228.8800048828125,-175.73976135253906
9369,-90.4027328491211,51.08516311645508,215.693115234375,-194.62252807617188
9370,-118.32108306884766,39.07260513305664,201.9976043701172,-199.55545043945312
9371,-110.65802764892578,42.18420028686523,201.60118103027344,-189.98504638671875
9372,-103.66067504882812,66.29159545898439,214.9451446533203,-185.29147338867188
9373,-94.6624755859375,59.3204231262207,218.90570068359372,-184.27047729492188
9374,-112.1240692138672,39.36805725097656,196.713134765625,-192.0008544921875
9375,-103.02489471435548,27.34427833557129,193.6239776611328,-185.8038330078125
9376,-100.14517211914062,50.32222366333008,217.52940368652344,-176.6971893310547
9377,-105.1155014038086,53.77041244506836,221.5872039794922,-170.52635192871094
9378,-110.90486145019531,40.68824005126953,201.7844390869141,-182.86801147460938
9379,-100.33590698242188,50.50922012329102,210.0496063232422,-167.0744171142578
9380,-95.33191680908205,48.47097396850586,213.4566650390625,-182.0041046142578
9381,-94.86443328857422,50.66255569458008,229.1754608154297,-176.13246154785156
9382,-99.02320098876952,45.91662216186523,214.75814819335938,-183.9862518310547
9383,-114.6971206665039,40.332950592041016,201.98638916015625,-179.98081970214844
9384,-108.39913177490234,68.80107116699219,227.08485412597656,-173.7164764404297
9385,-96.72315979003906,60.00108337402344,226.2284240722656,-182.4678497314453
9386,-108.3729476928711,61.48956680297852,210.55450439453125,-187.1352386474609
9387,-103.36896514892578,53.35154342651367,205.92823791503903,-189.55870056152344
9388,-89.90906524658203,69.62010955810547,216.8487548828125,-184.46495056152344
9389,-104.116943359375,70.36434936523439,222.3538818359375,-174.97308349609375
9390,-121.64585876464844,41.23426818847656,191.9522399902344,-193.0255889892578
9391,-109.64825439453124,52.52128601074219,193.9044647216797,-188.6536407470703
9392,-102.51252746582031,66.22801971435547,213.77828979492188,-178.6494140625
9393,-94.20995330810548,53.96488571166992,212.9405517578125,-177.56109619140625
9394,-113.69857025146484,42.41233444213867,194.9329376220703,-188.76583862304688
9395,-120.38176727294922,48.37373733520508,200.00424194335938,-180.29122924804688
9396,-99.70760345458984,75.21499633789062,224.6988067626953,-157.17117309570312
9397,-75.93305969238281,55.8871955871582,227.07737731933597,-167.97573852539062
9398,-110.82258605957031,52.85787582397461,205.59164428710938,-178.52224731445312
9399,-107.62496948242188,48.91602325439453,207.3419189453125,-175.03292846679688
9400,-116.85504150390624,54.45481491088867,219.28341674804688,-173.1741943359375
9401,-94.52410125732422,66.08216094970703,238.9178924560547,-163.82444763183594
9402,-111.40226745605469,43.40715026855469,200.9354705810547,-186.78369140625
9403,-99.89459991455078,48.03714370727539,206.3171844482422,-180.5754547119141
9404,-104.1356430053711,48.90106201171875,216.8973693847656,-180.01821899414062
9405,-78.2181396484375,45.78198623657226,226.6098937988281,-172.0858917236328
9406,-115.1795654296875,45.83808517456055,199.2263336181641,-177.4937744140625
9407,-98.4771728515625,44.005531311035156,195.86790466308597,-185.02967834472656
9408,-104.79386901855469,60.75654602050781,213.2621917724609,-180.01821899414062
9409,-93.51432800292969,62.719993591308594,221.78167724609372,-166.68173217773438
9410,-125.6961669921875,35.317745208740234,196.4588165283203,-185.02967834472656
9411,-89.05262756347656,55.35987091064453,213.4790954589844,-163.637451171875
9412,-111.13673400878906,51.47037124633789,215.6332855224609,-176.24465942382812
9413,-100.52664184570312,53.3478012084961,227.7281188964844,-156.86074829101562
9414,-110.81884765625,42.674129486083984,210.75271606445312,-168.7686004638672
9415,-105.46331024169922,46.64964294433594,210.610595703125,-171.59222412109375
9416,-98.20416259765624,49.20025253295898,224.3061065673828,-163.22979736328125
9417,-86.5693359375,46.14849472045898,224.37716674804688,-168.29736328125
9418,-110.88990020751952,33.97886276245117,204.91847229003903,-181.01303100585938
9419,-111.9819564819336,42.08322525024414,196.84402465820312,-182.90167236328125
9420,-82.41804504394531,49.27131271362305,220.5250701904297,-178.2118377685547
9421,-85.67549896240234,59.35782241821289,228.84634399414062,-179.42356872558594
9422,-109.45378112792969,25.84457778930664,195.25830078125,-191.23043823242188
9423,-113.74344635009766,49.93327331542969,202.0537109375,-187.382080078125
9424,-95.81063079833984,58.14235305786133,213.3818664550781,-184.7940673828125
9425,-97.5309829711914,53.28048324584961,218.9804992675781,-181.267333984375
9426,-90.03996276855469,40.340431213378906,201.7507781982422,-183.78054809570312
9427,-111.53316497802734,37.85339736938477,200.1463623046875,-176.80189514160156
9428,-104.7789077758789,59.6495361328125,227.1446990966797,-161.74131774902344
9429,-97.72919464111328,53.64325332641602,230.67889404296875,-163.14378356933594
9430,-117.95083618164062,27.722007751464844,207.8281097412109,-167.9308624267578
9431,-100.47801971435548,36.15548324584961,205.7973480224609,-168.7723388671875
9432,-101.94032287597656,49.55928421020508,211.9158172607422,-172.56459045410156
9433,-92.2689437866211,47.51729965209961,229.47091674804688,-152.7767791748047
9434,-113.73596954345705,30.80742645263672,198.0407867431641,-193.13031005859372
9435,-108.82547760009766,38.35080337524414,203.7890167236328,-178.3053436279297
9436,-98.858642578125,47.73047256469727,218.65512084960938,-164.25827026367188
9437,-95.97891998291016,45.04148483276367,227.5186767578125,-172.3850860595703
9438,-105.30997467041016,29.113250732421875,212.28607177734372,-182.7894744873047
9439,-106.42072296142578,31.19637489318848,205.88710021972656,-180.0892791748047
9440,-86.27761840820312,55.44962692260742,235.200439453125,-166.4423828125
9441,-76.09013366699219,50.2960433959961,228.16943359375,-172.47857666015625
9442,-88.9179916381836,29.40122413635254,212.6039581298828,-182.9166412353516
9443,-115.32542419433594,43.69137954711914,208.5349578857422,-180.40342712402344
9444,-102.2320327758789,49.091796875,213.90919494628903,-171.19952392578125
9445,-104.48345184326172,46.90021514892578,202.21826171875,-183.649658203125
9446,-108.1522979736328,39.73082733154297,197.96224975585938,-171.20701599121094
9447,-111.20779418945312,33.21592330932617,195.37049865722656,-174.6140594482422
9448,-97.9722900390625,50.71865463256836,216.5944366455078,-164.8267364501953
9449,-90.19329833984376,39.11748504638672,227.98243713378903,-151.87921142578125
9450,-109.715576171875,33.982601165771484,195.71083068847656,-175.02171325683594
9451,-113.13384246826172,22.58712577819824,193.16395568847656,-178.1894073486328
9452,-98.18546295166016,42.33005905151367,213.1200714111328,-162.26864624023438
9453,-100.19004821777344,43.852195739746094,209.13706970214844,-171.12098693847656
9454,-93.28993225097656,32.894290924072266,197.1544342041016,-182.90167236328125
9455,-103.83271026611328,30.38855743408203,205.2363586425781,-172.5421600341797
9456,-79.49344635009766,43.20519256591797,220.2258758544922,-159.02615356445312
9457,-105.92705535888672,46.05499649047852,223.17291259765625,-170.75448608398438
9458,-106.51048278808594,17.792573928833008,196.89263916015625,-190.6470031738281
9459,-95.15988159179688,31.731182098388672,207.9029083251953,-176.1399383544922
9460,-92.07447052001952,50.96548843383789,223.12803649902344,-173.06947326660156
9461,-96.25193786621094,43.90081405639648,219.5863494873047,-176.7270965576172
9462,-107.80074310302734,32.49037933349609,214.53001403808597,-171.38278198242188
9463,-105.2015151977539,36.39109802246094,217.52566528320312,-166.4274139404297
9464,-92.85236358642578,51.53021240234375,235.1817321777344,-162.67630004882812
9465,-91.1095733642578,48.97959899902344,223.9657745361328,-173.53323364257812
9466,-105.25387573242188,37.90949630737305,212.0504608154297,-175.56399536132812
9467,-103.11465454101562,23.136890411376953,202.15093994140625,-171.06863403320312
9468,-91.21428680419922,53.25056457519531,217.6902313232422,-176.6223907470703
9469,-71.1946029663086,53.15332794189453,220.71954345703125,-173.3050994873047
9470,-121.19332885742188,24.584232330322266,190.96116638183597,-176.24839782714844
9471,-116.01356506347656,30.938322067260746,193.07046508789062,-192.9620056152344
9472,-87.8595962524414,46.92265319824219,215.42384338378903,-179.2739715576172
9473,-87.9942398071289,39.753265380859375,213.00413513183597,-174.4382781982422
9474,-105.92705535888672,21.2332820892334,191.5745086669922,-188.59381103515625
9475,-104.0122299194336,16.15823745727539,190.0897674560547,-184.0947113037109
9476,-96.01258087158205,38.87065124511719,211.6764678955078,-168.390869140625
9477,-78.45375061035156,31.66012382507324,219.1263427734375,-171.102294921875
9478,-112.11285400390624,27.46395492553711,196.9711761474609,-187.97671508789062
9479,-108.00643920898438,36.757606506347656,196.22320556640625,-187.05296325683597
9480,-93.67140197753906,39.88042449951172,213.94284057617188,-171.13221740722656
9481,-89.50141906738281,53.841468811035156,228.7004852294922,-167.33995056152344
9482,-104.9172821044922,20.608718872070312,206.6163787841797,-174.62901306152344
9483,-82.41804504394531,22.00370216369629,205.12042236328125,-170.9713897705078
9484,-97.2691879272461,39.03894424438477,227.0736389160156,-165.23439025878906
9485,-95.52265167236328,41.9261474609375,230.54052734375,-169.97283935546875
9486,-112.7224578857422,15.746849060058596,207.8056640625,-182.69972229003903
9487,-105.69518280029295,32.55769729614258,212.5179443359375,-175.32464599609375
9488,-86.55437469482422,48.60934829711914,238.6374053955078,-165.17454528808594
9489,-103.22310638427734,37.370948791503906,227.47006225585938,-168.4357452392578
9490,-98.53327178955078,34.91009521484375,210.93597412109372,-182.6249237060547
9491,-104.64801025390624,25.298553466796875,204.3275604248047,-186.5817413330078
9492,-88.33831024169922,51.47411346435547,224.24627685546875,-172.8450927734375
9493,-92.05950927734376,40.86775588989258,223.3243865966797,-177.25816345214844
9494,-107.76334381103516,22.467449188232425,199.27682495117188,-181.3571014404297
9495,-95.05142974853516,44.82456970214844,202.7100524902344,-168.6115264892578
