,T7,F8,Cz,P4
2000,-120.82307434082031,99.48507690429688,112.56163787841795,-112.02496337890624
2001,-109.3565444946289,110.5290069580078,126.64610290527344,-98.04521942138672
2002,-87.30609130859375,127.37725067138672,149.61282348632812,-87.39772033691406
2003,-92.24650573730469,119.22801208496094,128.62077331542972,-103.52043151855469
2004,-100.63510131835938,97.92179870605469,131.67253112792972,-97.22618103027344
2005,-110.82258605957031,117.61237335205078,132.45416259765622,-103.6064453125
2006,-87.65764617919922,130.20835876464844,158.7344512939453,-85.6998062133789
2007,-112.50927734375,122.32838439941406,131.6239013671875,-108.39352416992188
2008,-111.40975189208984,106.3459243774414,123.09132385253906,-101.29145050048828
2009,-112.0679702758789,129.78761291503906,144.6368865966797,-81.21940612792969
2010,-96.33047485351562,134.3876953125,157.56198120117188,-77.55056762695312
2011,-111.16665649414062,113.32831573486328,142.03392028808594,-94.79150390625
2012,-120.44908905029295,88.18122863769531,124.18338012695312,-104.72093963623048
2013,-101.43917846679688,118.82223510742188,144.04598999023438,-89.10311889648438
2014,-82.12633514404297,129.06207275390622,164.51446533203125,-85.45297241210938
2015,-94.6849136352539,112.35968780517578,147.0079803466797,-97.28227996826172
2016,-92.46715545654295,107.90546417236328,145.06698608398438,-92.1174774169922
2017,-95.0663833618164,117.67407989501952,154.32696533203125,-85.46419525146484
2018,-78.71554565429688,133.48263549804688,166.1787109375,-77.43836975097656
2019,-104.7602081298828,114.34183502197266,147.80458068847656,-83.24269104003906
2020,-117.14675903320312,109.39020538330078,123.85052490234376,-103.47555541992188
2021,-89.9389877319336,136.90464782714844,147.269775390625,-73.38057708740234
2022,-92.0333251953125,121.66455841064452,152.34857177734375,-85.2771987915039
2023,-105.20899200439452,109.7567138671875,123.62612915039062,-97.98912048339844
2024,-116.69049072265624,107.56513214111328,111.98756408691406,-93.72189331054688
2025,-94.32588958740234,124.35354614257812,133.69767761230472,-90.98428344726562
2026,-81.3746109008789,135.18429565429688,164.8136444091797,-65.36971282958984
2027,-101.50275421142578,122.3078155517578,130.5374755859375,-103.25863647460938
2028,-115.3366470336914,109.15833282470705,113.3189697265625,-111.35552215576172
2029,-107.07520294189452,137.16270446777344,135.57138061523438,-96.05558776855469
2030,-85.99339294433594,149.75120544433594,169.03225708007812,-79.60376739501953
2031,-109.90631103515624,126.1374740600586,141.2073974609375,-100.90250396728516
2032,-91.30030822753906,126.6984634399414,142.75572204589844,-84.52922058105469
2033,-100.69493865966795,127.94384765625,143.21946716308594,-103.70742797851562
2034,-90.3615951538086,146.9387969970703,171.23880004882812,-74.62222290039062
2035,-109.18824768066406,130.89088439941406,141.3046417236328,-88.72538757324219
2036,-109.43134307861328,117.83116149902344,140.57162475585938,-82.21796417236328
2037,-99.18401336669922,132.54766845703122,137.40766906738278,-93.9275894165039
2038,-85.70541381835938,134.70558166503906,152.51686096191406,-79.94036102294922
2039,-108.6497039794922,118.530517578125,126.76764678955078,-94.45491027832031
2040,-111.6827621459961,117.2402572631836,119.56085968017578,-99.16344451904295
2041,-84.2206802368164,136.90090942382812,146.07675170898438,-75.5235366821289
2042,-75.61516571044922,145.51763916015625,156.425048828125,-78.96424865722656
2043,-91.81267547607422,122.9024658203125,139.15419006347656,-92.162353515625
2044,-104.74150848388672,117.99197387695312,128.67874145507812,-102.35358428955078
2045,-76.90543365478516,134.73924255371094,143.6271209716797,-85.16126251220703
2046,-77.58609771728516,154.38119506835938,164.33868408203125,-78.0479736328125
2047,-107.11260223388672,123.05580139160156,132.81880187988278,-108.69644927978516
2048,-106.64885711669922,117.60676574707031,125.66063690185548,-102.66399383544922
2049,-94.90930938720705,130.66275024414062,138.96720886230472,-99.88524627685548
2050,-86.36737823486328,154.6953582763672,165.9692840576172,-84.7723159790039
2051,-86.76754760742188,138.93540954589844,139.57305908203122,-104.1636962890625
2052,-112.4644012451172,133.3779296875,134.17265319824222,-99.85906982421876
2053,-95.96022033691406,138.0789794921875,149.21826171875,-82.49097442626953
2054,-74.39969635009766,159.6020965576172,170.77879333496094,-72.07909393310547
2055,-95.44037628173828,129.76518249511722,143.43638610839844,-93.83782958984376
2056,-101.05022430419922,117.79376220703124,141.28219604492188,-95.1767120361328
2057,-101.19982147216795,123.62800598144531,148.8031463623047,-93.03375244140624
2058,-93.7948226928711,154.6093292236328,158.9457550048828,-88.17935943603516
2059,-108.92271423339844,132.14375305175778,139.475830078125,-92.57374572753906
2060,-108.09619903564452,130.37852478027344,141.31211853027344,-98.11627197265624
2061,-87.56788635253906,148.68907165527344,151.6791229248047,-81.1633071899414
2062,-92.6504135131836,142.6528778076172,157.96963500976562,-89.52198791503906
2063,-109.36028289794922,118.26498413085938,132.40742492675778,-100.65567016601562
2064,-98.44725799560548,118.92694854736328,124.01134490966795,-106.32535552978516
2065,-93.3983917236328,134.71681213378906,131.88383483886722,-89.35742950439453
2066,-64.44034576416016,141.31773376464844,156.44749450683594,-78.17887115478516
2067,-116.17063903808594,121.01007080078124,121.83097839355469,-102.40968322753906
2068,-95.17858123779295,133.54248046875,133.27507019042972,-87.30048370361328
2069,-85.65679931640625,137.58905029296878,152.33734130859375,-91.0777816772461
2070,-91.88373565673828,149.04061889648438,159.75357055664062,-92.37178802490234
2071,-113.74344635009766,148.4235382080078,138.17808532714844,-113.56580352783205
2072,-100.77347564697266,135.34510803222656,143.28305053710938,-98.41172790527344
2073,-98.70156860351562,143.37841796875,156.06976318359375,-98.20977020263672
2074,-85.73907470703125,162.7361297607422,166.82571411132812,-88.59449005126953
2075,-101.8655242919922,127.69327545166016,146.74620056152344,-90.58411407470705
2076,-113.6349868774414,133.4901123046875,132.42237854003906,-107.49594116210938
2077,-108.84417724609376,134.15582275390622,135.42926025390622,-98.84929656982422
2078,-94.95793151855469,146.48626708984375,149.16590881347656,-90.16150665283205
2079,-99.9245147705078,106.15892791748048,126.1468276977539,-102.26008605957031
2080,-109.32288360595705,115.16461181640624,123.26710510253906,-84.6563720703125
2081,-89.12368774414062,159.50486755371094,145.13055419921875,-69.74539184570311
2082,-100.04045104980469,141.57203674316406,152.75994873046875,-87.31544494628906
2083,-108.72824096679688,117.7040023803711,129.36688232421878,-100.5546875
2084,-115.8826675415039,113.01042938232422,124.43395233154295,-101.4560089111328
2085,-101.00908660888672,141.2130126953125,139.64785766601562,-87.74179077148438
2086,-82.02909851074219,144.66119384765625,152.4420623779297,-84.45442199707031
2087,-103.60832214355469,133.51629638671878,132.01472473144528,-97.22991943359376
2088,-111.41349029541016,117.12057495117188,124.96501922607422,-94.67930603027344
2089,-100.2798080444336,133.81175231933594,143.73931884765625,-88.79644775390625
2090,-88.67489624023438,145.4091796875,151.41358947753906,-87.00877380371094
2091,-105.92705535888672,123.7701187133789,128.8358154296875,-102.2376480102539
2092,-109.91004943847656,128.08222961425778,115.82096099853516,-114.1866226196289
2093,-98.7314910888672,130.45332336425778,135.76211547851562,-87.95870971679688
2094,-86.53193664550781,142.12181091308594,158.15289306640625,-74.80548095703125
2095,-92.2726821899414,119.6150894165039,138.61564636230472,-99.91516876220705
2096,-121.38780212402344,120.18355560302734,114.36614227294922,-109.94184112548828
2097,-110.12696075439452,131.60894775390622,137.53482055664062,-90.89453125
2098,-90.8290786743164,153.49484252929688,155.78179931640625,-75.17572784423828
2099,-101.6860122680664,122.37513732910156,134.15394592285156,-93.44513702392578
2100,-104.70410919189452,118.94938659667969,119.09337615966795,-97.41691589355469
2101,-100.6238784790039,133.15353393554688,137.84149169921878,-94.10336303710938
2102,-86.68901062011719,142.29010009765625,165.7710723876953,-78.01431274414062
2103,-114.32687377929688,118.77361297607422,131.73423767089844,-110.23728942871094
2104,-114.7158203125,130.21397399902344,131.36398315429688,-109.38833618164062
2105,-92.42975616455078,133.63970947265622,153.30972290039062,-82.43113708496094
2106,-89.57247161865234,149.7698974609375,164.00209045410156,-78.0068359375
2107,-109.12841033935548,128.11587524414062,153.36207580566406,-87.12844848632812
2108,-115.28428649902344,117.90595245361328,127.93075561523438,-105.55119323730469
2109,-98.27896118164062,129.05459594726562,146.41334533691406,-90.6776123046875
2110,-92.56439208984376,145.1137237548828,161.79180908203125,-79.6336898803711
2111,-109.94371032714844,123.448486328125,138.45109558105472,-87.9886245727539
2112,-116.7241439819336,112.48310089111328,127.60912322998048,-90.1951675415039
2113,-110.34014129638672,127.78303527832031,136.88034057617188,-84.41328430175781
2114,-82.76959228515625,145.162353515625,152.9581756591797,-82.58447265625
2115,-109.6931381225586,116.9036636352539,130.78804016113278,-96.75121307373048
2116,-114.96265411376952,112.3035888671875,128.25987243652344,-101.5382843017578
2117,-99.26255798339844,132.08392333984378,141.6786346435547,-82.91358184814453
2118,-100.31346893310548,138.48287963867188,154.04647827148438,-90.95063018798828
2119,-112.77481079101562,119.09524536132812,129.62118530273438,-109.9268798828125
2120,-111.33495330810548,123.61304473876952,139.92462158203122,-94.00238800048828
2121,-115.60965728759766,133.37417602539062,137.63580322265622,-96.30615997314452
2122,-94.2585678100586,154.49339294433594,161.66091918945312,-73.63863372802734
2123,-104.86492156982422,125.77096557617188,152.2027130126953,-77.57300567626953
2124,-106.7012176513672,119.45427703857422,131.88009643554688,-101.63178253173828
2125,-108.93767547607422,128.28791809082028,140.23503112792972,-98.77075958251952
2126,-78.45375061035156,148.6628875732422,172.60386657714844,-70.04458618164061
2127,-99.25507354736328,126.72837829589844,150.2916259765625,-93.40399932861328
2128,-109.02369689941406,113.4666976928711,134.50924682617188,-110.2672119140625
2129,-93.27871704101562,134.70558166503906,154.7383575439453,-92.2072296142578
2130,-83.19220733642578,147.71295166015625,165.4120330810547,-96.41461944580078
2131,-113.0478286743164,126.17487335205078,130.25697326660156,-113.13571166992188
2132,-109.53980255126952,120.96893310546876,135.83689880371094,-92.87293243408205
2133,-107.30333709716795,130.18405151367188,132.62059020996094,-104.91915130615234
2134,-93.16278076171876,139.49639892578122,153.7921600341797,-87.79788970947266
2135,-106.89569091796876,120.44535064697266,127.30245208740234,-92.1997528076172
2136,-132.47286987304688,114.2296371459961,117.8966064453125,-102.2750473022461
2137,-112.17642974853516,117.99945068359376,129.23223876953122,-92.9065933227539
2138,-92.82618713378906,156.02301025390625,158.91957092285156,-75.56468200683594
2139,-105.76250457763672,121.61219787597656,140.5791015625,-94.0472640991211
2140,-116.23796081542969,115.8415298461914,131.89131164550778,-88.08586120605469
2141,-108.36173248291016,132.02033996582028,138.38751220703122,-93.04871368408205
2142,-96.56234741210938,150.82455444335938,155.22454833984375,-86.36924743652344
2143,-125.09030151367188,121.17089080810548,121.82723999023438,-112.16707611083984
2144,-119.6113510131836,128.46369934082028,132.44482421875,-105.27818298339844
2145,-107.92416381835938,144.3021697998047,143.94500732421875,-95.1505355834961
2146,-102.4863510131836,150.74227905273438,156.08473205566406,-82.95845794677734
2147,-117.18041229248048,137.357177734375,136.03886413574222,-99.5897979736328
2148,-114.52882385253906,133.62101745605472,128.74980163574222,-97.70862579345705
2149,-100.35460662841795,157.287109375,146.6414794921875,-80.69207763671875
2150,-107.61375427246094,132.62246704101562,147.1089630126953,-88.94978332519531
2151,-117.33749389648438,134.03988647460938,130.24201965332028,-95.74143981933594
2152,-114.77191925048828,124.9145278930664,118.17335510253906,-108.15416717529295
2153,-115.14591217041016,135.12071228027344,133.42466735839844,-103.8009262084961
2154,-89.93150329589844,156.3035125732422,163.93850708007812,-82.16934204101562
2155,-106.77601623535156,128.71426391601562,138.40995788574222,-98.63612365722656
2156,-126.60496520996094,123.13059997558594,120.60055541992188,-112.79912567138672
2157,-101.4242172241211,149.55299377441406,139.10931396484378,-102.73131561279295
2158,-93.54425048828124,158.99623107910156,161.29066467285156,-85.28093719482422
2159,-91.04225158691406,143.76736450195312,148.35435485839844,-90.40834045410156
2160,-112.4681396484375,136.48577880859378,128.96296691894528,-105.12484741210938
2161,-108.75067901611328,148.1243438720703,136.60733032226562,-90.68883514404295
2162,-96.97373962402344,160.73155212402344,153.78468322753906,-98.3032684326172
2163,-110.02224731445312,123.97955322265624,128.31222534179688,-108.7450714111328
2164,-111.53316497802734,129.86988830566406,129.41549682617188,-100.58087158203124
2165,-100.81087493896484,118.52304077148438,149.1883544921875,-87.76422882080078
2166,-97.42252349853516,135.43861389160156,168.44509887695312,-65.65394592285156
2167,-113.98280334472656,136.93083190917972,148.4628143310547,-83.08561706542969
2168,-120.12371826171876,144.49664306640625,136.51382446289062,-102.84725189208984
2169,-107.00040435791016,150.80210876464844,151.23406982421875,-95.47590637207031
2170,-104.4348373413086,143.72622680664062,156.20814514160156,-91.26477813720705
2171,-117.39733123779295,129.03590393066406,141.2447967529297,-100.44248962402344
2172,-118.5679168701172,126.7396011352539,126.41983795166016,-103.69620513916016
2173,-127.2033462524414,138.42304992675778,135.04779052734378,-96.399658203125
2174,-102.0487823486328,152.81417846679688,148.53012084960938,-86.14111328125
2175,-117.41603088378906,118.07798767089844,129.78948974609378,-101.68414306640624
2176,-125.80462646484376,130.63284301757812,121.47569274902344,-105.10614776611328
2177,-118.29116821289062,131.90814208984378,134.06793212890622,-95.38240814208984
2178,-106.6413803100586,152.81044006347656,156.6045684814453,-86.04387664794922
2179,-122.03480529785156,129.18550109863278,132.8973388671875,-105.02387237548828
2180,-121.05120849609376,142.06570434570312,127.4744873046875,-97.17755889892578
2181,-110.68795013427734,135.63682556152344,136.18846130371094,-100.06101989746094
2182,-99.50939178466795,159.06729125976562,164.48080444335938,-83.14545440673828
2183,-117.16919708251952,129.10321044921878,143.69818115234375,-101.5569839477539
2184,-107.64740753173828,130.32615661621094,140.661376953125,-102.98936462402344
2185,-106.60023498535156,150.65252685546875,149.79046630859375,-94.4698715209961
2186,-91.77901458740234,160.21917724609375,161.61228942871094,-88.88246154785156
2187,-110.45233154296876,139.07379150390622,143.46630859375,-99.46263885498048
2188,-126.64984130859376,123.0632781982422,125.67559814453124,-112.16333770751952
2189,-112.3671646118164,118.14157104492188,133.52191162109378,-102.34609985351562
2190,-99.1615753173828,156.35586547851562,153.0030517578125,-90.52427673339844
2191,-116.66805267333984,122.76408386230469,125.94113159179688,-107.33139038085938
2192,-114.96639251708984,112.53546142578124,112.679443359375,-110.82819366455078
2193,-106.17388916015624,139.87413024902344,129.89421081542972,-94.31279754638672
2194,-97.60578155517578,139.40664672851562,153.8482666015625,-83.62416076660156
2195,-110.0746078491211,101.065185546875,126.71529388427734,-108.97694396972656
2196,-110.16436004638672,129.57070922851562,134.92062377929688,-81.42510223388672
2197,-101.7645492553711,146.23196411132812,149.28932189941406,-85.32582092285156
2198,-94.09027099609376,151.74082946777344,156.2642364501953,-88.2466812133789
2199,-118.10043334960938,115.53112030029295,130.76185607910156,-104.9864730834961
2200,-116.9859390258789,117.9844970703125,123.9776840209961,-106.05608367919922
2201,-101.7869873046875,136.10804748535156,144.92860412597656,-89.70523834228516
2202,-91.13574981689452,140.15087890625,158.384765625,-85.88680267333984
2203,-113.73223114013672,120.17233276367188,132.31765747070312,-101.66918182373048
2204,-119.02044677734376,117.35993194580078,124.60972595214844,-100.70428466796876
2205,-108.24205780029295,127.88774871826172,137.23936462402344,-104.07767486572266
2206,-94.99159240722656,146.74058532714844,154.28208923339844,-94.61573028564452
2207,-107.71472930908205,124.36849975585938,139.22525024414062,-105.7494125366211
2208,-113.43677520751952,122.56961059570312,131.55097961425778,-104.44792938232422
2209,-108.01579284667969,127.86344146728516,137.13652038574222,-92.72708129882812
2210,-88.80392456054688,160.77456665039062,160.31268310546875,-84.86580657958984
2211,-120.71649169921876,130.989990234375,136.10804748535156,-103.91686248779295
2212,-117.092529296875,117.4702606201172,122.91741943359376,-105.7082748413086
2213,-116.28470611572266,135.75088500976562,143.93939208984375,-86.4216079711914
2214,-105.48014068603516,150.68431091308594,155.66024780273438,-84.67133331298828
2215,-119.30281066894531,117.87042999267578,126.81439971923828,-97.94049835205078
2216,-124.7817611694336,122.48171997070312,117.95457458496094,-100.0909423828125
2217,-112.17829895019531,134.84957885742188,137.63392639160156,-88.48977661132812
2218,-101.45974731445312,146.0430908203125,158.95135498046875,-70.14930725097656
2219,-118.53238677978516,122.09651184082031,138.57638549804688,-92.1025161743164
2220,-124.93135833740234,121.18023681640624,132.38310241699222,-92.44658660888672
2221,-108.11302947998048,134.35964965820312,143.71127319335938,-85.54647064208984
2222,-89.53694152832031,145.22406005859375,160.3426055908203,-90.3148422241211
2223,-111.78560638427734,129.64363098144528,141.65806579589844,-99.10734558105469
2224,-123.90662384033205,120.09192657470705,120.84552001953124,-107.84375762939452
2225,-100.37517547607422,132.83750915527344,146.8939208984375,-94.90744018554688
2226,-89.7725601196289,146.40213012695312,162.19384765625,-79.51775360107422
2227,-109.69874572753906,127.22017669677734,139.33932495117188,-96.57169342041016
2228,-121.52430725097656,112.65326690673828,131.80715942382812,-98.15367126464844
2229,-102.21520233154295,134.77851867675778,148.98826599121094,-75.69557189941406
2230,-82.68170928955078,157.1505889892578,163.24850463867188,-76.07704162597656
2231,-116.59512329101562,124.05248260498048,140.38648986816406,-96.3173828125
2232,-121.7300033569336,128.57028198242188,131.22373962402344,-98.91661071777344
2233,-111.1909637451172,139.57681274414062,142.17042541503906,-86.36177062988281
2234,-97.65252685546876,136.16227722167972,154.84869384765625,-84.15522766113281
2235,-112.17082214355469,110.56266021728516,142.8997039794922,-99.39906311035156
2236,-105.17346954345705,112.41390991210938,140.9923553466797,-93.89766693115234
2237,-106.04112243652344,117.66847229003906,139.54875183105472,-97.5627670288086
2238,-78.26114654541016,166.66116333007812,180.0780487060547,-69.00863647460939
2239,-122.1563491821289,125.05103302001952,140.39772033691406,-108.83483123779295
2240,-123.5775146484375,115.58161163330078,126.1973114013672,-118.3603515625
2241,-114.90094757080078,135.89674377441406,143.86834716796875,-101.71405792236328
2242,-91.95291900634766,151.06204223632812,168.92193603515625,-86.83300018310547
2243,-110.81697845458984,117.80310821533205,138.02287292480472,-104.85557556152344
2244,-109.62020874023438,117.34310150146484,134.42135620117188,-101.9384536743164
2245,-111.7706527709961,121.42333221435548,132.38310241699222,-104.5077667236328
2246,-102.80985260009766,124.20581817626952,154.7028350830078,-84.68255615234375
2247,-108.25888061523438,120.41729736328124,141.72537231445312,-92.24462890625
2248,-113.19554901123048,99.00263214111328,122.7491226196289,-99.7468719482422
2249,-106.29917907714844,113.23294830322266,135.315185546875,-89.02458190917969
2250,-85.037841796875,136.34927368164062,158.78306579589844,-67.48649597167969
2251,-108.58425903320312,92.31195068359376,130.04566955566406,-94.451171875
2252,-118.98865509033205,111.77812957763672,127.95880889892578,-96.90454864501952
2253,-105.31558227539062,115.88453674316406,135.04591369628906,-94.23426055908205
2254,-96.28746795654295,148.65728759765625,169.60260009765625,-74.91393280029297
2255,-107.60440063476562,123.11376953125,142.25270080566406,-99.48133850097656
2256,-113.96597290039062,128.90313720703122,144.4854278564453,-89.3873519897461
2257,-104.25719451904295,126.84618377685548,148.27394104003906,-100.01614379882812
2258,-93.34042358398438,147.9467010498047,167.86727905273438,-92.92529296875
2259,-115.87705993652344,123.10254669189452,140.4912109375,-105.18842315673828
2260,-112.94871520996094,116.15755462646484,130.81608581542972,-103.02302551269531
2261,-120.72396850585938,124.90518188476562,139.4814453125,-106.10469818115234
2262,-82.75276947021484,144.10581970214844,171.03497314453125,-74.92515563964844
2263,-96.08924865722656,113.32644653320312,166.38253784179688,-71.69013977050781
2264,-115.83966064453124,99.50751495361328,140.068603515625,-94.09962463378906
2265,-94.51475524902344,123.76824951171876,153.77159118652344,-86.4590072631836
2266,-82.82756805419922,130.46267700195312,169.76341247558594,-74.73068237304688
2267,-106.2729949951172,118.30425262451172,149.84469604492188,-95.24029541015624
2268,-127.84100341796876,117.72830963134766,141.11203002929688,-94.92987823486328
2269,-111.29568481445312,125.5297393798828,150.9105682373047,-87.43885803222656
2270,-104.1861343383789,139.23648071289062,168.73867797851562,-83.08935546875
2271,-116.3744659423828,120.2639617919922,145.04641723632812,-99.3093032836914
2272,-114.61671447753906,120.95584106445312,144.11517333984375,-93.2020492553711
2273,-110.48786163330078,111.41535949707031,141.34765625,-90.19890594482422
2274,-87.71935272216797,133.99687194824222,162.34344482421875,-79.98898315429688
2275,-106.03738403320312,116.69983673095705,149.70632934570312,-92.78691864013672
2276,-114.1006088256836,123.2147445678711,140.19949340820312,-93.7256317138672
2277,-106.88259887695312,117.9788818359375,148.6741180419922,-84.39458465576172
2278,-82.13941955566406,139.79745483398438,172.3738555908203,-73.76952362060547
2279,-99.68329620361328,133.50320434570312,162.16018676757812,-83.77749633789062
2280,-110.45794677734376,107.63057708740234,141.1307373046875,-91.76966857910156
2281,-94.92987823486328,124.69200134277344,169.39315795898438,-69.25547027587889
2282,-97.62635040283205,144.78648376464844,168.4357452392578,-89.67157745361328
2283,-125.9486083984375,132.04464721679688,150.5066680908203,-95.82371520996094
2284,-136.69708251953122,108.08684539794922,120.88291931152344,-122.72855377197266
2285,-105.50631713867188,144.6107177734375,152.8328857421875,-90.56167602539062
2286,-93.53115844726562,151.26773071289062,167.2726287841797,-76.5856704711914
2287,-109.54541015625,139.311279296875,150.26730346679688,-88.7927017211914
2288,-109.07418060302734,115.19639587402344,139.5113525390625,-95.76013946533205
2289,-98.4865264892578,116.82325744628906,162.616455078125,-77.75251770019531
2290,-83.50074768066406,145.35121154785156,174.56918334960938,-79.7571029663086
2291,-113.8014144897461,106.4525146484375,140.47251892089844,-108.54685974121094
2292,-101.05957794189452,123.46531677246094,150.7086181640625,-84.54418182373047
2293,-90.68509674072266,127.07806396484376,165.2568359375,-81.97486877441406
2294,-69.3975830078125,141.63375854492188,181.959228515625,-72.07535552978516
2295,-107.41740417480469,118.64458465576172,155.99310302734375,-89.24897003173828
2296,-106.28421783447266,111.9539031982422,148.14678955078125,-88.2878189086914
2297,-100.4948501586914,132.02595520019528,158.11361694335938,-89.70149993896484
2298,-80.635986328125,152.50938415527344,180.2538299560547,-81.00997161865234
2299,-100.34525299072266,115.83218383789062,157.89671325683594,-95.16549682617188
2300,-118.81288146972656,109.70248413085938,143.75241088867188,-102.69017028808594
2301,-97.1027603149414,128.11775207519528,160.51837158203125,-74.68954467773438
2302,-82.05714416503906,118.07238006591795,165.4587860107422,-89.38360595703125
2303,-107.46602630615234,114.02581024169922,144.2198944091797,-100.01988220214844
2304,-111.08251190185548,120.5257568359375,135.34510803222656,-97.02422332763672
2305,-97.84326171875,123.45409393310548,151.20602416992188,-82.28901672363281
2306,-91.39567565917969,131.21064758300778,168.24501037597656,-73.0290298461914
2307,-96.7811279296875,109.1452407836914,158.27442932128906,-78.35090637207031
2308,-115.9481201171875,102.94448852539062,144.28721618652344,-87.66325378417969
2309,-102.18528747558594,131.50236511230472,162.47059631347656,-71.0244369506836
2310,-82.33763885498047,143.99362182617188,176.7383270263672,-69.098388671875
2311,-108.87223052978516,123.5176773071289,148.9284210205078,-90.16524505615234
2312,-105.6895751953125,98.71839904785156,147.20059204101562,-89.79873657226562
2313,-101.99081420898438,117.73204803466795,160.21170043945312,-76.70909118652344
2314,-95.33004760742188,144.66680908203125,168.64892578125,-96.6801528930664
2315,-105.53997802734376,121.0269012451172,153.34524536132812,-93.78173065185548
2316,-104.3319854736328,113.92483520507812,136.12675476074222,-112.86270141601562
2317,-90.79354858398438,129.37435913085938,160.17056274414062,-93.29180145263672
2318,-76.55949401855469,141.65618896484375,176.63360595703125,-80.56118774414062
2319,-103.66629028320312,107.17805480957031,151.01528930664062,-88.6468505859375
2320,-104.84435272216795,104.26093292236328,145.88040161132812,-83.4932632446289
2321,-100.9361572265625,110.76087951660156,143.44198608398438,-75.41134643554688
2322,-89.92963409423828,125.41754150390624,168.6825714111328,-60.82199478149414
2323,-120.30509948730469,97.4019546508789,133.45646667480472,-101.9758529663086
2324,-95.1692352294922,118.78670501708984,158.5923309326172,-70.45223236083984
2325,-89.82492065429688,105.05753326416016,162.42572021484375,-67.00778961181639
2326,-83.23521423339844,129.96151733398438,179.7040557861328,-69.18814849853516
2327,-105.44647979736328,109.36963653564452,149.6838836669922,-93.44513702392578
2328,-120.56315612792969,99.791748046875,134.02117919921878,-103.39701080322266
2329,-102.3199234008789,124.10858154296876,160.51837158203125,-88.61692810058594
2330,-87.27804565429688,157.79385375976562,177.26190185546875,-80.24703216552734
2331,-98.92035675048828,114.57557678222656,152.74685668945312,-90.74119567871094
2332,-134.12028503417972,104.29084777832031,123.56068420410156,-114.7850112915039
2333,-102.52188110351562,105.30435943603516,148.9807891845703,-89.43596649169922
2334,-79.32701873779297,132.34757995605472,174.01193237304688,-75.10841369628906
2335,-105.16598510742188,107.6604995727539,142.5631103515625,-89.67532348632812
2336,-108.01204681396484,101.04087829589844,136.73635864257812,-90.76737213134766
2337,-94.90744018554688,111.94268798828124,152.76182556152344,-83.1304931640625
2338,-83.3885498046875,121.6327667236328,170.83676147460938,-76.24907684326172
2339,-102.338623046875,99.54866027832031,140.79788208007812,-100.82022094726562
2340,-105.6708755493164,103.4605941772461,134.26054382324222,-90.58786010742188
2341,-95.94713592529295,104.11133575439452,160.74276733398438,-70.93468475341797
2342,-89.02458190917969,127.34358978271484,170.07008361816406,-84.62645721435547
2343,-107.36505126953124,108.64409637451172,146.95001220703125,-99.6084976196289
2344,-106.72926330566406,86.33184814453125,130.33364868164062,-105.39785766601562
2345,-106.5123519897461,116.94667053222656,141.1269989013672,-95.74517822265624
2346,-84.83963012695312,126.2029266357422,171.09481811523438,-77.326171875
2347,-103.9692153930664,122.35456848144531,142.13302612304688,-93.7069320678711
2348,-117.80310821533205,102.22642517089844,123.7289810180664,-107.44732666015624
2349,-91.2797393798828,124.92388153076172,152.74685668945312,-84.83589172363281
2350,-85.90550231933594,133.77247619628906,161.11676025390625,-95.63298034667969
2351,-105.98876190185548,87.95122528076172,138.61004638671878,-100.4312744140625
2352,-107.9783935546875,102.3199234008789,129.59687805175778,-104.67606353759766
2353,-91.59014892578124,137.01496887207028,146.9761962890625,-88.19805908203125
2354,-83.08935546875,138.712890625,174.5317840576172,-74.16595458984375
2355,-105.46891784667969,103.4231948852539,138.86434936523438,-103.81587982177734
2356,-120.45843505859376,104.01409912109376,130.42340087890622,-98.10505676269531
2357,-108.31497955322266,113.35263061523438,140.61836242675778,-94.58954620361328
2358,-89.06198120117188,130.50755310058594,164.58738708496094,-73.54138946533203
2359,-116.73723602294922,92.5475616455078,123.58312225341795,-105.39785766601562
2360,-107.15187072753906,102.54805755615234,124.4881820678711,-100.38639831542969
2361,-93.60221862792969,89.33872985839844,153.6219940185547,-83.98319244384766
2362,-76.01346588134766,129.6810302734375,165.0025177001953,-80.03385925292969
2363,-108.59921264648438,98.5014877319336,130.38226318359378,-104.4853286743164
2364,-115.8695831298828,86.54876708984375,126.24967193603516,-96.39591979980469
2365,-110.47290802001952,121.32609558105469,143.8459014892578,-100.27420043945312
2366,-95.21784973144531,130.00265502929688,167.42971801757812,-92.61488342285156
2367,-102.7425308227539,114.59053802490234,148.52825927734375,-105.7120132446289
2368,-98.47530364990234,98.03025817871094,146.9724578857422,-100.86884307861328
2369,-84.1701889038086,121.7748794555664,152.8328857421875,-94.97476196289062
2370,-82.23291778564453,127.60164642333984,173.9371337890625,-78.39952087402344
2371,-101.96836853027344,97.02796173095705,144.7659149169922,-97.33089447021484
2372,-101.81503295898438,103.0417251586914,142.05075073242188,-84.75735473632812
2373,-91.35079956054688,109.19011688232422,144.35826110839844,-95.88729858398438
2374,-80.61354064941406,133.95947265625,172.463623046875,-75.08971405029297
2375,-102.73505401611328,114.33248138427734,146.22073364257812,-85.49037170410156
2376,-105.39411926269531,64.43099975585939,139.04013061523438,-90.18394470214844
2377,-82.87992095947266,114.59053802490234,155.52560424804688,-83.1304931640625
2378,-70.26149749755861,140.50430297851562,175.75473022460938,-79.8954849243164
2379,-87.23690795898438,118.7380828857422,144.8481903076172,-101.75894165039062
2380,-114.44841766357422,108.0569305419922,119.76468658447266,-110.97405242919922
2381,-96.94942474365234,130.2794189453125,157.7358856201172,-87.51740264892578
2382,-74.91767883300781,126.11690521240234,174.2812042236328,-85.04158782958984
2383,-92.05389404296876,109.98297882080078,148.86485290527344,-98.9053955078125
2384,-101.26901245117188,93.9874267578125,135.40495300292972,-104.95281219482422
2385,-94.22677612304688,106.99853515625,150.68992614746094,-85.61004638671875
2386,-80.64346313476562,124.56858825683594,169.34454345703125,-81.33160400390625
2387,-93.31424713134766,124.19459533691406,155.21893310546875,-81.22314453125
2388,-95.98827362060548,110.06151580810548,143.4232940673828,-98.77075958251952
2389,-85.95037841796875,108.72637176513672,161.70018005371094,-79.22978210449219
2390,-78.30602264404297,119.42996215820312,175.49293518066406,-70.04084777832031
2391,-90.07549285888672,100.0049285888672,154.987060546875,-87.57349395751953
2392,-97.05040740966795,97.98912048339844,139.81802368164062,-88.25789642333984
2393,-81.55226135253906,98.47530364990234,158.8167266845703,-72.33340454101562
2394,-75.0784912109375,100.82395935058594,179.6217803955078,-49.95010375976562
2395,-103.07164001464844,94.23052215576172,152.50750732421875,-84.00563049316406
2396,-103.74108123779295,98.21725463867188,140.37527465820312,-93.6657943725586
2397,-92.1810531616211,128.93304443359378,156.9729461669922,-94.05474090576172
2398,-81.93746948242188,121.79732513427734,180.18276977539062,-69.01237487792969
2399,-102.4807357788086,116.49788665771484,148.9620819091797,-96.84097290039062
2400,-109.03678131103516,93.43392181396484,127.70075225830078,-105.80177307128906
2401,-97.04666137695312,112.94871520996094,148.64419555664062,-90.47940063476562
2402,-85.12386322021484,115.5068130493164,162.01058959960938,-85.7372055053711
2403,-102.02446746826172,91.90430450439452,142.79873657226562,-91.90430450439452
2404,-103.89816284179688,85.9541244506836,130.96942138671878,-102.19276428222656
2405,-94.87752532958984,102.73131561279295,150.55528259277344,-83.8335952758789
2406,-78.90814971923828,117.04764556884766,174.90951538085938,-78.28732299804688
2407,-90.6813507080078,102.91456604003906,166.59197998046875,-72.07909393310547
2408,-94.53345489501952,79.68978881835938,152.88150024414062,-76.95217895507812
2409,-88.36261749267578,93.7256317138672,156.83831787109375,-73.28334045410156
2410,-72.46430206298828,104.55264282226562,174.40087890625,-60.09271240234375
2411,-86.55998229980469,78.31350708007812,146.96498107910156,-81.41387939453125
2412,-108.35612487792969,79.36815643310547,127.05001068115234,-91.52657318115234
2413,-99.54866027832031,96.90828704833984,144.11891174316406,-77.17657470703125
2414,-81.88884735107422,102.18902587890624,157.44418334960938,-65.37718963623047
2415,-103.1427001953125,85.75216674804688,141.3326873779297,-82.61064910888672
2416,-97.67870330810548,87.40145874023438,143.3335418701172,-88.50473022460938
2417,-91.24607849121094,104.9266357421875,153.15077209472656,-80.89777374267578
2418,-98.92035675048828,107.6156234741211,149.9830780029297,-95.92469024658205
2419,-93.46009826660156,98.86051177978516,155.27877807617188,-83.89717864990234
2420,-113.55458068847656,93.89392852783205,133.26573181152344,-102.48448181152344
2421,-100.79778289794922,102.13292694091795,148.718994140625,-89.20409393310547
2422,-98.78945922851562,99.3317413330078,158.22207641601562,-80.16475677490234
2423,-92.71212005615234,116.0079574584961,152.47384643554688,-87.9437484741211
2424,-107.48846435546876,92.34561157226562,139.63851928710938,-96.66519165039062
2425,-112.24935913085938,111.62479400634766,144.0179443359375,-92.68594360351562
2426,-81.66445922851562,128.11027526855472,170.7208251953125,-70.92720031738281
2427,-91.50413513183594,111.84918975830078,159.6095733642578,-85.22483825683594
2428,-110.51404571533205,88.81888580322266,142.8660430908203,-85.49411010742188
2429,-103.53913116455078,95.04207611083984,147.00238037109375,-84.2524642944336
2430,-89.0918960571289,89.33872985839844,156.9766845703125,-77.68146514892578
2431,-100.68558502197266,91.08900451660156,140.65576171875,-92.7607421875
2432,-101.06331634521484,84.81719207763672,139.15606689453122,-86.7993392944336
2433,-105.46891784667969,102.36479949951172,139.36175537109378,-91.6200714111328
2434,-88.19432067871094,102.60415649414062,158.45021057128906,-73.94530487060547
2435,-96.7025909423828,85.74842834472656,147.44741821289062,-79.08018493652344
2436,-109.96427917480469,70.28019714355469,130.98812866210938,-98.946533203125
2437,-106.08599853515624,106.70308685302734,150.82081604003906,-80.04882049560547
2438,-96.88584899902344,121.6888656616211,156.44187927246094,-85.51280975341797
2439,-104.71345520019531,111.13860321044922,144.17501831054688,-94.5521469116211
2440,-96.2538070678711,91.82575988769531,142.9146728515625,-85.30712127685547
2441,-94.0921401977539,101.23161315917969,153.31532287597656,-75.80403137207031
2442,-86.83673858642578,107.3613052368164,169.43055725097656,-70.037109375
2443,-91.30217742919922,96.6951141357422,160.0247039794922,-69.19937133789061
2444,-104.63866424560548,92.39422607421876,144.44802856445312,-80.10491943359375
2445,-90.64021301269531,107.38375091552734,169.43055725097656,-50.97109603881836
2446,-91.8818588256836,110.3307876586914,164.5724334716797,-79.18489837646484
2447,-82.87244415283203,94.11083984375,166.4012451171875,-64.0570068359375
2448,-101.41486358642578,79.60751342773438,151.74082946777344,-75.83395385742188
2449,-99.80670928955078,68.01381683349611,157.16368103027344,-86.73576354980469
2450,-92.29698944091795,107.43236541748048,166.53587341308594,-79.02782440185547
2451,-102.14788818359376,101.91227722167969,151.2696075439453,-92.97017669677734
2452,-97.5440673828125,96.75121307373048,154.13063049316406,-79.54766845703125
2453,-104.53768157958984,120.03582763671876,149.8484344482422,-93.79295349121094
2454,-100.4911117553711,82.36381530761719,168.95559692382812,-76.07330322265625
2455,-91.87812042236328,95.1131362915039,158.0762176513672,-85.9167251586914
2456,-104.91915130615234,99.4701156616211,136.32870483398438,-90.30736541748048
2457,-96.02941131591795,108.25140380859376,151.18357849121094,-82.40869903564453
2458,-88.6655502319336,111.12738800048828,162.76605224609375,-78.15642547607422
2459,-92.05015563964844,106.9536590576172,158.42776489257812,-74.24449157714844
2460,-104.57134246826172,96.14160919189452,139.8516845703125,-85.68859100341797
2461,-98.17611694335938,106.1346206665039,154.67291259765625,-83.8298568725586
2462,-74.697021484375,120.9259262084961,190.4375762939453,-55.32807922363281
2463,-93.00382995605469,95.92469024658205,167.26889038085938,-71.97437286376953
2464,-84.62645721435547,89.94085693359375,157.3955535888672,-77.89089965820312
2465,-94.61946868896484,97.94049835205078,155.7986297607422,-88.4074935913086
2466,-81.23810577392578,108.80864715576172,180.5754547119141,-75.89752960205078
2467,-91.0142059326172,104.5638656616211,166.49847412109375,-81.84770965576172
2468,-109.83338165283205,102.03195190429688,143.19515991210938,-96.71381378173828
2469,-87.58097839355469,120.8436508178711,161.16163635253906,-81.4400634765625
2470,-95.22907257080078,120.03956604003906,161.15415954589844,-86.4627456665039
2471,-106.80032348632812,107.4398422241211,149.95689392089844,-93.29928588867188
2472,-114.73638916015624,96.7586898803711,127.71945190429688,-95.70404052734376
2473,-94.5708465576172,95.86859893798828,152.9188995361328,-77.28129577636719
2474,-89.70149993896484,93.57603454589844,164.34429931640625,-73.42919921875
2475,-98.60993957519531,95.26647186279295,158.79428100585938,-71.2862319946289
2476,-108.31497955322266,105.31184387207031,136.38479614257812,-86.86665344238281
2477,-99.7468719482422,109.42947387695312,146.4264373779297,-78.30976867675781
2478,-86.20843505859375,128.38328552246094,170.05511474609375,-68.94131469726561
2479,-79.80572509765625,93.35912322998048,161.5169219970703,-82.06088256835938
2480,-95.86111450195312,82.58821105957031,157.21604919433594,-84.96678924560547
2481,-91.3358383178711,102.0169906616211,165.47747802734375,-78.9941635131836
2482,-84.0505142211914,103.97669982910156,164.0226593017578,-85.35199737548828
2483,-108.61417388916016,105.22956848144531,148.22906494140625,-104.5264663696289
2484,-105.12484741210938,110.6673812866211,152.10360717773438,-87.92878723144531
2485,-99.8104476928711,111.15730285644531,151.28829956054688,-94.18563842773438
2486,-102.14788818359376,121.43829345703124,157.93411254882812,-89.26393127441406
2487,-110.74217987060548,105.22582244873048,152.67581176757812,-91.30591583251952
2488,-125.48486328125,92.10999298095705,130.33738708496094,-95.62924194335938
2489,-107.937255859375,93.37034606933594,150.30470275878906,-83.04447937011719
2490,-101.82999420166016,104.76581573486328,162.43695068359375,-79.33075714111328
2491,-108.60295104980469,101.74771881103516,144.58639526367188,-85.91297912597656
2492,-98.33692932128906,106.80406188964844,143.81971740722656,-79.97028350830078
2493,-96.30990600585938,95.13931274414062,146.11227416992188,-82.69292449951172
2494,-85.06776428222656,109.2237777709961,170.60862731933594,-70.83744812011719
2495,-97.69366455078124,91.94170379638672,159.72926330566406,-83.9121322631836
2496,-104.37313079833984,91.02542877197266,147.5371856689453,-86.58616638183594
2497,-98.34815216064452,95.5731430053711,157.64987182617188,-75.96858978271484
2498,-95.16549682617188,99.63841247558594,175.5527801513672,-71.33485412597656
2499,-98.32945251464844,109.40328979492188,163.9403839111328,-78.8931884765625
2500,-99.90394592285156,94.49979400634766,152.71694946289062,-89.85857391357422
2501,-110.55518341064452,100.92494201660156,150.33462524414062,-91.63128662109376
2502,-105.90648651123048,113.19181060791016,161.2214813232422,-79.82068634033203
2503,-107.62310028076172,109.6089859008789,146.4563446044922,-93.01131439208984
2504,-113.3414077758789,90.6963119506836,135.63308715820312,-89.78003692626953
2505,-104.84061431884766,94.98971557617188,145.11746215820312,-93.02252960205078
2506,-95.0906982421875,102.3199234008789,150.5814666748047,-99.27190399169922
2507,-102.08431243896484,116.62129974365234,157.16368103027344,-89.92215728759766
2508,-121.72626495361328,81.33534240722656,137.0579833984375,-98.63986206054688
2509,-101.54202270507812,115.99673461914062,156.15391540527344,-93.02252960205078
2510,-92.68968200683594,127.97189331054688,175.90432739257812,-81.75047302246094
2511,-103.0791244506836,106.46746826171876,152.74685668945312,-93.60221862792969
2512,-115.73494720458984,83.94579315185547,145.98512268066406,-83.18285369873047
2513,-99.4102783203125,105.49884033203124,147.67930603027344,-85.23979949951172
2514,-98.85303497314452,94.50353240966795,161.75628662109375,-76.37997436523438
2515,-109.79224395751952,102.08805084228516,152.53369140625,-83.54562377929688
2516,-113.02351379394531,70.6018295288086,144.51535034179688,-85.13134002685547
2517,-103.9093780517578,89.36490631103516,146.07113647460938,-79.28961944580078
2518,-92.83553314208984,117.5562744140625,168.6825714111328,-67.58373260498047
2519,-105.12858581542969,86.63478088378906,147.5708465576172,-96.95316314697266
2520,-111.91276550292969,77.83853912353516,141.39627075195312,-93.19456481933594
2521,-100.15826416015624,83.96449279785156,151.8979034423828,-81.73551177978516
2522,-94.78776550292969,115.98178100585938,162.73988342285156,-84.46189880371094
2523,-103.10903930664062,105.4277801513672,150.4954376220703,-86.68340301513672
2524,-104.94158935546876,94.54840850830078,138.25474548339844,-97.17008209228516
2525,-92.58122253417969,111.40039825439452,157.64987182617188,-82.87244415283203
2526,-88.31025695800781,102.60041809082031,155.43585205078125,-82.83504486083984
2527,-109.23500061035156,91.10770416259766,145.56251525878906,-89.43596649169922
2528,-107.43610382080078,73.53765106201172,135.38250732421878,-85.51655578613281
2529,-100.52103424072266,86.70957946777344,142.72767639160156,-89.58930206298828
2530,-83.85603332519531,105.4315185546875,166.7340850830078,-76.30517578125
2531,-112.20447540283205,80.75566101074219,141.74407958984375,-94.20059967041016
2532,-106.69934844970705,83.22025299072266,146.1683807373047,-83.43716430664062
2533,-99.20458984375,94.19686126708984,156.28106689453125,-86.3355941772461
2534,-90.62151336669922,106.658203125,172.53466796875,-81.41387939453125
2535,-97.12894439697266,106.91252136230469,171.67076110839844,-81.86640930175781
2536,-111.68836975097656,93.6470947265625,146.90513610839844,-101.30641174316406
2537,-98.23221588134766,113.360107421875,169.1949462890625,-77.3860092163086
2538,-106.16454315185548,109.38833618164062,173.04330444335938,-85.75590515136719
2539,-109.3060531616211,103.03050231933594,164.79307556152344,-87.27056884765625
2540,-113.89491271972656,100.54721069335938,150.56649780273438,-90.03435516357422
2541,-100.9959945678711,112.10723876953124,163.35696411132812,-83.45960998535156
2542,-82.87618255615234,113.2553939819336,179.7938232421875,-73.15618133544922
2543,-85.9354248046875,89.28636932373047,160.3800048828125,-79.07270812988281
2544,-106.10469818115234,85.55020904541016,147.63067626953125,-81.36900329589844
2545,-96.36974334716795,93.61717224121094,152.77304077148438,-81.68315124511719
2546,-84.51799774169922,118.80540466308594,163.87680053710938,-74.94011688232422
2547,-94.50353240966795,105.03508758544922,150.71609497070312,-79.3344955444336
2548,-112.05862426757812,89.71646118164062,132.42050170898438,-93.00382995605469
2549,-102.75375366210938,94.61946868896484,147.51473999023438,-84.74239349365234
2550,-93.31424713134766,113.14693450927734,162.72865295410156,-75.20191192626953
2551,-102.56675720214844,107.1369171142578,150.4056854248047,-84.0692138671875
2552,-108.67774963378906,112.2194366455078,148.2589874267578,-77.37853240966797
2553,-101.0146942138672,94.14076232910156,139.82176208496094,-87.66325378417969
2554,-97.76846313476562,106.37023162841795,157.5788116455078,-80.87907409667969
2555,-102.34609985351562,107.7203369140625,150.48048400878906,-89.84362030029297
2556,-103.8271026611328,105.89152526855469,143.55044555664062,-89.19661712646484
2557,-101.77389526367188,98.95401000976562,146.42269897460938,-88.57205200195312
2558,-90.01939392089844,105.77932739257812,162.69873046875,-83.26887512207031
2559,-95.049560546875,119.3215103149414,161.06814575195312,-84.42823791503906
2560,-118.8989028930664,107.99335479736328,128.78532409667972,-105.71575164794922
2561,-94.27913665771484,102.13666534423828,146.92010498046875,-90.71127319335938
2562,-101.87113189697266,107.26033020019531,158.1996307373047,-85.037841796875
2563,-95.32630920410156,111.4527587890625,164.4377899169922,-73.23846435546875
2564,-114.73265075683594,82.29275512695312,127.91392517089844,-94.98597717285156
2565,-95.81623840332031,119.56085968017578,147.56336975097656,-77.97691345214844
2566,-95.8760757446289,123.54011535644531,154.32884216308594,-77.56926727294922
2567,-98.7071762084961,101.31388854980469,150.5066680908203,-78.97172546386719
2568,-112.23065948486328,95.52078247070312,135.92105102539062,-80.88282012939453
2569,-99.94508361816406,106.7928466796875,144.63128662109375,-79.41677856445312
2570,-94.26043701171876,107.1967544555664,148.3337860107422,-83.57928466796875
2571,-101.16055297851562,108.03074645996094,143.80850219726562,-84.34222412109375
2572,-108.20652770996094,83.76628112792969,123.03335571289062,-98.75953674316406
2573,-102.42838287353516,99.84410858154295,135.47225952148438,-96.5941390991211
2574,-96.07428741455078,112.6383056640625,148.5993194580078,-93.2244873046875
2575,-94.6680908203125,99.95256805419922,139.75445556640622,-101.1717758178711
2576,-114.1417465209961,104.82191467285156,128.42630004882812,-93.62091827392578
2577,-97.16259765625,109.57907104492188,142.41726684570312,-93.41522216796876
2578,-99.30182647705078,138.52963256835938,158.3380126953125,-84.75735473632812
2579,-110.12509155273438,98.3257064819336,147.6119842529297,-89.0918960571289
2580,-117.12244415283205,115.28241729736328,144.4405517578125,-86.8442153930664
2581,-108.52067565917969,92.4391098022461,156.28106689453125,-77.07559967041016
2582,-91.7584457397461,126.16178131103516,169.17623901367188,-69.83141326904297
2583,-99.08116912841795,107.71286010742188,150.4243927001953,-81.00997161865234
2584,-104.45914459228516,93.265625,145.8766632080078,-88.10082244873047
2585,-108.30750274658205,111.41162109375,139.60859680175778,-93.18708801269531
2586,-91.62380981445312,135.84439086914062,161.71888732910156,-78.35838317871094
2587,-111.4751968383789,100.96234130859376,135.54705810546878,-90.55793762207031
2588,-120.93714141845705,90.1727294921875,131.38081359863278,-85.48663330078125
2589,-101.74398040771484,99.45890045166016,147.0697021484375,-74.81669616699219
2590,-91.70608520507812,118.22571563720705,153.87257385253906,-80.2545166015625
2591,-114.12678527832031,108.64783477783205,146.22073364257812,-95.5731430053711
2592,-114.96452331542969,99.3093032836914,129.12565612792972,-101.06705474853516
2593,-103.49425506591795,119.49354553222656,137.88824462890622,-98.10505676269531
2594,-84.60775756835938,118.92507934570312,160.06210327148438,-81.8626708984375
2595,-100.37891387939452,78.59774017333984,136.98692321777344,-106.1944580078125
2596,-121.95813751220705,106.33283233642578,129.26029968261722,-99.7693099975586
2597,-108.02326965332031,122.57896423339844,140.2032470703125,-95.61054229736328
2598,-101.9384536743164,125.77283477783205,151.79318237304688,-91.81454467773438
2599,-99.82540893554688,132.37376403808594,149.12289428710938,-85.85314178466797
2600,-108.12799072265624,100.9137191772461,136.28382873535156,-88.1082992553711
2601,-98.03773498535156,112.78416442871094,145.04641723632812,-83.3661117553711
2602,-93.95002746582031,126.67789459228516,156.8121337890625,-75.22061157226562
2603,-94.92613983154295,95.52452087402344,151.8492889404297,-82.80886840820312
2604,-106.18324279785156,99.96378326416016,138.68858337402344,-92.5400848388672
2605,-97.57398986816406,101.90479278564452,149.31362915039062,-81.0810317993164
2606,-93.29180145263672,115.43575286865234,165.7056121826172,-85.1724853515625
2607,-108.0569305419922,116.4754409790039,148.65167236328125,-95.94338989257812
2608,-100.2330551147461,111.34803771972656,141.8001708984375,-94.7503662109375
2609,-97.51415252685548,104.79199981689452,151.11253356933594,-89.46215057373047
2610,-97.20374298095705,132.527099609375,165.6383056640625,-91.41437530517578
2611,-100.40135192871094,109.36589813232422,151.3107452392578,-96.48567962646484
2612,-113.71165466308594,107.09203338623048,129.33883666992188,-112.27179718017578
2613,-106.42259216308594,120.00591278076172,133.27694702148438,-107.4398422241211
2614,-94.72418975830078,124.96501922607422,151.57254028320312,-92.6260986328125
2615,-96.16030883789062,113.77523803710938,147.28660583496094,-91.51161193847656
2616,-101.74771881103516,95.34127044677734,134.23809814453122,-97.7235870361328
2617,-94.368896484375,105.54371643066406,146.4713134765625,-88.71416473388672
2618,-91.48917388916016,108.8423080444336,155.75,-83.91587829589844
2619,-99.27938079833984,119.65435791015624,155.98187255859375,-79.45043182373047
2620,-107.2977294921875,109.55663299560548,146.22073364257812,-80.92395782470703
2621,-96.3173828125,105.65965270996094,156.54286193847656,-81.27924346923828
2622,-95.97331237792969,117.63107299804688,174.1914520263672,-74.36791229248047
2623,-99.36540222167969,93.28058624267578,159.32908630371094,-84.0505142211914
2624,-113.18059539794922,116.3669891357422,146.35911560058594,-100.56591033935548
2625,-114.46711730957031,106.42259216308594,143.90574645996094,-88.99092102050781
2626,-105.14728546142578,138.73533630371094,160.90357971191406,-88.29155731201172
2627,-109.35841369628906,101.153076171875,153.18069458007812,-85.59134674072266
2628,-118.7231216430664,88.3700942993164,136.26138305664062,-96.09673309326172
2629,-106.68064880371094,104.23849487304688,145.151123046875,-91.0815200805664
2630,-99.4289779663086,128.58523559570312,156.5653076171875,-84.615234375
2631,-110.87681579589844,109.79598236083984,145.17730712890625,-87.04243469238281
2632,-110.308349609375,98.44538879394531,137.016845703125,-76.14810180664062
2633,-101.22039031982422,92.50642395019531,134.29794311523438,-76.71282958984375
2634,-94.53345489501952,112.17829895019531,158.8428955078125,-69.00489044189453
2635,-92.162353515625,106.35527801513672,145.0314483642578,-79.19985961914062
2636,-103.55034637451172,98.55384063720705,136.14170837402344,-83.62416076660156
2637,-111.46398162841795,112.52610778808594,145.9290313720703,-83.95701599121094
2638,-96.50064086914062,116.7895965576172,164.55372619628906,-69.33400726318361
2639,-104.72093963623048,105.94762420654295,153.38638305664062,-79.7384033203125
2640,-109.8446044921875,96.48567962646484,140.68194580078122,-91.98657989501952
2641,-98.59498596191406,95.8760757446289,145.6148681640625,-95.92843627929688
2642,-95.1916732788086,121.01942443847656,168.29736328125,-89.5556411743164
2643,-102.3834991455078,126.62179565429688,157.71719360351562,-94.0659637451172
2644,-114.59801483154295,115.74242401123048,148.23280334472656,-95.38988494873048
2645,-116.38195037841795,122.1114730834961,159.2281036376953,-86.87413787841797
2646,-108.52067565917969,137.72555541992188,159.09347534179688,-100.50233459472656
2647,-105.98128509521484,110.82071685791016,156.5092010498047,-96.10420989990234
2648,-105.25948333740234,101.34381103515624,141.96473693847656,-89.95955657958984
2649,-89.87353515625,108.32620239257812,150.4505615234375,-89.07319641113281
2650,-108.59921264648438,116.21365356445312,160.05462646484375,-60.54523849487305
2651,-106.41511535644531,117.94522857666016,150.1925048828125,-76.42111206054688
2652,-115.62274932861328,95.64046478271484,138.04531860351562,-84.4693832397461
2653,-102.39098358154295,105.49884033203124,152.0549774169922,-74.60352325439453
2654,-94.28662109375,113.56580352783205,165.5410614013672,-67.86796569824219
2655,-91.72478485107422,90.72997283935548,149.08175659179688,-85.49037170410156
2656,-112.38399505615234,85.9990005493164,130.55055236816406,-86.4814453125
2657,-92.8018798828125,107.08081817626952,155.4470672607422,-76.12566375732422
2658,-76.60810852050781,124.8228988647461,168.7686004638672,-76.69786834716797
2659,-96.62779235839844,123.39800262451172,158.8578643798828,-89.51824188232422
2660,-114.381103515625,116.16876983642578,143.7150115966797,-91.87438201904295
2661,-101.66544342041016,116.77837371826172,155.6228485107422,-89.98573303222656
2662,-97.3196792602539,124.56111145019531,164.1011962890625,-86.57868194580078
2663,-113.13197326660156,115.14029693603516,150.5290985107422,-95.22159576416016
2664,-111.10121154785156,110.49160766601562,139.02517700195312,-98.41172790527344
2665,-113.47604370117188,112.11846160888672,146.94627380371094,-77.09056091308594
2666,-110.80575561523438,111.94268798828124,146.76303100585938,-84.5516586303711
2667,-113.98841094970705,114.96452331542969,134.3876953125,-97.15885925292969
2668,-103.71864318847656,103.57653045654295,136.1192626953125,-81.19696807861328
2669,-104.38060760498048,113.01603698730469,142.75384521484375,-74.48384857177734
2670,-96.93446350097656,127.52684783935548,162.81468200683594,-77.31494903564453
2671,-100.94738006591795,117.72457122802734,153.24427795410156,-83.8298568725586
2672,-107.93350982666016,113.6780014038086,144.646240234375,-79.06148529052734
2673,-103.9841766357422,115.11785888671876,151.40423583984375,-83.97197723388672
2674,-106.37771606445312,132.54205322265622,158.10614013671875,-81.81404876708984
2675,-103.2062759399414,124.17215728759766,152.79922485351562,-87.8614730834961
2676,-123.28954315185548,112.74676513671876,137.3048095703125,-100.15826416015624
2677,-106.16454315185548,132.53457641601562,149.85592651367188,-90.31110382080078
2678,-97.28227996826172,117.64229583740234,151.78570556640625,-101.02591705322266
2679,-106.98731994628906,105.60729217529295,136.74757385253906,-108.57303619384766
2680,-108.0793685913086,118.85775756835938,127.18838500976562,-107.0583724975586
2681,-98.4042510986328,124.15345764160156,147.0958709716797,-93.25066375732422
2682,-100.18070220947266,108.62913513183594,151.12001037597656,-92.01649475097656
2683,-102.61537170410156,117.06260681152344,147.6605987548828,-86.1186752319336
2684,-117.76197052001952,120.11436462402344,137.48806762695312,-93.57977294921876
2685,-103.37831115722656,113.2591323852539,148.61801147460938,-88.01480865478516
2686,-98.55758666992188,134.97299194335938,163.96656799316406,-79.67108917236328
2687,-105.59981536865234,115.86209869384766,154.7252655029297,-79.64865112304688
2688,-109.73988342285156,108.95076751708984,142.3536834716797,-83.16041564941406
2689,-117.51887512207031,95.65916442871094,150.6226043701172,-79.95158386230469
2690,-95.2515106201172,148.23468017578125,167.34742736816406,-71.06558227539062
2691,-108.1616439819336,139.11305236816406,155.09552001953125,-76.46599578857422
2692,-116.87935638427734,118.81288146972656,139.81428527832028,-91.3769760131836
2693,-113.2404327392578,108.21774291992188,134.11094665527344,-97.36829376220705
2694,-106.41511535644531,123.5139389038086,150.8282928466797,-92.0987777709961
2695,-93.03749084472656,134.74111938476562,158.24452209472656,-98.29579162597656
2696,-111.44528198242188,120.5481948852539,132.24847412109378,-113.1207504272461
2697,-114.1641845703125,117.54505920410156,130.97315979003906,-118.56604766845705
2698,-100.3527374267578,130.50755310058594,153.86883544921875,-94.84386444091795
2699,-103.87946319580078,137.32539367675778,160.66049194335938,-82.1431655883789
2700,-110.19615173339844,120.57811737060548,141.31399536132812,-102.57423400878906
2701,-106.30291748046876,139.95828247070312,151.6473388671875,-83.30252838134766
2702,-106.49739074707031,121.670166015625,152.90768432617188,-86.91901397705078
2703,-103.11278533935548,134.96551513671878,156.23245239257812,-81.07355499267578
2704,-130.62722778320312,103.00432586669922,128.98353576660156,-96.14534759521484
2705,-117.95270538330078,129.91290283203122,147.20433044433594,-77.12796020507812
2706,-103.5054702758789,117.42911529541016,153.70802307128906,-72.71861267089844
2707,-115.97803497314452,110.4504623413086,141.69920349121094,-89.92589569091797
2708,-119.42996215820312,96.85967254638672,131.44439697265622,-84.50303649902344
2709,-104.4853286743164,125.43624114990234,146.24691772460938,-87.9474868774414
2710,-107.28650665283205,125.71673583984376,143.54296875,-91.39193725585938
2711,-109.62394714355469,122.56026458740234,148.3001251220703,-82.12446594238281
2712,-103.7448272705078,134.0118408203125,132.85433959960938,-92.85049438476562
2713,-102.17406463623048,135.58259582519528,146.96871948242188,-89.81743621826172
2714,-100.28541564941406,135.80699157714844,160.46975708007812,-90.18394470214844
2715,-106.22811889648438,134.30728149414062,159.83023071289062,-88.93108367919922
2716,-107.23040771484376,126.17300415039062,139.54501342773438,-96.65023803710938
2717,-106.8713836669922,129.68850708007812,146.0113067626953,-94.71670532226562
2718,-91.481689453125,147.1426239013672,156.08285522460938,-87.94001007080078
2719,-95.56940460205078,127.0331802368164,144.1039581298828,-97.01300811767578
2720,-104.74337768554688,114.29882049560548,139.88160705566406,-96.13412475585938
2721,-111.91650390625,121.01942443847656,124.97810363769531,-109.2649154663086
2722,-91.64250946044922,135.72471618652344,152.0699462890625,-87.9474868774414
2723,-105.895263671875,109.07418060302734,137.61149597167972,-102.89960479736328
2724,-106.71430206298828,125.04729461669922,136.99066162109378,-98.52018737792969
2725,-105.4502182006836,126.83496856689452,138.83070373535156,-99.15596771240234
2726,-105.40534210205078,151.40237426757812,152.9114227294922,-95.03833770751952
2727,-102.96692657470705,140.41455078125,148.71151733398438,-94.11458587646484
2728,-115.52176666259766,116.17251586914062,128.6656494140625,-106.6133270263672
2729,-109.80345916748048,126.87610626220705,143.06427001953125,-94.79524230957031
2730,-107.256591796875,137.76295471191406,153.73045349121094,-93.63213348388672
2731,-103.05294036865234,141.5926055908203,154.02964782714844,-94.87004089355469
2732,-104.02531433105469,120.9670639038086,139.17477416992188,-96.739990234375
2733,-102.1179656982422,106.86763763427734,138.49784851074222,-97.16259765625
2734,-97.1027603149414,140.65390014648438,150.31593322753906,-90.29240417480469
2735,-97.91058349609376,136.46894836425778,142.8211669921875,-93.55359649658205
2736,-105.33428192138672,119.85631561279295,137.76483154296878,-93.5685577392578
2737,-101.77389526367188,129.16867065429688,145.8280487060547,-87.57349395751953
2738,-96.23884582519531,145.3773956298828,150.71983337402344,-93.52742004394531
2739,-102.42463684082031,119.93111419677734,148.42727661132812,-91.1002197265625
2740,-110.55144500732422,125.32030487060548,138.28840637207028,-96.88958740234376
2741,-114.93460845947266,140.80349731445312,135.98463439941406,-96.6203155517578
2742,-102.37228393554688,140.31730651855472,154.73275756835938,-84.64889526367188
2743,-108.442138671875,136.65220642089844,144.78836059570312,-90.44947814941406
2744,-124.65460205078124,118.83158111572266,126.22349548339844,-105.3679428100586
2745,-115.55542755126952,136.62228393554688,137.02806091308594,-97.74602508544922
2746,-107.95220947265624,139.5169677734375,149.4781951904297,-101.50836181640624
2747,-109.57907104492188,124.88648223876952,137.77230834960938,-106.52356719970705
2748,-122.8183135986328,113.09457397460938,118.10417175292969,-125.70925903320312
2749,-111.834228515625,122.00301361083984,133.7481689453125,-116.0116958618164
2750,-94.87004089355469,142.68092346191406,160.23414611816406,-98.43042755126952
2751,-102.39472198486328,122.79961395263672,146.5535888671875,-94.58206939697266
2752,-130.33177185058594,111.42658233642578,123.50084686279295,-108.33367919921876
2753,-112.49993133544922,121.66642761230469,137.75733947753906,-98.44912719726562
2754,-99.43646240234376,139.53941345214844,163.4990692138672,-85.56517028808594
2755,-100.39761352539062,123.84678649902344,162.1527099609375,-73.75830841064453
2756,-119.22052764892578,122.1301727294922,127.6222152709961,-108.58051300048828
2757,-102.84725189208984,141.1213836669922,153.15077209472656,-88.31773376464844
2758,-97.49545288085938,136.80180358886722,164.9838104248047,-90.9356689453125
2759,-100.0872039794922,124.21329498291016,157.78076171875,-97.9068374633789
2760,-111.39665985107422,122.99783325195312,142.4434356689453,-99.4065399169922
2761,-108.73384857177734,125.13705444335938,149.2650146484375,-91.07030487060548
2762,-103.183837890625,134.59152221679688,169.54649353027344,-87.85398864746094
2763,-114.33248138427734,121.70008087158205,146.08984375,-106.66568756103516
2764,-123.5139389038086,115.1253433227539,129.05459594726562,-112.2792739868164
2765,-107.11447143554688,126.03836822509766,149.48941040039062,-86.42908477783203
2766,-103.91686248779295,137.16830444335938,160.1182098388672,-87.93252563476562
2767,-116.89805603027344,125.63446044921876,145.9701690673828,-100.812744140625
2768,-113.29278564453124,115.89949798583984,141.96099853515625,-94.38385772705078
2769,-112.98986053466795,117.0326919555664,137.17391967773438,-97.58895111083984
2770,-99.91890716552734,137.11968994140622,146.5087127685547,-95.894775390625
2771,-102.54431915283205,134.13151550292972,147.38011169433594,-87.69691467285156
2772,-125.01363372802734,116.0528335571289,130.34486389160156,-105.91770935058594
2773,-115.77234649658205,119.45988464355469,140.26681518554688,-97.7385482788086
2774,-111.0525894165039,140.25372314453122,155.0730743408203,-90.40834045410156
2775,-109.463134765625,133.21897888183594,143.94688415527344,-99.38410186767578
2776,-113.86125183105469,123.36060333251952,137.18887329101562,-92.81309509277344
2777,-115.94063568115234,117.27952575683594,133.31434631347656,-102.50691986083984
2778,-104.57881927490234,134.22500610351562,162.5790557861328,-81.18574523925781
2779,-119.48980712890624,120.59307098388672,134.29045104980472,-105.06501007080078
2780,-120.15550231933594,104.74337768554688,124.00572967529295,-102.85472869873048
2781,-117.86294555664062,119.81891632080078,134.13711547851562,-94.38011169433594
2782,-99.19710540771484,125.32778930664062,148.06077575683594,-81.90754699707031
2783,-105.06501007080078,117.8143310546875,135.51715087890622,-100.73046875
2784,-108.13546752929688,110.50656127929688,130.08306884765622,-90.5317611694336
2785,-106.33283233642578,113.97718811035156,125.84202575683594,-98.8268585205078
2786,-95.16549682617188,130.51502990722656,153.636962890625,-81.25680541992188
2787,-96.12664794921876,123.6784896850586,148.94338989257812,-75.76289367675781
2788,-110.15501403808594,112.2568359375,133.26573181152344,-90.71875
2789,-105.58859252929688,113.22920989990234,139.30940246582028,-87.21072387695312
2790,-88.47107696533203,142.34059143066406,163.52899169921875,-72.60267639160156
2791,-99.79923248291016,133.89215087890622,154.47470092773438,-86.3767318725586
2792,-104.59751892089844,128.61515808105472,145.8766632080078,-91.98657989501952
2793,-113.3227081298828,139.49078369140622,151.07513427734375,-96.91576385498048
2794,-101.39990997314452,142.2433624267578,163.23728942871094,-93.08985137939452
2795,-107.91107177734376,144.93234252929688,154.04086303710938,-103.62140655517578
2796,-116.65869903564452,136.28195190429688,136.65406799316406,-104.69475555419922
2797,-108.442138671875,125.4250259399414,138.04531860351562,-106.20568084716795
2798,-83.25765228271484,137.35903930664062,163.77957153320312,-91.67242431640624
2799,-96.90454864501952,140.35844421386722,148.2066192626953,-106.58341217041016
2800,-102.56675720214844,129.77452087402344,133.03384399414062,-99.369140625
2801,-89.8510971069336,138.49223327636722,150.33836364746094,-76.46973419189453
2802,-88.90116119384766,132.15684509277344,162.75857543945312,-79.36815643310547
2803,-99.57857513427734,137.24684143066406,153.04605102539062,-83.58676147460938
2804,-102.2937469482422,103.40823364257812,138.15751647949222,-84.6339340209961
2805,-93.47879791259766,123.8580093383789,150.925537109375,-72.57276153564453
2806,-88.71790313720703,136.00520324707028,163.7720947265625,-72.15763092041016
2807,-101.79633331298828,139.07191467285156,150.4879608154297,-89.7501220703125
2808,-111.12364959716795,117.54879760742188,136.4595947265625,-100.89501953125
2809,-98.25839233398438,134.37834167480472,142.357421875,-94.73914337158205
2810,-75.30288696289062,140.7586212158203,166.5096893310547,-78.08537292480469
2811,-96.04063415527344,125.24925231933594,157.16368103027344,-88.65058898925781
2812,-104.59751892089844,125.22493743896484,134.31101989746094,-99.0531234741211
2813,-91.34705352783205,134.26054382324222,147.13140869140625,-103.3764419555664
2814,-81.07355499267578,161.947021484375,165.8533477783203,-99.10173797607422
2815,-90.636474609375,154.53826904296875,166.0590362548828,-99.11296081542969
2816,-104.41426849365234,124.49939727783205,140.25746154785156,-111.95203399658205
2817,-100.22183990478516,127.5810775756836,141.70106506347656,-111.18535614013672
2818,-88.57952880859375,134.6046142578125,155.4115447998047,-92.31755828857422
2819,-97.44683074951172,122.6444091796875,152.1204376220703,-83.37919616699219
2820,-118.83158111572266,112.55789947509766,133.06564331054688,-98.4584732055664
2821,-107.81757354736328,118.26498413085938,138.114501953125,-93.58912658691406
2822,-101.34007263183594,125.5540542602539,156.58587646484375,-74.56051635742188
2823,-99.286865234375,128.31784057617188,153.14515686035156,-78.17325592041016
2824,-114.41101837158205,106.6413803100586,132.10823059082028,-92.19414520263672
2825,-109.70622253417969,116.04722595214844,143.5523223876953,-90.48126983642578
2826,-91.68738555908205,136.05569458007812,170.0495147705078,-76.0340347290039
2827,-97.55155181884766,141.82635498046875,164.29380798339844,-83.27448272705078
2828,-121.95439910888672,116.97846221923828,134.06419372558594,-107.66610717773438
2829,-111.41535949707031,131.46682739257812,152.12417602539062,-85.34638977050781
2830,-102.91082763671876,149.79981994628906,161.1747283935547,-94.03417205810548
2831,-106.75544738769531,129.92599487304688,148.21597290039062,-99.04937744140624
2832,-114.28385925292969,126.32820892333984,133.64158630371094,-107.06024932861328
2833,-111.7743911743164,119.87688446044922,129.9390869140625,-106.58153533935548
2834,-86.7208023071289,136.33992004394528,150.1158447265625,-87.7137451171875
2835,-100.86884307861328,117.83489990234376,129.78575134277344,-100.27233123779295
2836,-105.36420440673828,103.6344985961914,121.03438568115234,-110.99088287353516
2837,-88.95352172851562,132.93287658691406,145.4970703125,-92.58683013916016
2838,-81.27176666259766,141.96847534179688,154.84681701660156,-86.54315185546875
2839,-88.67302703857422,132.3045654296875,150.2392578125,-82.18991088867188
2840,-93.23570251464844,130.75999450683594,140.24250793457028,-98.09944915771484
2841,-94.709228515625,143.56915283203125,147.9953155517578,-86.82364654541016
2842,-91.22364044189452,155.2451171875,154.828125,-82.14129638671875
2843,-102.53309631347656,123.60556030273438,147.41189575195312,-89.84548950195312
2844,-104.7321548461914,119.84696197509766,140.80723571777344,-92.23528289794922
2845,-111.22836303710938,141.94976806640625,150.20933532714844,-75.1663818359375
2846,-105.18468475341795,158.554931640625,160.47537231445312,-82.1338119506836
2847,-101.65048217773438,137.58157348632812,156.61953735351562,-83.16228485107422
2848,-129.75956726074222,126.1374740600586,135.4442138671875,-100.6874542236328
2849,-114.19036865234376,140.78292846679688,142.59490966796875,-104.65548706054688
2850,-102.33488464355469,154.1829833984375,161.10740661621094,-90.93753814697266
2851,-111.74820709228516,120.7819366455078,145.5382080078125,-110.24664306640624
2852,-114.19036865234376,130.37852478027344,136.17349243164062,-101.91788482666016
2853,-108.87223052978516,141.90115356445312,139.62542724609378,-102.34423065185548
2854,-97.02422332763672,147.88499450683594,150.3365020751953,-108.41783142089844
2855,-96.6128387451172,143.9207000732422,150.89747619628906,-95.61241149902344
2856,-102.90335083007812,133.35548400878906,138.2491455078125,-106.46186065673828
2857,-99.72443389892578,130.2738037109375,144.46485900878906,-100.81461334228516
2858,-91.42933654785156,149.61282348632812,154.30453491210938,-98.95587921142578
2859,-94.76532745361328,143.4644317626953,151.32383728027344,-93.8808364868164
2860,-103.91686248779295,139.79185485839844,137.949951171875,-105.52688598632812
2861,-102.7387924194336,126.1786117553711,140.02932739257812,-92.90846252441406
2862,-93.51993560791016,137.11782836914062,154.6897430419922,-93.60408782958984
2863,-90.58786010742188,143.01190185546875,158.7138671875,-87.57537078857422
2864,-109.2237777709961,121.89643096923828,132.31391906738278,-110.24290466308594
2865,-103.16887664794922,124.26004791259766,144.49102783203125,-96.3865737915039
2866,-93.2057876586914,143.83468627929688,157.69662475585938,-82.0964126586914
2867,-106.97235870361328,141.37008666992188,138.18182373046878,-106.67129516601562
2868,-123.22596740722656,122.39383697509766,117.18976593017578,-115.23192596435548
2869,-120.69779205322266,134.15956115722656,128.90313720703122,-103.15579223632812
2870,-112.57099151611328,151.15740966796875,151.5145721435547,-91.97722625732422
2871,-109.10784149169922,133.29190063476562,139.06443786621094,-101.58877563476562
2872,-115.03558349609376,131.253662109375,137.66197204589844,-85.22296905517578
2873,-114.81118774414062,137.28985595703122,135.25347900390622,-87.60528564453125
2874,-112.03244018554688,158.69705200195312,152.59913635253906,-80.07312774658203
2875,-105.91770935058594,136.09309387207028,151.94839477539062,-85.61192321777344
2876,-118.33043670654295,117.47960662841795,134.93559265136722,-92.09317016601562
2877,-106.6170654296875,143.90574645996094,142.13864135742188,-87.66886138916016
2878,-102.48448181152344,137.59652709960938,157.38621520996094,-84.52735137939453
2879,-98.70343780517578,124.20768737792969,156.85888671875,-84.98735809326172
2880,-108.23644256591795,122.73790740966795,136.19593811035156,-98.1144027709961
2881,-101.46722412109376,135.43486022949222,149.04249572753906,-79.74775695800781
2882,-98.55384063720705,146.96871948242188,165.68504333496094,-86.30380249023438
2883,-105.62599182128906,137.181396484375,155.99496459960938,-90.38777160644531
2884,-105.56241607666016,138.95037841796878,149.19956970214844,-99.20645904541016
2885,-103.04920196533205,141.8375701904297,150.5833282470703,-96.37161254882812
2886,-108.57303619384766,138.27345275878906,158.2463836669922,-98.59310913085938
2887,-114.04450988769531,133.13108825683594,143.48126220703125,-113.0665283203125
2888,-110.19989013671876,127.46514129638672,133.00953674316406,-106.50299835205078
2889,-126.34503936767578,142.6005096435547,136.19219970703122,-100.78095245361328
2890,-106.93122100830078,143.94314575195312,144.6107177734375,-99.42710876464844
2891,-114.45215606689452,134.21940612792972,142.72206115722656,-91.40128326416016
2892,-115.38713073730469,144.11517333984375,128.89190673828122,-93.38716888427734
2893,-117.76197052001952,120.78942108154295,125.89250946044922,-98.7539291381836
2894,-107.40245056152344,115.36656188964844,138.38751220703122,-91.8874740600586
2895,-97.8619613647461,138.94664001464844,146.0056915283203,-90.9263153076172
2896,-112.2119598388672,122.9024658203125,127.12667846679688,-97.9087142944336
2897,-112.17829895019531,125.92056274414062,133.6602783203125,-96.71942138671876
2898,-99.29808044433594,141.68797302246094,160.30706787109375,-80.40972137451172
2899,-108.51319885253906,127.63343811035156,142.62857055664062,-96.4688491821289
2900,-120.2490005493164,137.60026550292972,142.7819061279297,-82.754638671875
2901,-121.56544494628906,131.98294067382812,146.30862426757812,-87.98301696777344
2902,-101.20542907714844,147.34645080566406,174.35414123535156,-69.93425750732422
2903,-111.96512603759766,133.18344116210938,159.91812133789062,-82.70975494384766
2904,-116.7297592163086,120.49022674560548,142.04513549804688,-89.47149658203125
2905,-114.82988739013672,146.22447204589844,157.45352172851562,-92.90098571777344
2906,-101.8935775756836,122.87628173828124,163.45233154296875,-85.85875701904297
2907,-115.03932189941406,134.39891052246094,145.23153686523438,-100.27233123779295
2908,-125.85511016845705,111.35739135742188,132.15310668945312,-96.8054428100586
2909,-105.0276107788086,135.490966796875,134.34841918945312,-95.2421646118164
2910,-104.1823959350586,145.75698852539062,150.56837463378906,-82.50780487060547
2911,-100.90998077392578,126.26837158203124,148.806884765625,-86.19160461425781
2912,-113.76775360107422,113.0665283203125,131.73797607421878,-92.42601776123048
2913,-101.26901245117188,118.68385314941406,139.14671325683594,-94.4193878173828
2914,-101.1942138671875,135.05339050292972,153.3433837890625,-90.20451354980469
2915,-93.13098907470705,135.37876892089844,159.21876525878906,-77.0325927734375
2916,-109.2686538696289,120.34811401367188,137.86019897460938,-92.3512191772461
2917,-103.99539947509766,118.9718246459961,148.2047576904297,-87.25373840332031
2918,-98.35189056396484,142.05075073242188,163.03346252441406,-79.81133270263672
2919,-105.79802703857422,113.93791961669922,143.26808166503906,-98.14806365966795
2920,-119.1606903076172,108.50010681152344,131.55097961425778,-103.08473205566406
2921,-114.5643539428711,135.11323547363278,144.84259033203125,-79.79637908935547
2922,-101.9795913696289,132.04277038574222,168.63209533691406,-74.6278305053711
2923,-103.0828628540039,127.43895721435548,156.36895751953125,-80.39849853515625
2924,-124.6209487915039,105.13420104980469,127.60538482666016,-106.51048278808594
2925,-115.65640258789062,109.40890502929688,133.66777038574222,-98.44725799560548
2926,-94.84386444091795,119.9142837524414,155.10487365722656,-82.18243408203125
2927,-98.02651977539062,113.92296600341795,151.00967407226562,-78.91375732421875
2928,-98.17237091064452,127.1435089111328,144.61819458007812,-85.89241027832031
2929,-101.07453918457031,129.71281433105472,146.3871612548828,-86.09436798095703
2930,-98.37432861328124,128.66191101074222,169.5670623779297,-72.3016128540039
2931,-102.7163543701172,113.45921325683594,157.1505889892578,-99.37100982666016
2932,-118.70442199707031,123.12311553955078,149.92884826660156,-100.59395599365234
2933,-110.6673812866211,128.77784729003906,158.291259765625,-88.80953216552734
2934,-102.26382446289062,151.8904266357422,165.1539764404297,-97.86756896972656
2935,-100.10590362548828,133.99501037597656,161.1410675048828,-92.88602447509766
2936,-116.08275604248048,137.54043579101562,150.9647979736328,-96.30429077148438
2937,-116.2921905517578,120.2546157836914,140.84463500976562,-99.87216186523438
2938,-91.20120239257812,149.9494171142578,162.18075561523438,-86.24022674560547
2939,-108.26636505126952,137.77604675292972,151.2153778076172,-93.66392517089844
2940,-112.88140106201172,119.12516021728516,137.20570373535156,-87.75862121582031
2941,-124.03752136230469,104.6779327392578,135.59007263183594,-83.88408660888672
2942,-97.27105712890624,130.14291381835938,165.64390563964844,-53.28048324584961
2943,-100.0685043334961,133.8416748046875,159.07290649414062,-74.24262237548828
2944,-119.67679595947266,105.97193145751952,132.23912048339844,-94.78589630126952
2945,-122.87067413330078,125.38201904296876,142.04513549804688,-91.4461669921875
2946,-99.36166381835938,129.2528076171875,169.38380432128906,-69.29473876953125
2947,-103.00432586669922,112.37090301513672,157.51336669921875,-85.61566162109375
2948,-102.64903259277344,116.65309143066406,142.4041748046875,-90.67200469970705
2949,-116.4754409790039,140.14340209960938,142.39669799804688,-89.10872650146484
2950,-103.35213470458984,131.7996826171875,161.9788055419922,-85.66053771972656
2951,-107.51464080810548,125.78966522216795,149.7306365966797,-95.10752868652344
2952,-121.35601043701172,111.48080444335938,130.43275451660156,-103.13709259033205
2953,-120.32379913330078,131.03300476074222,143.8477783203125,-93.91075897216795
2954,-100.14330291748048,139.01768493652344,163.07833862304688,-83.5362777709961
2955,-97.61886596679688,138.89801025390622,163.3887481689453,-80.72013092041016
2956,-114.30255889892578,121.36162567138672,140.15275573730472,-95.95648193359376
2957,-99.57483673095705,128.55718994140622,156.21188354492188,-89.21343994140625
2958,-75.9424057006836,144.8145294189453,185.9291229248047,-68.07926940917969
2959,-91.72478485107422,130.150390625,164.48080444335938,-82.40308380126953
2960,-101.73649597167969,116.29779815673828,148.69094848632812,-91.73413848876952
2961,-105.97754669189452,120.53510284423828,155.78927612304688,-87.56788635253906
2962,-96.58665466308594,137.66011047363278,163.8113555908203,-81.98047637939453
2963,-93.69945526123048,117.39359283447266,158.78118896484375,-89.37425994873047
2964,-106.80406188964844,128.50857543945312,154.8655242919922,-85.61192321777344
2965,-107.75025939941406,120.60242462158205,157.38247680664062,-77.27568054199219
2966,-97.89188385009766,128.75914001464844,166.25350952148438,-81.7934799194336
2967,-110.16997528076172,137.84336853027344,153.44435119628906,-99.9432144165039
2968,-116.16129302978516,114.54752349853516,128.70491027832028,-109.59963989257812
2969,-106.9573974609375,112.75611114501952,140.67633056640622,-97.23926544189452
2970,-99.9301300048828,133.3779296875,147.61758422851562,-91.27413177490234
2971,-101.46722412109376,121.8852081298828,138.36508178710938,-95.69843292236328
2972,-113.62190246582031,105.05191802978516,127.0743179321289,-101.1474609375
2973,-102.05065155029295,104.28524017333984,141.3794403076172,-92.9720458984375
2974,-82.27031707763672,123.28018951416016,169.4025115966797,-71.68827056884766
2975,-91.97535705566406,121.44390106201172,170.64788818359375,-65.76801300048828
2976,-115.58161163330078,98.58563232421876,139.08314514160156,-88.52904510498047
2977,-98.1461944580078,104.36751556396484,161.93019104003906,-68.61407470703125
2978,-91.77340698242188,125.89437866210938,166.89303588867188,-75.20003509521484
2979,-103.69620513916016,113.57888793945312,156.9000244140625,-84.20945739746094
2980,-107.15187072753906,105.28753662109376,145.12681579589844,-94.69239807128906
2981,-109.82964324951172,112.14276885986328,152.27001953125,-89.37799835205078
2982,-102.82855224609376,121.43267822265624,166.80702209472656,-89.40043640136719
2983,-105.38290405273438,107.29586029052734,147.6250762939453,-97.78155517578124
2984,-122.46676635742188,96.47258758544922,136.45773315429688,-104.00849151611328
2985,-106.26551818847656,117.60676574707031,143.5859832763672,-95.2833023071289
2986,-103.62889099121094,121.1783676147461,151.98953247070312,-87.93814086914062
2987,-105.60355377197266,126.4591064453125,149.8203887939453,-87.22007751464844
2988,-107.35009002685548,118.29864501953124,141.9778289794922,-92.65789031982422
2989,-105.31184387207031,115.23566436767578,147.31466674804688,-87.40333557128906
2990,-91.81454467773438,126.5189437866211,166.30587768554688,-78.52854919433594
2991,-102.93700408935548,102.8678207397461,157.7489776611328,-80.58175659179688
2992,-102.16658782958984,103.44376373291016,147.95791625976562,-80.19654846191406
2993,-100.92120361328124,100.45184326171876,157.457275390625,-83.05008697509766
2994,-89.5145034790039,110.2017593383789,174.73187255859375,-65.55857849121094
2995,-90.05679321289062,112.67383575439452,172.77963256835938,-75.67874908447266
2996,-98.5688018798828,107.5539093017578,148.290771484375,-94.2361297607422
2997,-116.91300964355469,113.07774353027344,152.12791442871094,-92.70651245117188
2998,-87.925048828125,109.6146011352539,176.68035888671875,-77.9825210571289
2999,-96.1752700805664,108.61604309082031,164.58177185058594,-94.29596710205078
3000,-114.75508880615234,96.7680435180664,142.29571533203125,-98.91848754882812
3001,-107.596923828125,106.95926666259766,150.62820434570312,-90.45134735107422
3002,-92.13243865966795,124.35728454589844,171.10415649414062,-84.95369720458984
3003,-105.0089111328125,120.57624816894531,152.77865600585938,-91.72291564941406
3004,-127.74750518798828,102.3105697631836,126.9097671508789,-105.59046173095705
3005,-119.13077545166016,94.51287841796876,133.59297180175778,-94.14636993408205
3006,-98.35936737060548,114.13613891601562,159.7834930419922,-77.24950408935547
3007,-101.50836181640624,99.40840911865234,150.88626098632812,-78.30789184570312
3008,-107.7427749633789,95.29451751708984,137.56100463867188,-89.74076843261719
3009,-105.11737060546876,97.02609252929688,137.10847473144528,-92.96082305908205
3010,-92.87667846679688,124.01695251464844,164.46209716796875,-72.01737976074219
3011,-102.60789489746094,100.20874786376952,147.47174072265625,-96.33421325683594
3012,-101.37372589111328,88.51034545898438,142.7295379638672,-90.59720611572266
3013,-101.4747085571289,95.41793823242188,150.2411346435547,-88.40936279296875
3014,-88.32147979736328,115.31794738769531,181.08782958984372,-70.59996032714844
3015,-103.39701080322266,107.80074310302734,169.61007690429688,-81.228759765625
3016,-113.68547821044922,77.57487487792969,134.55224609375,-100.63883972167969
3017,-98.0414810180664,117.55814361572266,158.1360626220703,-97.04105377197266
3018,-90.34476470947266,101.13250732421876,170.91156005859375,-94.44556427001952
3019,-109.29483795166016,123.09320068359376,157.7882537841797,-99.51313018798828
3020,-116.7933349609375,86.68901062011719,135.03843688964844,-95.61614990234376
3021,-112.36529541015624,98.95587921142578,149.0630645751953,-85.99339294433594
3022,-110.96282958984376,111.43966674804688,160.9709014892578,-83.40538024902344
3023,-111.0525894165039,97.45618438720705,147.84759521484375,-96.68202209472656
3024,-114.99818420410156,89.03766632080078,129.78387451171878,-93.44326782226562
3025,-106.7965850830078,89.83426666259766,137.25619506835938,-84.26555633544922
3026,-91.72478485107422,109.93622589111328,155.15536499023438,-89.37799835205078
3027,-91.11144256591795,101.31575775146484,159.73300170898438,-79.57946014404297
3028,-110.17371368408205,94.36328887939452,134.06231689453122,-94.78215789794922
3029,-105.69705200195312,103.952392578125,143.43077087402344,-89.47897338867188
3030,-87.57349395751953,135.03096008300778,168.7611083984375,-78.51732635498047
3031,-98.05643463134766,103.6494598388672,152.88150024414062,-95.16362762451172
3032,-103.78596496582031,82.50032043457031,136.25764465332028,-97.3514633178711
3033,-103.97669982910156,103.30164337158205,150.91806030273438,-95.69843292236328
3034,-107.16309356689452,113.74344635009766,162.79971313476562,-91.51348114013672
3035,-96.1977081298828,107.69229125976562,160.7876434326172,-94.50914001464844
3036,-122.2124481201172,86.78250885009766,141.26536560058594,-106.828369140625
3037,-99.27190399169922,89.11246490478516,148.5058135986328,-103.0361099243164
3038,-93.21700286865234,122.2180633544922,171.69692993164062,-92.00341033935548
3039,-102.12171173095705,95.91160583496094,158.050048828125,-101.25965881347656
3040,-95.1692352294922,90.7430648803711,156.71864318847656,-92.07072448730469
3041,-106.8938217163086,92.590576171875,144.8182830810547,-104.64427185058594
3042,-91.94544219970705,112.8720474243164,169.9616241455078,-74.69515228271484
3043,-95.76761627197266,101.7645492553711,158.61102294921875,-87.4781265258789
3044,-117.64603424072266,89.7258071899414,141.7328643798828,-85.35012817382812
3045,-104.0851593017578,104.56947326660156,155.64527893066406,-79.82255554199219
3046,-91.4629898071289,116.4586181640625,174.92446899414062,-74.38848114013672
3047,-96.7773895263672,106.3833236694336,163.11386108398438,-82.92667388916016
3048,-114.0033721923828,94.61012268066406,146.43017578125,-88.72725677490234
3049,-101.8786163330078,94.42312622070312,151.3369140625,-89.60613250732422
3050,-91.73600769042969,110.59445190429688,169.9541473388672,-88.44676208496094
3051,-103.7822265625,106.09909057617188,156.9879150390625,-89.33312225341797
3052,-103.69994354248048,107.03032684326172,143.75241088867188,-91.52096557617188
3053,-101.18672943115234,96.8503189086914,145.63731384277344,-101.60747528076172
3054,-90.68883514404295,110.22420501708984,156.6475830078125,-103.2305908203125
3055,-92.87293243408205,106.45438385009766,150.5328369140625,-108.64596557617188
3056,-107.02471923828124,91.68177795410156,133.35548400878906,-110.37005615234376
3057,-99.5897979736328,98.02838897705078,142.6528778076172,-98.69783020019531
3058,-94.93736267089844,109.04613494873048,161.0232696533203,-89.45653533935547
3059,-84.18515014648438,115.478759765625,169.494140625,-73.31513214111328
3060,-117.597412109375,83.91026306152344,136.97944641113278,-94.03417205810548
3061,-108.8273468017578,96.05745697021484,150.09901428222656,-87.12657928466797
3062,-95.1692352294922,97.2317886352539,168.3459930419922,-71.00012969970703
3063,-101.7776336669922,107.69976806640624,159.54226684570312,-91.19558715820312
3064,-113.27409362792969,86.66657257080078,139.30940246582028,-88.42432403564453
3065,-101.26527404785156,104.68914794921876,153.44248962402344,-80.61915588378906
3066,-94.14450073242188,108.8516616821289,170.8068389892578,-74.94198608398438
3067,-95.9994888305664,87.95684051513672,159.96487426757812,-77.6384506225586
3068,-114.23524475097656,78.31537628173828,141.0110626220703,-101.45413970947266
3069,-111.91276550292969,92.07072448730469,145.3306427001953,-101.84308624267578
3070,-95.52452087402344,134.65322875976562,166.88368225097656,-95.0813446044922
3071,-91.64998626708984,109.85021209716795,157.6162109375,-96.43144989013672
3072,-112.35033416748048,92.62422943115234,136.171630859375,-111.40975189208984
3073,-112.04366302490234,94.20995330810548,137.34970092773438,-111.18909454345705
3074,-90.2363052368164,117.33000946044922,158.27069091796875,-97.21682739257812
3075,-101.59064483642578,95.70964813232422,153.11337280273438,-84.53856658935547
3076,-109.6089859008789,75.78720092773438,136.42219543457028,-93.95563507080078
3077,-104.545166015625,83.8803482055664,146.51992797851562,-87.78480529785156
3078,-88.2466812133789,116.91862487792969,178.6755828857422,-68.28496551513672
3079,-92.34187316894531,88.59262084960938,155.8023681640625,-83.64847564697266
3080,-109.94184112548828,93.48440551757812,147.4960479736328,-84.0822982788086
3081,-93.688232421875,100.99038696289062,162.9193878173828,-69.29099273681639
3082,-90.1914291381836,97.5496826171875,173.4322509765625,-70.63362121582031
3083,-90.41582489013672,97.6506576538086,174.18397521972656,-68.29991912841797
3084,-108.64035034179688,85.4024887084961,147.42124938964844,-91.69300079345705
3085,-110.06525421142578,80.25638580322266,146.53489685058594,-100.9417724609375
3086,-92.4017105102539,107.81944274902344,180.65025329589844,-77.91520690917969
3087,-100.0124053955078,121.9039077758789,164.77438354492188,-94.84947204589844
3088,-110.4504623413086,83.43904113769531,140.35658264160156,-115.26558685302734
3089,-95.214111328125,101.18860626220705,154.306396484375,-98.92970275878906
3090,-94.29409790039062,105.29501342773438,166.68173217773438,-100.5790023803711
3091,-98.69222259521484,96.0836410522461,145.5812225341797,-114.94021606445312
3092,-111.8155288696289,88.26351165771484,125.81958770751952,-126.8817138671875
3093,-97.3832550048828,102.29935455322266,146.3105010986328,-111.5630874633789
3094,-82.67048645019531,93.30489349365234,169.55770874023438,-89.7445068359375
3095,-80.96509552001953,83.8766098022461,150.4056854248047,-97.673095703125
3096,-101.04087829589844,79.1231918334961,142.5182342529297,-90.29427337646484
3097,-104.885498046875,93.0505828857422,146.48626708984375,-87.20137786865234
3098,-82.04592895507812,107.8082275390625,177.00759887695312,-57.24851989746094
3099,-98.50896453857422,93.93319702148438,152.66831970214844,-81.12403869628906
3100,-106.50486755371094,80.2264633178711,149.88209533691406,-80.00955200195312
3101,-101.77015686035156,86.58055114746094,146.5161895751953,-81.10160064697266
3102,-90.73371124267578,104.5993881225586,172.5870361328125,-63.00048446655274
3103,-104.99394989013672,92.6915512084961,157.66482543945312,-82.0926742553711
3104,-114.79248809814452,83.02391052246094,136.93083190917972,-88.33456420898438
3105,-104.5264663696289,112.77481079101562,145.97764587402344,-95.93030548095705
3106,-92.01275634765624,111.35739135742188,166.57701110839844,-88.00545501708984
3107,-90.74867248535156,95.8442840576172,160.21917724609375,-92.76634979248048
3108,-99.17466735839844,96.4464111328125,146.05992126464844,-95.3244400024414
3109,-97.93302154541016,103.3727035522461,153.76785278320312,-96.29307556152344
3110,-81.09599304199219,113.05530548095705,168.40208435058594,-91.5284423828125
3111,-96.89332580566406,87.59032440185547,159.51234436035156,-94.24735260009766
3112,-106.64698791503906,98.66790771484376,136.80740356445312,-104.29646301269531
3113,-83.46708679199219,85.69793701171875,149.98681640625,-99.93199920654295
3114,-80.28443145751953,86.7525863647461,166.6854705810547,-87.59032440185547
3115,-94.03978729248048,91.5284423828125,148.36370849609375,-100.7435531616211
3116,-101.7177963256836,74.82231140136719,141.30276489257812,-90.45883178710938
3117,-92.85423278808594,89.33312225341797,146.68447875976562,-84.75548553466797
3118,-88.16065979003906,101.22600555419922,163.36817932128906,-79.22042846679688
3119,-96.30990600585938,80.80614471435547,158.01638793945312,-75.21873474121094
3120,-106.84893798828124,77.0138931274414,142.1554718017578,-89.2209243774414
3121,-105.80551147460938,61.71395874023438,146.688232421875,-85.06963348388672
3122,-98.6286392211914,113.1301040649414,171.0087890625,-75.54410552978516
3123,-101.52332305908205,100.52664184570312,174.2774658203125,-64.84799194335939
3124,-113.62190246582031,87.64268493652344,150.43934631347656,-96.0462417602539
3125,-110.7122573852539,99.94695281982422,155.1254425048828,-88.63002014160156
3126,-99.2270278930664,109.65947723388672,167.9308624267578,-86.87226867675781
3127,-96.6352767944336,90.09980010986328,168.49183654785156,-88.34578704833984
3128,-112.86643981933594,68.32610321044922,134.7691650390625,-103.09969329833984
3129,-101.06705474853516,104.8985824584961,149.10794067382812,-91.2516860961914
3130,-91.38819885253906,118.4482421875,165.48497009277344,-89.49393463134766
3131,-89.68280029296875,90.81037902832031,154.11940002441406,-89.96890258789062
3132,-109.30979919433594,71.68453216552734,136.31373596191406,-102.62472534179688
3133,-101.68414306640624,91.36014556884766,143.39337158203125,-93.59660339355469
3134,-74.72694396972656,99.00076293945312,173.70899963378906,-82.28714752197266
3135,-87.94001007080078,69.42189025878906,158.36793518066406,-88.46172332763672
3136,-89.87727355957031,63.50910949707031,147.72044372558594,-93.89205932617188
3137,-87.79415130615234,80.14044952392578,162.56784057617188,-77.27568054199219
3138,-74.08367919921875,94.23239135742188,172.89370727539062,-79.31392669677734
3139,-104.43670654296876,79.86369323730469,159.16453552246094,-85.34638977050781
3140,-102.05438995361328,68.60659790039061,152.35043334960938,-76.42672729492188
3141,-101.5943832397461,81.89071655273438,155.09552001953125,-89.50141906738281
3142,-91.63128662109376,84.73678588867188,173.73892211914062,-67.46966552734375
3143,-98.29579162597656,84.89385986328125,149.66519165039062,-93.3909149169922
3144,-114.95330810546876,68.28870391845703,132.42799377441406,-104.28897857666016
3145,-100.61078643798828,86.10932922363281,153.18817138671875,-82.0103988647461
3146,-84.08042907714844,100.8632354736328,178.11834716796875,-68.56919860839844
3147,-106.1944580078125,86.5917739868164,159.29168701171875,-89.36678314208984
3148,-116.17251586914062,61.03329849243164,140.43136596679688,-99.97313690185548
3149,-98.07887268066406,78.3228530883789,152.5299530029297,-96.1247787475586
3150,-81.0398941040039,96.37908935546876,169.6175537109375,-81.96551513671875
3151,-89.84362030029297,92.45594024658205,155.843505859375,-87.16771697998047
3152,-92.79439544677734,75.4880142211914,157.97525024414062,-84.05238342285156
3153,-101.28397369384766,75.57776641845703,152.7393798828125,-99.44580841064452
3154,-73.85554504394531,82.9416275024414,183.41030883789062,-78.83522033691406
3155,-81.56721496582031,78.27049255371094,170.91529846191406,-81.92437744140625
3156,-96.5380401611328,69.91181945800781,157.56759643554688,-88.32334899902344
3157,-92.9888687133789,75.03548431396484,165.87391662597656,-76.68103790283203
3158,-74.76808166503906,80.61915588378906,182.86053466796875,-77.39910125732422
3159,-88.93482208251953,76.76331329345703,174.2737274169922,-77.8142318725586
3160,-107.78765869140624,59.481239318847656,149.66519165039062,-87.8184585571289
3161,-101.657958984375,76.38558959960938,159.41510009765625,-82.92293548583984
3162,-92.35308837890624,97.5908203125,182.01158142089844,-68.36724090576172
3163,-99.5673599243164,74.8484878540039,161.65904235839844,-84.60962677001953
3164,-111.06006622314452,66.00736236572266,141.48976135253906,-96.62218475341795
3165,-100.30037689208984,76.4940414428711,157.84434509277344,-85.79143524169922
3166,-93.60969543457031,97.25048828125,169.25477600097656,-87.0143814086914
3167,-83.23147583007812,82.49284362792969,164.25827026367188,-83.4951400756836
3168,-107.39496612548828,68.97310638427734,143.95062255859375,-86.44217681884766
3169,-106.5347900390625,66.72168731689453,152.5710906982422,-81.7112045288086
3170,-76.1593246459961,81.78600311279297,173.97079467773438,-59.27180480957031
3171,-102.46952056884766,75.66004943847656,155.14413452148438,-83.26325988769531
3172,-112.42139434814452,65.61093139648439,140.74179077148438,-77.53373718261719
3173,-102.61163330078124,66.44866943359375,153.7641143798828,-83.19220733642578
3174,-79.23725891113281,60.91361999511719,171.16212463378906,-75.74980163574219
3175,-90.78233337402344,83.81676483154297,165.95619201660156,-73.65171813964844
3176,-107.26780700683594,76.48656463623047,145.83926391601562,-88.46172332763672
3177,-93.51619720458984,75.78720092773438,156.0454559326172,-79.66173553466797
3178,-83.18659210205078,88.09895324707031,182.5650787353516,-67.83991241455078
3179,-100.34151458740234,82.42178344726562,157.45166015625,-92.20536041259766
3180,-105.82047271728516,74.06684875488281,156.2212371826172,-83.97384643554688
3181,-104.20109558105469,77.44397735595703,155.61911010742188,-98.17050170898438
3182,-66.43932342529297,97.17568969726562,187.7261505126953,-77.10364532470703
3183,-91.3545379638672,84.65824890136719,168.96307373046875,-82.66861724853516
3184,-103.21376037597656,71.75933074951172,152.58978271484375,-88.5813980102539
3185,-91.6200714111328,79.63555908203125,160.63430786132812,-85.76899719238281
3186,-85.46793365478516,99.02693939208984,181.42816162109372,-72.28665924072266
3187,-97.45057678222656,74.73255157470703,161.2700958251953,-81.55786895751953
3188,-116.29966735839844,63.89057922363281,134.09597778320312,-98.51831817626952
3189,-102.24886322021484,79.65425872802734,149.59413146972656,-80.01329040527344
3190,-83.1117935180664,89.6846694946289,173.87730407714844,-68.23634338378906
3191,-104.80695343017578,82.94537353515625,158.50631713867188,-71.81916809082031
3192,-120.47339630126952,45.6286506652832,132.74588012695312,-104.04214477539062
3193,-98.7258758544922,72.86634063720703,152.97874450683594,-83.37171936035156
3194,-82.35633850097656,109.85021209716795,186.63409423828125,-66.74786376953125
3195,-105.85787200927734,87.4781265258789,167.76255798339844,-84.17953491210938
3196,-110.04281616210938,79.94223022460938,150.4617919921875,-95.7657470703125
3197,-101.9758529663086,84.95369720458984,156.80465698242188,-96.0873794555664
3198,-92.5849609375,100.6201400756836,177.93508911132812,-81.12030029296875
3199,-105.63721466064452,88.31212615966797,162.6688232421875,-95.0663833618164
3200,-97.85074615478516,77.6010513305664,155.19650268554688,-88.89555358886719
3201,-108.782470703125,68.05309295654297,158.7344512939453,-82.72845458984375
3202,-75.34028625488281,85.34638977050781,195.2171630859375,-54.02472305297852
3203,-97.4430923461914,67.74641418457031,168.24501037597656,-77.0325927734375
3204,-101.96463012695312,77.61601257324219,157.75833129882812,-73.24407196044922
3205,-105.6895751953125,80.09556579589844,160.56324768066406,-82.74715423583984
3206,-84.36466217041016,94.18750762939452,181.34588623046875,-62.35722351074219
3207,-95.4123306274414,82.4367446899414,170.8479766845703,-74.29124450683594
3208,-118.43888854980469,50.2062873840332,144.39566040039062,-89.90532684326172
3209,-104.62744140625,64.70961761474611,169.7559356689453,-69.05164337158203
3210,-86.09623718261719,104.97338104248048,191.58572387695312,-65.42768096923828
3211,-102.85472869873048,80.49573516845703,163.14004516601562,-92.24275970458984
3212,-105.40160369873048,71.59477233886719,158.46142578125,-78.66692352294922
3213,-103.43441009521484,65.02002716064453,150.97789001464844,-92.3923568725586
3214,-79.20547485351562,94.70549011230469,174.43267822265625,-68.36911010742189
3215,-90.53736877441406,72.00055694580078,160.17617797851562,-86.43283081054688
3216,-117.11309814453124,57.059654235839844,145.0220947265625,-84.41328430175781
3217,-99.25133514404295,78.51171875,160.1200714111328,-78.84457397460938
3218,-84.3440933227539,92.1399154663086,194.3251953125,-59.80099868774414
3219,-84.22441864013672,84.39458465576172,173.0601348876953,-74.12855529785156
3220,-103.76539611816406,66.91802978515625,158.32492065429688,-77.00080108642578
3221,-107.05650329589844,67.75950622558594,152.41213989257812,-82.76024627685547
3222,-75.80963897705078,97.60391235351562,188.76397705078125,-57.72161483764648
3223,-107.11260223388672,70.58686828613281,162.04986572265625,-74.35295104980469
3224,-117.40106964111328,60.6050796508789,145.52325439453125,-83.10057830810547
3225,-102.76683807373048,70.10442352294922,158.7699737548828,-86.99007415771484
3226,-77.95260620117188,93.83782958984376,186.52377319335938,-67.04892730712889
3227,-94.12767028808594,78.64635467529297,157.4909210205078,-91.47795104980469
3228,-112.3671646118164,64.20660400390625,147.01547241210938,-95.43850708007812
3229,-98.91474151611328,76.90730285644531,159.21876525878906,-86.57494354248047
3230,-83.17724609375,98.93531036376952,184.8071594238281,-75.38516235351562
3231,-96.97373962402344,70.10442352294922,156.2567596435547,-96.94568634033205
3232,-118.98678588867188,85.12386322021484,143.93753051757812,-96.31364440917969
3233,-102.74813842773438,76.8437271118164,150.98350524902344,-84.00563049316406
3234,-84.43385314941406,98.5837631225586,179.75828552246094,-65.37345123291016
3235,-98.80628967285156,77.24763488769531,170.6778106689453,-73.50773620605469
3236,-95.91160583496094,71.26753234863281,160.41552734375,-77.90211486816406
3237,-92.68781280517578,81.84770965576172,172.51036071777344,-62.16461563110352
3238,-77.32056427001953,95.73770141601562,194.8001708984375,-51.59566116333008
3239,-105.54932403564452,82.3675537109375,161.27944946289062,-87.6482925415039
3240,-104.04588317871094,56.17329788208008,158.5455780029297,-74.9775161743164
3241,-102.09739685058594,86.18973541259766,160.9166717529297,-71.01322174072266
3242,-94.3034439086914,93.19082641601562,167.65223693847656,-71.74250030517578
3243,-97.6095199584961,83.58676147460938,158.19403076171875,-84.86955261230469
3244,-117.3674087524414,74.98499298095703,135.35072326660156,-96.28746795654295
3245,-103.84767150878906,77.47950744628906,158.89712524414062,-80.5200424194336
3246,-90.29053497314452,84.14026641845703,168.2581024169922,-85.2771987915039
3247,-95.65728759765624,102.79115295410156,167.13612365722656,-89.95207214355469
3248,-115.37030029296876,95.5918426513672,143.1932830810547,-105.40160369873048
3249,-94.85321044921876,94.3053207397461,161.77685546875,-90.82720947265624
3250,-73.43480682373047,101.37372589111328,179.1561737060547,-79.02034759521484
3251,-86.59551239013672,100.75664520263672,162.47994995117188,-86.53754425048828
3252,-100.64631652832031,75.04483032226562,148.6872100830078,-91.3769760131836
3253,-97.77781677246094,79.99272155761719,160.3295135498047,-81.5821762084961
3254,-78.9997787475586,105.4502182006836,178.3446044921875,-70.74394989013672
3255,-86.18038177490234,93.69197082519531,167.5774383544922,-74.94385528564453
3256,-106.00933074951172,74.6334457397461,146.99302673339844,-78.32098388671875
3257,-102.62472534179688,91.9604034423828,160.3706512451172,-72.74853515625
3258,-86.24396514892578,102.3012237548828,174.88145446777344,-68.72066497802734
3259,-93.1178970336914,94.47735595703124,168.17208862304688,-63.30902481079102
3260,-111.42096710205078,71.49192810058594,150.3626708984375,-78.26488494873047
3261,-109.7791519165039,70.83744812011719,150.75537109375,-80.86412048339844
3262,-82.5601577758789,104.80695343017578,185.0913848876953,-59.37091064453125
3263,-101.21478271484376,92.44658660888672,166.70603942871094,-76.72779083251953
3264,-113.33580017089844,89.5145034790039,141.49537658691406,-99.791748046875
3265,-99.23263549804688,101.26152801513672,147.9915771484375,-99.90394592285156
3266,-94.49417877197266,116.99903106689452,169.92984008789062,-100.18817901611328
3267,-96.81291961669922,105.20338439941406,156.87010192871094,-96.60909271240234
3268,-112.19886779785156,81.18574523925781,129.87924194335938,-116.3744659423828
3269,-104.73028564453124,92.8878936767578,138.55581665039062,-94.5110092163086
3270,-81.21753692626953,102.83229064941406,169.50347900390625,-78.88197326660156
3271,-91.09835052490234,92.7420425415039,155.2918701171875,-84.82093048095703
3272,-107.85310363769531,81.0174560546875,136.85041809082028,-93.347900390625
3273,-109.22564697265624,93.2244873046875,153.12646484375,-72.8532485961914
3274,-94.1800308227539,107.35009002685548,171.30238342285156,-67.26210021972656
3275,-98.55945587158205,107.49594116210938,171.50059509277344,-59.55416870117188
3276,-120.23217010498048,86.87413787841797,148.4927215576172,-81.99730682373047
3277,-107.45293426513672,83.82238006591797,159.3496551513672,-75.87509155273438
3278,-88.08399200439453,109.96054077148438,176.08197021484375,-70.52703094482422
3279,-105.05940246582031,82.74154663085938,157.47970581054688,-84.36092376708984
3280,-104.67418670654295,71.57046508789062,150.38137817382812,-88.60196685791016
3281,-98.06952667236328,86.98633575439453,163.6468048095703,-85.02288818359375
3282,-86.39356231689453,114.2240219116211,182.34255981445312,-77.55056762695312
3283,-97.84139251708984,112.62334442138672,167.4989013671875,-91.38445281982422
3284,-113.96784210205078,84.04676818847656,136.93643188476562,-113.96223449707031
3285,-102.48260498046876,98.36310577392578,156.53350830078125,-94.63442993164062
3286,-78.51732635498047,108.94328308105469,180.13601684570312,-85.3968734741211
3287,-96.85779571533205,101.77389526367188,169.9672393798828,-85.12760162353516
3288,-103.35400390625,78.9530258178711,145.7513885498047,-105.6895751953125
3289,-96.6296615600586,81.60836029052734,149.78672790527344,-87.70065307617188
3290,-85.84005737304688,97.61138916015624,172.4991455078125,-77.00080108642578
3291,-93.353515625,78.44440460205078,155.8827667236328,-79.12132263183594
3292,-107.77830505371094,72.8943862915039,141.19244384765625,-83.26887512207031
3293,-102.6135025024414,85.10142517089844,155.7182159423828,-87.06861114501953
3294,-92.65789031982422,102.02821350097656,176.12310791015625,-71.39469146728516
3295,-99.6028823852539,92.23341369628906,161.9862823486328,-83.8298568725586
3296,-109.57345581054688,84.27864837646484,146.98928833007812,-87.1396713256836
3297,-109.3303680419922,86.2009506225586,150.4000701904297,-84.34596252441406
3298,-101.58502960205078,101.74771881103516,160.40057373046875,-80.03759765625
3299,-105.19029235839844,104.05523681640624,153.51541137695312,-86.90779876708984
3300,-114.54004669189452,80.90899658203125,130.41778564453122,-111.52755737304688
3301,-116.5221939086914,97.85822296142578,145.43722534179688,-97.83204650878906
3302,-102.6509017944336,133.0731201171875,178.75225830078125,-74.4576644897461
3303,-114.53630828857422,112.67570495605469,146.27496337890625,-103.67002868652344
3304,-113.9117431640625,91.81828308105469,137.02993774414062,-106.60211181640624
3305,-100.27606964111328,101.68788146972656,153.06288146972656,-98.2434310913086
3306,-74.26132202148438,116.87935638427734,177.30491638183594,-80.26573181152344
3307,-79.17555236816406,87.62959289550781,159.58900451660156,-95.64046478271484
3308,-93.42082977294922,64.86482238769531,146.3460235595703,-90.7000503540039
3309,-100.77721405029295,74.62222290039062,145.22779846191406,-88.8114013671875
3310,-87.12657928466797,106.9573974609375,169.993408203125,-76.37623596191406
3311,-95.4067153930664,92.51764678955078,161.683349609375,-68.22325134277344
3312,-110.1007843017578,75.12711334228516,144.83135986328125,-79.64865112304688
3313,-99.91329956054688,93.6695327758789,155.53121948242188,-80.72947692871094
3314,-90.75801849365234,116.64373779296876,179.65357971191406,-72.31844329833984
3315,-111.2601547241211,90.32606506347656,154.74209594726562,-92.62984466552734
3316,-116.38381958007812,81.33908081054688,144.2329864501953,-97.08406066894531
3317,-111.49950408935548,100.0685043334961,149.6782684326172,-92.71585845947266
3318,-91.2516860961914,121.46073150634766,175.1245574951172,-81.47746276855469
3319,-101.62991333007812,117.77318572998048,163.61314392089844,-87.9063491821289
3320,-110.44485473632812,80.59484100341797,136.99253845214844,-107.56700134277344
3321,-117.17293548583984,96.24258422851562,156.84767150878906,-88.72538757324219
3322,-95.25711822509766,121.00072479248048,170.6366729736328,-81.85519409179688
3323,-106.34966278076172,111.99130249023438,154.92909240722656,-92.55130767822266
3324,-113.58263397216795,93.08985137939452,139.0943603515625,-92.63358306884766
3325,-103.5746612548828,88.97969818115234,148.91159057617188,-80.62850189208984
3326,-87.94935607910156,113.39002990722656,169.74658203125,-68.87400054931639
3327,-98.21912384033205,102.14414978027344,158.6764678955078,-77.66650390625
3328,-107.9129409790039,90.26248168945312,138.10702514648438,-87.20698547363281
3329,-98.06578826904295,94.0098648071289,154.8542938232422,-75.1383285522461
3330,-85.25289154052734,87.5211410522461,171.93067932128906,-60.37320327758789
3331,-99.53182983398438,81.79161071777344,146.66766357421875,-86.5225830078125
3332,-108.92271423339844,83.8335952758789,134.382080078125,-89.97825622558594
3333,-110.65802764892578,83.3249740600586,141.44302368164062,-83.22399139404297
3334,-86.32624053955078,119.87501525878906,168.0972900390625,-69.76782989501953
3335,-96.66706085205078,108.07189178466795,156.69058227539062,-94.98971557617188
3336,-104.78638458251952,101.48592376708984,140.36965942382812,-105.30062103271484
3337,-104.14312744140624,90.5915985107422,153.01800537109375,-105.40534210205078
3338,-83.73822784423828,122.96791076660156,177.5854034423828,-84.56661987304688
3339,-100.21248626708984,108.04570770263672,163.80014038085938,-93.11976623535156
3340,-116.92610168457031,81.4213638305664,141.93667602539062,-113.17311096191406
3341,-101.56259155273438,103.67750549316406,155.39283752441406,-94.50353240966795
3342,-89.28076171875,115.59282684326172,170.5469207763672,-86.97137451171875
3343,-99.93573760986328,100.24801635742188,153.65753173828125,-88.605712890625
3344,-117.5843276977539,83.39602661132812,141.2223663330078,-86.94893646240234
3345,-108.39539337158205,91.6986083984375,141.26724243164062,-90.26622772216795
3346,-94.5016632080078,107.0396728515625,159.55535888671875,-76.05460357666016
3347,-99.5617446899414,87.10601043701172,149.53990173339844,-81.05859375
3348,-112.33350372314452,76.03216552734375,127.42213439941406,-95.74517822265624
3349,-107.0265884399414,60.58638000488281,132.97962951660156,-87.6071548461914
3350,-86.85356903076172,105.4502182006836,164.82113647460938,-66.53282165527344
3351,-99.06433868408205,110.813232421875,154.0913543701172,-82.39747619628906
3352,-114.96265411376952,77.48324584960938,123.78321075439452,-104.42922973632812
3353,-95.28704071044922,105.4913558959961,146.87709045410156,-86.69087982177734
3354,-90.4289093017578,119.8450927734375,171.24627685546875,-77.05690002441406
3355,-98.93344116210938,91.70608520507812,149.02752685546875,-104.53020477294922
3356,-107.20236206054688,87.49495697021484,147.4006805419922,-91.75470733642578
3357,-102.41155242919922,86.5225830078125,155.0375518798828,-90.24378967285156
3358,-91.21428680419922,110.60379791259766,178.06411743164062,-87.31918334960938
3359,-84.6806869506836,98.86051177978516,174.8253631591797,-88.56082916259766
3360,-97.168212890625,89.5107650756836,155.57235717773438,-100.38639831542969
3361,-102.38536834716795,98.58002471923828,161.2345733642578,-95.86859893798828
3362,-79.66173553466797,114.33621978759766,180.2182922363281,-80.76313781738281
3363,-98.92596435546876,103.05294036865234,165.1165771484375,-97.77220153808594
3364,-110.1194839477539,86.30567169189453,142.53506469726562,-98.97645568847656
3365,-101.28209686279295,93.50872039794922,157.4086456298828,-84.61897277832031
3366,-90.75428009033205,119.34768676757812,169.03599548339844,-74.84661865234375
3367,-113.62377166748048,73.81814575195312,147.7896270751953,-92.34934997558594
3368,-114.86167907714844,81.36900329589844,130.93763732910156,-101.3774642944336
3369,-95.65728759765624,93.0262680053711,148.99761962890625,-82.45731353759766
3370,-84.56100463867188,131.22935485839844,173.07135009765625,-73.85928344726562
3371,-104.19548034667969,100.65567016601562,146.71627807617188,-92.25959014892578
3372,-112.97676849365234,80.8603744506836,132.59066772460938,-98.53888702392578
3373,-106.89195251464844,104.93785095214844,146.05430603027344,-89.92589569091797
3374,-80.83606719970703,122.62384033203124,166.96409606933594,-79.68605041503906
3375,-95.10004425048828,107.55204010009766,152.94320678710938,-85.53150939941406
3376,-116.6231689453125,92.2259292602539,138.29776000976562,-93.9649887084961
3377,-105.89339447021484,110.82819366455078,155.52748107910156,-83.45586395263672
3378,-82.32454681396484,119.88623046875,181.4150695800781,-63.86627197265625
3379,-96.8727569580078,97.22991943359376,157.7415008544922,-94.56710815429688
3380,-109.6557388305664,91.8818588256836,140.51177978515622,-103.4867706298828
3381,-97.86383056640624,98.79319763183594,147.4044189453125,-95.70030212402344
3382,-83.67091369628906,121.12787628173828,165.99545288085938,-82.39373779296875
3383,-100.38826751708984,106.8564224243164,137.66571044921878,-102.4395980834961
3384,-118.4033660888672,65.01815795898439,129.12753295898438,-99.81793212890624
3385,-83.26700592041016,101.99081420898438,154.62242126464844,-78.60895538330078
3386,-89.5575180053711,120.06575012207031,163.2989959716797,-79.74588775634766
3387,-104.81256866455078,101.5345458984375,151.02838134765625,-87.3453598022461
3388,-118.5679168701172,92.42414855957031,129.32948303222656,-95.30760955810548
3389,-112.81969451904295,100.80152130126952,142.41912841796875,-91.70608520507812
3390,-81.59526824951172,128.876953125,167.22962951660156,-76.5033950805664
3391,-107.06024932861328,99.286865234375,152.89833068847656,-87.93252563476562
3392,-114.70085906982422,90.46817779541016,137.83775329589844,-99.3242645263672
3393,-110.31769561767578,112.42513275146484,144.65933227539062,-98.53140258789062
3394,-81.10907745361328,124.25069427490234,170.46090698242188,-80.76313781738281
3395,-100.7061538696289,108.18034362792969,154.58502197265625,-107.56700134277344
3396,-113.44425201416016,106.5385284423828,134.83460998535156,-109.56037139892578
3397,-92.44097900390624,108.92832946777344,159.312255859375,-91.92300415039062
3398,-85.04719543457031,136.28195190429688,170.68528747558594,-85.46793365478516
3399,-95.81810760498048,98.87921142578124,145.12681579589844,-100.0872039794922
3400,-111.16291809082031,87.079833984375,129.95030212402344,-99.99744415283205
3401,-96.59600830078124,93.46758270263672,149.5997314453125,-84.72369384765625
3402,-89.10872650146484,105.09867095947266,154.04273986816406,-94.56336975097656
3403,-97.08592987060548,96.22388458251952,148.5450897216797,-93.5835189819336
3404,-101.49901580810548,91.48543548583984,137.68815612792972,-91.8033218383789
3405,-102.43025207519531,88.88993835449219,146.1328582763672,-83.86725616455078
3406,-93.61156463623048,106.9798355102539,159.72738647460938,-81.55226135253906
3407,-113.4704360961914,106.81902313232422,152.4420623779297,-85.52403259277344
3408,-112.33350372314452,81.88884735107422,145.826171875,-88.34017944335938
3409,-107.48285675048828,109.1602020263672,151.69033813476562,-80.31060791015625
3410,-103.0361099243164,130.26071166992188,168.71810913085938,-78.17512512207031
3411,-117.57684326171876,103.5428695678711,149.10606384277344,-98.14993286132812
3412,-127.55490112304688,93.95750427246094,127.87840270996094,-107.58570098876952
3413,-112.56163787841795,109.1041030883789,148.19354248046875,-91.3358383178711
3414,-97.97976684570312,118.94377899169922,169.2828369140625,-77.52438354492188
3415,-105.11175537109376,103.08847045898438,153.78842163085938,-89.83987426757812
3416,-114.05011749267578,87.72496032714844,130.32803344726562,-108.89466857910156
3417,-95.77696990966795,106.83211517333984,145.86732482910156,-90.1689910888672
3418,-81.43819427490234,110.1157455444336,168.8041229248047,-82.25535583496094
3419,-89.44905853271484,93.86962127685548,159.8956756591797,-94.0884017944336
3420,-106.28982543945312,86.32624053955078,142.15733337402344,-104.03279876708984
3421,-101.61869049072266,87.3547134399414,148.10751342773438,-96.10047149658205
3422,-78.5397720336914,111.581787109375,180.0836639404297,-70.14556121826172
3423,-96.74934387207031,96.27437591552734,161.50010681152344,-83.58302307128906
3424,-107.69229125976562,79.31766510009766,148.66476440429688,-97.09528350830078
3425,-104.08702850341795,92.81122589111328,155.98374938964844,-81.35778045654297
3426,-98.51083374023438,122.09090423583984,176.50831604003906,-72.18754577636719
3427,-108.2532730102539,86.88722229003906,152.8235321044922,-96.2538070678711
3428,-121.6047134399414,104.80882263183594,146.53675842285156,-89.06198120117188
3429,-103.86263275146484,98.21912384033205,150.91244506835938,-81.17826843261719
3430,-98.7539291381836,125.93926239013672,160.6773223876953,-91.22364044189452
3431,-100.61265563964844,101.63365173339844,154.51022338867188,-91.48917388916016
3432,-102.21707916259766,73.43854522705078,140.68756103515622,-95.92095184326172
3433,-82.33576965332031,109.64825439453124,164.67527770996094,-70.34751892089844
3434,-83.25578308105469,101.91788482666016,169.51097106933594,-87.61089324951172
3435,-101.11380767822266,99.0718231201172,156.86636352539062,-96.11542510986328
3436,-111.66780090332031,95.48899841308594,141.6861114501953,-104.4067840576172
3437,-92.6541519165039,102.03382110595705,160.13504028320312,-89.63043975830078
3438,-79.3214111328125,125.54283142089844,185.5588836669922,-81.5223388671875
3439,-91.58080291748048,91.91738891601562,162.9474334716797,-88.52716827392578
3440,-116.8774871826172,76.00037384033203,138.88491821289062,-104.15995025634766
3441,-100.14517211914062,75.05044555664062,153.52288818359375,-82.62187194824219
3442,-89.9015884399414,106.97048950195312,170.32252502441406,-67.03396606445311
3443,-98.63050842285156,97.88626861572266,157.97337341308594,-78.39204406738281
3444,-115.39274597167969,81.01932525634766,145.12307739257812,-84.42449951171875
3445,-107.43049621582031,100.8632354736328,157.281494140625,-71.9631576538086
3446,-97.7104949951172,109.49118041992188,170.69651794433594,-72.26234436035156
3447,-117.51326751708984,98.18172454833984,153.56028747558594,-86.25704956054688
3448,-127.29684448242188,77.9787826538086,132.59440612792972,-97.27479553222656
3449,-113.19741821289062,105.04444122314452,144.96226501464844,-85.85314178466797
3450,-91.8874740600586,109.92127227783205,170.20285034179688,-73.3132553100586
3451,-94.37450408935548,95.63484954833984,156.0996856689453,-86.99381256103516
3452,-116.16316223144531,83.92522430419922,147.20620727539062,-95.42728424072266
3453,-106.3010482788086,83.96636199951172,151.2565155029297,-100.53973388671876
3454,-82.01787567138672,114.55874633789062,172.77589416503906,-87.18828582763672
3455,-87.86708068847656,104.61434936523438,162.39767456054688,-95.90225219726562
3456,-110.91234588623048,85.4885025024414,138.66801452636722,-108.7637710571289
3457,-100.2573699951172,78.54351043701172,145.22032165527344,-97.18504333496094
3458,-86.74137115478516,97.8937530517578,169.77276611328125,-76.27899932861328
3459,-97.32528686523438,117.65164184570312,165.2549591064453,-71.49940490722656
3460,-127.41278076171876,74.9270248413086,135.47039794921878,-92.3605728149414
3461,-108.66466522216795,82.9603271484375,151.99327087402344,-80.00393676757812
3462,-85.03223419189453,103.1520538330078,181.2280731201172,-60.47044372558594
3463,-111.75008392333984,88.50659942626953,160.46788024902344,-78.56407928466797
3464,-119.29719543457031,66.71794891357422,141.75343322753906,-80.90899658203125
3465,-109.22938537597656,96.35665130615234,148.82183837890625,-85.72224426269531
3466,-105.9644546508789,113.5489730834961,170.95455932617188,-74.45018768310547
3467,-114.81305694580078,105.9233169555664,163.06712341308594,-92.06885528564452
3468,-121.00633239746094,93.72376251220705,141.2896728515625,-100.82770538330078
3469,-110.36631774902344,91.67803955078124,151.95587158203125,-95.19915008544922
3470,-94.85694885253906,122.57708740234376,165.76358032226562,-91.46673583984376
3471,-105.6802215576172,106.0205535888672,153.2536163330078,-101.8935775756836
3472,-113.2909164428711,80.15166473388672,136.16227722167972,-99.57109832763672
3473,-96.19583892822266,97.78155517578124,153.07411193847656,-78.20878601074219
3474,-85.16313171386719,92.28015899658205,167.51385498046875,-70.18296051025389
3475,-98.44351959228516,87.56788635253906,148.32069396972656,-77.0868148803711
3476,-112.18765258789062,52.26697158813477,126.71903228759766,-85.13882446289062
3477,-99.17279815673828,82.32080841064453,138.58198547363278,-79.30831909179688
3478,-102.2058563232422,89.6846694946289,154.72340393066406,-65.94565582275389
3479,-103.21936798095705,80.29378509521484,142.60238647460938,-83.44464874267578
3480,-114.95891571044922,67.94837188720703,130.82170104980472,-83.4109878540039
3481,-111.67528533935548,88.435546875,144.80145263671875,-74.4165267944336
3482,-103.5896224975586,105.24639129638672,157.64425659179688,-77.58796691894531
3483,-109.1171875,95.0663833618164,145.01461791992188,-91.50413513183594
3484,-139.1710205078125,84.69564056396484,122.8145751953125,-104.92288970947266
3485,-117.96953582763672,88.28221130371094,136.341796875,-94.77654266357422
3486,-95.2795639038086,126.64610290527344,164.6565704345703,-79.3157958984375
3487,-109.7380142211914,99.4196319580078,152.44580078125,-93.25440216064452
3488,-108.95263671875,97.4711456298828,154.734619140625,-92.74951934814452
3489,-99.99557495117188,96.67080688476562,152.67393493652344,-92.55878448486328
3490,-83.68961334228516,115.26184844970705,181.6880798339844,-73.71342468261719
3491,-92.16422271728516,119.55525207519531,166.0552978515625,-92.8205795288086
3492,-98.80628967285156,99.20271301269531,149.33795166015625,-100.12086486816406
3493,-93.54425048828124,102.8678207397461,149.64088439941406,-95.5918426513672
3494,-82.10763549804688,117.89847564697266,166.76214599609375,-84.11782836914062
3495,-100.88567352294922,90.39524841308594,144.2142791748047,-102.61163330078124
3496,-109.8988265991211,85.1855697631836,126.67041015625,-102.49195861816406
