,T7,F8,Cz,P4
9000,-260.32321166992193,137.11221313476562,163.4822540283203,-19.024871826171875
9001,-259.702392578125,135.13754272460938,160.59130859375,-17.768264770507812
9002,-279.11996459960943,114.71021270751952,134.52046203613278,-42.982669830322266
9003,-274.35159301757807,127.54180908203124,140.17518615722656,-41.606388092041016
9004,-250.1955718994141,136.1248779296875,156.260498046875,-30.569942474365234
9005,-260.11376953125,134.83834838867188,140.24998474121094,-35.211158752441406
9006,-274.81533813476557,112.18577575683594,123.60369110107422,-50.41011047363281
9007,-267.8329467773437,117.61237335205078,132.76271057128906,-38.31901550292969
9008,-251.16046142578125,140.39210510253906,154.37559509277344,-20.33009529113769
9009,-259.04791259765625,133.31620788574222,142.0601043701172,-32.039722442626946
9010,-272.99774169921875,110.39436340332031,126.13560485839844,-46.43459701538086
9011,-261.217041015625,114.9084243774414,142.98011779785156,-34.8895263671875
9012,-242.0762481689453,140.7473907470703,164.25267028808594,-15.210172653198242
9013,-256.57208251953125,131.02365112304688,154.51022338867188,-29.47041130065918
9014,-271.744873046875,113.06839752197266,130.96382141113278,-53.517967224121094
9015,-261.733154296875,125.64193725585938,148.17857360839844,-41.32963562011719
9016,-250.61444091796875,148.126220703125,170.0831756591797,-19.8775691986084
9017,-258.53179931640625,135.59007263183594,153.19752502441406,-30.76441764831543
9018,-281.7378845214844,114.8672866821289,142.6884002685547,-44.4038314819336
9019,-280.4476318359375,118.13221740722656,144.16940307617188,-36.22093200683594
9020,-259.186279296875,147.05287170410156,162.03115844726562,-12.04247760772705
9021,-271.13153076171875,134.0118408203125,143.64955139160156,-23.314537048339844
9022,-285.6498107910156,116.99154663085938,125.25672912597656,-37.499977111816406
9023,-283.89581298828125,130.156005859375,132.99458312988278,-37.918846130371094
9024,-258.37100219726557,146.589111328125,156.61953735351562,-16.848249435424805
9025,-260.80941772460943,122.19749450683594,150.22804260253906,-23.94657897949219
9026,-288.3575134277344,104.43296813964844,111.70333099365234,-42.4067268371582
9027,-281.9735107421875,122.0740737915039,119.10833740234376,-34.9306640625
9028,-257.67535400390625,129.74835205078122,138.630615234375,-23.699745178222656
9029,-267.35049438476557,131.60708618164062,129.69598388671878,-24.97879219055176
9030,-279.47897338867193,117.2122039794922,122.1376495361328,-44.94611740112305
9031,-290.17510986328125,121.46073150634766,129.74087524414062,-36.81183624267578
9032,-264.35107421875,147.43434143066406,152.64401245117188,-19.24178504943848
9033,-267.26821899414057,130.320556640625,142.12741088867188,-27.48078536987305
9034,-294.36004638671875,114.0220718383789,119.53094482421876,-40.41709899902344
9035,-282.57562255859375,128.68995666503906,129.92037963867188,-33.438446044921875
9036,-264.17532348632807,146.91448974609375,150.35519409179688,-19.73919105529785
9037,-265.19256591796875,142.72206115722656,141.5888671875,-38.031044006347656
9038,-290.1825866699219,130.67958068847656,115.08794403076172,-67.19478607177734
9039,-283.74993896484375,132.26530456542972,121.55422973632812,-59.96929550170898
9040,-262.22683715820307,156.17074584960938,139.96575927734378,-37.47379684448242
9041,-276.827392578125,149.6782684326172,130.48136901855472,-36.26955032348633
9042,-300.1456604003906,123.80938720703124,103.1464385986328,-56.28549575805664
9043,-283.7424621582031,137.01870727539062,111.20592498779295,-49.6434326171875
9044,-263.2553100585937,151.1630096435547,140.10038757324222,-23.864301681518555
9045,-261.17965698242193,131.8875732421875,132.31391906738278,-27.615421295166016
9046,-273.07626342773443,105.7494125366211,109.80345916748048,-51.46476364135742
9047,-273.06130981445307,118.01254272460938,116.3071517944336,-41.94671630859375
9048,-259.26483154296875,140.97178649902344,140.85958862304688,-15.868395805358887
9049,-269.78143310546875,128.42068481445312,128.46929931640622,-25.89506721496582
9050,-287.8002624511719,111.41909790039062,117.18602752685548,-39.65042114257813
9051,-279.8529663085937,111.834228515625,129.84931945800778,-32.335174560546875
9052,-264.971923828125,136.58114624023438,145.90472412109375,-19.04357147216797
9053,-269.53085327148443,127.7325439453125,134.85331726074222,-26.14937973022461
9054,-289.6627197265625,109.87825775146484,118.59222412109376,-50.43255233764648
9055,-276.2926025390625,128.90313720703122,129.08638000488278,-44.0634994506836
9056,-271.10159301757807,156.9374237060547,147.1463623046875,-28.894466400146484
9057,-261.79299926757807,149.5735626220703,144.90989685058594,-31.03368949890137
9058,-296.76104736328125,122.3882293701172,124.3217544555664,-53.099098205566406
9059,-282.82244873046875,132.53083801269528,139.05322265625,-41.082801818847656
9060,-265.10281372070307,156.55221557617188,158.6727294921875,-23.172420501708984
9061,-256.31405639648443,150.89747619628906,158.5044403076172,-32.970958709716804
9062,-279.65475463867193,118.48003387451172,126.42357635498048,-56.97363662719727
9063,-281.7677917480469,116.78211975097656,131.61456298828122,-49.00016784667969
9064,-252.88455200195312,141.2859344482422,150.38885498046875,-27.36110877990723
9065,-255.5436248779297,118.12847900390624,135.67982482910156,-33.22153091430664
9066,-282.8785400390625,98.76702117919922,114.27264404296876,-52.25014114379883
9067,-274.01126098632807,111.60609436035156,128.72361755371094,-44.703025817871094
9068,-247.92544555664062,139.3935546875,153.1227264404297,-25.24806404113769
9069,-262.3016357421875,120.17794799804688,138.89988708496094,-31.029949188232425
9070,-289.22515869140625,102.99310302734376,116.25479125976562,-44.94985580444336
9071,-277.61651611328125,119.13451385498048,128.94053649902344,-32.83258056640625
9072,-257.60806274414057,139.58055114746094,144.02354431152344,-25.158306121826172
9073,-277.44073486328125,124.93509674072266,131.06852722167972,-31.81532859802246
9074,-296.06170654296875,117.18976593017578,112.1521224975586,-48.4990234375
9075,-286.0574645996094,124.11231994628906,121.09796142578124,-47.32095336914063
9076,-262.88504028320307,149.1920928955078,140.3621826171875,-31.34410095214844
9077,-277.8895263671875,139.50201416015622,125.88129425048828,-40.701332092285156
9078,-290.99786376953125,115.86583709716795,104.1038589477539,-62.60592651367188
9079,-278.4916381835937,127.2313995361328,110.5888442993164,-56.35281372070313
9080,-245.0419921875,151.56692504882812,141.0877227783203,-33.374866485595696
9081,-266.14248657226557,124.17215728759766,135.83316040039062,-46.44955825805664
9082,-278.08401489257807,110.0689926147461,124.80793762207031,-54.20610809326172
9083,-270.207763671875,119.16817474365234,140.60528564453122,-36.23588943481445
9084,-255.54736328125,137.81904602050778,156.3166046142578,-19.00617218017578
9085,-264.04067993164057,123.34938049316406,146.5853729248047,-27.723878860473636
9086,-288.0770263671875,99.90394592285156,128.92182922363278,-42.33566665649414
9087,-275.08834838867193,111.67715454101562,133.80613708496094,-33.939590454101555
9088,-257.74642944335943,123.28205871582031,159.74234008789062,-13.441200256347654
9089,-263.98831176757807,112.91131591796876,143.85525512695312,-28.62519454956055
9090,-290.066650390625,92.4578094482422,120.8660888671875,-44.81521987915039
9091,-281.11331176757807,96.09298706054688,128.959228515625,-34.27618408203125
9092,-257.00592041015625,125.07347106933594,155.67333984375,-14.447233200073242
9093,-255.04248046875,117.62733459472656,151.1817169189453,-26.815082550048828
9094,-278.26724243164057,98.34815216064452,119.64688110351562,-51.5096435546875
9095,-271.91690063476557,112.35033416748048,130.29811096191406,-40.70881271362305
9096,-253.9766082763672,130.60478210449222,147.05287170410156,-24.20837211608887
9097,-263.9097900390625,122.8183135986328,137.433837890625,-28.77104949951172
9098,-281.82391357421875,99.25694274902344,113.00481414794922,-57.12697219848633
9099,-280.90762329101557,109.62394714355469,122.65375518798828,-43.10234832763672
9100,-257.31259155273443,134.96925354003906,142.79312133789062,-21.560523986816406
9101,-263.0234375,124.64712524414062,142.81556701660156,-26.52337074279785
9102,-275.06588745117193,101.5382843017578,122.5527801513672,-46.62533187866211
9103,-276.311279296875,102.98936462402344,130.13356018066406,-38.38259506225586
9104,-249.79165649414062,118.21075439453124,147.6998748779297,-19.69805335998535
9105,-266.9765014648437,118.04994201660156,141.49537658691406,-27.83981513977051
9106,-279.49395751953125,88.12326049804688,119.05597686767578,-42.53388214111328
9107,-276.27761840820307,105.3268051147461,125.59332275390624,-35.64872741699219
9108,-254.4852294921875,130.38412475585938,145.3624267578125,-21.324909210205078
9109,-264.48199462890625,117.597412109375,141.8020477294922,-27.544363021850586
9110,-284.2698059082031,92.16983795166016,111.31438446044922,-47.80340194702149
9111,-281.14697265625,115.40209197998048,120.42852020263672,-35.79458236694336
9112,-254.5039367675781,136.40910339355472,144.40501403808594,-17.966480255126953
9113,-259.05914306640625,126.07576751708984,139.24021911621094,-27.566802978515625
9114,-274.52734375,106.39641571044922,122.72107696533205,-43.506256103515625
9115,-273.19595336914057,110.72721862792969,125.17071533203124,-34.534236907958984
9116,-245.3748321533203,120.2490005493164,145.93089294433594,-19.922447204589844
9117,-256.99844360351557,113.09457397460938,140.85958862304688,-28.011850357055664
9118,-279.0040283203125,97.22991943359376,110.80201721191406,-49.35171890258789
9119,-271.81967163085943,113.87621307373048,122.30968475341795,-43.57731246948242
9120,-248.4004211425781,128.30848693847656,142.9127960205078,-23.93910026550293
9121,-263.51333618164057,128.45060729980472,140.34722900390622,-32.249156951904304
9122,-280.62713623046875,101.96463012695312,121.82350158691406,-52.01826858520508
9123,-271.57284545898443,114.31752014160156,135.99772644042972,-44.512290954589844
9124,-251.08566284179688,122.67620086669922,154.90292358398438,-29.679845809936523
9125,-263.0645751953125,118.6782455444336,142.62857055664062,-33.184131622314446
9126,-281.81640625,104.26093292236328,125.4250259399414,-51.55451965332031
9127,-272.23104858398443,119.5271987915039,139.46461486816406,-36.84175491333008
9128,-257.671630859375,128.44686889648438,158.79615783691406,-23.98397827148437
9129,-266.23599243164057,121.76740264892578,151.4734344482422,-26.82630157470703
9130,-277.4931030273437,104.02531433105469,129.35566711425778,-44.94611740112305
9131,-278.3270874023437,111.52381896972656,133.82858276367188,-37.99738311767578
9132,-254.02896118164062,125.4212875366211,150.96853637695312,-22.828350067138672
9133,-247.2821807861328,128.52540588378906,155.4526824951172,-21.934513092041016
9134,-269.27655029296875,97.81708526611328,121.11292266845705,-46.1989860534668
9135,-273.19967651367193,97.4655303955078,127.99807739257812,-37.59721374511719
9136,-247.7496795654297,132.74026489257812,153.65753173828125,-13.609496116638185
9137,-255.4015045166016,118.54360961914062,137.06733703613278,-23.08266258239746
9138,-284.19873046875,89.110595703125,109.49304962158205,-45.75767517089844
9139,-268.693115234375,98.46782684326172,122.30220794677734,-35.39815139770508
9140,-247.1924285888672,130.13729858398438,142.7893829345703,-20.326356887817386
9141,-263.81253051757807,115.2898941040039,135.42926025390622,-31.201984405517575
9142,-280.73184204101557,99.3280029296875,113.33393096923828,-49.093666076660156
9143,-278.74969482421875,105.61851501464844,126.81253051757812,-42.649818420410156
9144,-262.47738647460943,132.90483093261722,147.5839385986328,-22.1663875579834
9145,-261.49380493164057,129.68476867675778,141.25228881835938,-28.116567611694336
9146,-293.33905029296875,110.85811614990234,120.32379913330078,-46.12418746948242
9147,-281.5882873535156,117.68717193603516,126.84992980957031,-43.599754333496094
9148,-262.70925903320307,143.7916717529297,153.74354553222656,-21.179054260253906
9149,-258.77114868164057,122.66497802734376,145.239013671875,-24.58236312866211
9150,-275.22299194335943,100.4312744140625,129.70721435546878,-38.00112533569336
9151,-272.24227905273443,111.18722534179688,134.0118408203125,-28.25494384765625
9152,-248.8865966796875,124.9425811767578,146.8097686767578,-12.551104545593262
9153,-255.3678436279297,111.71829223632812,140.67633056640622,-21.066856384277344
9154,-270.1815795898437,92.00901794433594,119.8637924194336,-35.098960876464844
9155,-271.49057006835943,95.81623840332031,127.6502685546875,-27.61168098449707
9156,-249.37278747558597,135.57511901855472,155.2095947265625,-12.31549072265625
9157,-259.32467651367193,119.01109313964844,138.08084106445312,-28.258684158325195
9158,-273.7344970703125,92.2221908569336,123.89166259765624,-51.17304992675781
9159,-278.92547607421875,116.02291870117188,128.71240234375,-43.1883659362793
9160,-257.67535400390625,134.84208679199222,147.8232879638672,-28.116567611694336
9161,-271.2811279296875,119.7216796875,134.72988891601562,-32.387535095214844
9162,-285.79193115234375,100.4275360107422,119.65435791015624,-47.73982238769531
9163,-283.6302795410156,113.15814971923828,126.01593017578124,-47.78096008300781
9164,-264.07058715820307,139.60298156738278,141.92172241210938,-24.803016662597656
9165,-262.2118530273437,123.44661712646484,142.2321319580078,-30.99255180358887
9166,-290.8258361816406,118.67076873779295,122.67993927001952,-52.75876998901367
9167,-281.4947814941406,120.26022338867188,132.1044921875,-44.130821228027344
9168,-253.3520355224609,144.00111389160156,154.3531494140625,-26.45605278015137
9169,-270.60418701171875,131.85391235351562,142.46400451660156,-34.82594680786133
9170,-284.01922607421875,115.38713073730469,118.84280395507812,-48.25218963623047
9171,-271.63265991210943,123.85426330566406,126.90228271484376,-44.168216705322266
9172,-255.66329956054688,132.48222351074222,149.16590881347656,-23.96901893615723
9173,-266.84933471679693,125.59332275390624,138.54084777832028,-22.31972312927246
9174,-273.49887084960943,103.28855895996094,124.7406234741211,-31.61337471008301
9175,-273.51010131835943,102.77619171142578,124.00760650634766,-31.38898086547852
9176,-246.732421875,122.44432830810548,141.177490234375,-16.3209228515625
9177,-265.43191528320307,109.69500732421876,123.9141082763672,-30.936452865600586
9178,-278.89556884765625,96.6165771484375,109.13401794433594,-43.47633743286133
9179,-279.12744140625,103.87197875976562,118.88394165039062,-39.80001449584961
9180,-253.9018096923828,131.02738952636722,140.47811889648438,-20.015945434570312
9181,-265.15890502929693,127.85595703125,140.7586212158203,-29.15999984741211
9182,-291.1399841308594,102.00576782226562,115.67884826660156,-52.26510238647461
9183,-280.78421020507807,118.2593765258789,126.32633972167969,-50.29417419433594
9184,-256.22427368164057,141.2073974609375,155.77430725097656,-32.196800231933594
9185,-256.0111083984375,128.86573791503906,145.0183563232422,-39.14179229736328
9186,-283.87335205078125,109.3060531616211,125.38014221191406,-63.79521179199219
9187,-269.31768798828125,124.54988861083984,134.88322448730472,-54.06399536132813
9188,-249.43637084960938,134.04924011230472,156.95237731933594,-31.261823654174805
9189,-252.0655212402344,131.95863342285156,155.30308532714844,-22.3421630859375
9190,-271.83462524414057,106.2580337524414,134.87948608398438,-36.88289260864258
9191,-263.69287109375,104.84435272216795,143.34288024902344,-24.76935768127441
9192,-258.53555297851557,121.89081573486328,156.83270263671875,-0.9499346017837524
9193,-257.49960327148443,119.39630889892578,147.80084228515625,-14.121862411499025
9194,-277.78106689453125,93.60969543457031,127.74375915527344,-34.878307342529304
9195,-272.10391235351557,97.73480224609376,137.59466552734378,-30.47270393371582
9196,-265.29727172851557,127.94197845458984,155.05625915527344,-11.148641586303713
9197,-267.93765258789057,121.40089416503906,145.99073791503906,-21.900854110717773
9198,-287.3514709472656,101.14185333251952,126.40113830566406,-40.78734970092773
9199,-277.77734375,110.76087951660156,129.60997009277344,-33.060714721679695
9200,-267.0325927734375,132.16058349609378,146.929443359375,-23.886741638183594
9201,-265.93679809570307,127.20521545410156,141.36822509765625,-30.67091941833496
9202,-278.364501953125,108.20652770996094,120.21534729003906,-52.30624008178711
9203,-274.37774658203125,116.7895965576172,130.30934143066406,-50.20441818237305
9204,-261.2581787109375,144.1731414794922,144.22549438476562,-34.968063354492195
9205,-264.21646118164057,132.62806701660156,142.96514892578125,-45.0844955444336
9206,-284.21368408203125,124.2581787109375,123.700927734375,-58.6865119934082
9207,-273.09872436523443,118.66702270507812,136.764404296875,-48.73089599609375
9208,-257.45846557617193,129.40054321289062,152.84971618652344,-28.726171493530273
9209,-251.0407867431641,127.72505950927734,147.0079803466797,-36.59492111206055
9210,-274.42263793945307,110.39810943603516,126.9658660888672,-48.13251113891602
9211,-268.89508056640625,112.5597686767578,131.52853393554688,-34.94936370849609
9212,-248.4939117431641,122.63506317138672,150.31031799316406,-19.477399826049805
9213,-253.86441040039062,125.14453125,138.68296813964844,-22.065410614013672
9214,-275.92608642578125,106.36275482177734,123.46157836914062,-41.61760711669922
9215,-277.91195678710943,104.3245086669922,122.3957061767578,-32.006065368652344
9216,-265.37582397460943,126.10942840576172,146.06179809570312,-14.525771141052244
9217,-259.04043579101557,121.68138122558594,145.7925262451172,-20.184240341186523
9218,-284.8382568359375,98.32945251464844,121.07178497314452,-40.75368881225586
9219,-278.09521484375,104.00287628173828,130.05876159667972,-36.90907287597656
9220,-257.7950439453125,134.06045532226562,150.47486877441406,-24.309349060058594
9221,-265.53289794921875,122.1526107788086,139.8572998046875,-34.384639739990234
9222,-275.22299194335943,111.99878692626952,120.2677001953125,-50.8476791381836
9223,-272.77334594726557,117.64229583740234,126.33382415771484,-51.66297912597656
9224,-247.08023071289062,141.5851287841797,153.54159545898438,-26.50467109680176
9225,-251.63168334960938,140.68008422851562,143.78045654296875,-33.588043212890625
9226,-277.0966796875,119.45240783691406,125.8663330078125,-43.132266998291016
9227,-266.58380126953125,122.42936706542969,136.33992004394528,-38.63877487182617
9228,-245.32247924804688,144.67054748535156,156.00057983398438,-18.903324127197266
9229,-257.8212280273437,146.96310424804688,150.7908935546875,-23.810073852539066
9230,-277.04055786132807,120.07322692871094,137.45816040039062,-40.13473510742188
9231,-283.3759460449219,130.11111450195312,135.41242980957028,-35.32148361206055
9232,-256.7852783203125,149.5211944580078,155.21519470214844,-12.85964584350586
9233,-271.98422241210943,143.5074462890625,150.78341674804688,-18.06932640075684
9234,-297.9802551269531,117.092529296875,127.0612335205078,-35.92361068725586
9235,-285.83306884765625,121.99927520751952,131.13398742675778,-35.4710807800293
9236,-261.4339599609375,148.49647521972656,153.94363403320312,-20.070173263549805
9237,-264.85598754882807,132.63555908203122,137.80970764160156,-28.55974578857422
9238,-293.4924011230469,110.60005950927734,116.52967071533205,-45.789466857910156
9239,-282.75140380859375,117.23090362548828,118.530517578125,-45.08262252807617
9240,-260.85055541992193,138.31271362304688,143.09791564941406,-25.88571739196777
9241,-265.70867919921875,124.58728790283205,132.71595764160156,-32.688594818115234
9242,-282.9533386230469,108.00457000732422,117.4459457397461,-53.63577651977539
9243,-287.40008544921875,117.26456451416016,120.50892639160156,-51.32451629638672
9244,-257.1256103515625,132.41490173339844,146.18333435058594,-27.43777656555176
9245,-265.32720947265625,136.49139404296878,140.61088562011722,-27.396636962890625
9246,-275.9522705078125,118.08360290527344,120.87543487548828,-45.88296127319336
9247,-278.49911499023443,115.48436737060548,130.54681396484378,-39.64107131958008
9248,-250.1432037353516,143.21946716308594,157.02157592773438,-20.182369232177734
9249,-255.2631378173828,141.52529907226562,158.12484741210938,-23.163070678710934
9250,-283.4432678222656,115.3272933959961,130.19900512695312,-41.41378402709961
9251,-269.77395629882807,115.85462188720705,132.41302490234378,-34.794158935546875
9252,-261.80795288085943,136.25202941894528,154.11566162109375,-15.701970100402832
9253,-265.36834716796875,130.6085205078125,146.61343383789062,-25.130258560180664
9254,-286.92510986328125,114.07068634033205,130.92828369140622,-42.49461364746094
9255,-289.5281066894531,119.45614624023438,134.129638671875,-36.58930969238281
9256,-253.32960510253903,143.5747528076172,156.80465698242188,-26.577598571777344
9257,-256.58706665039057,135.4442138671875,150.06161499023438,-27.6771297454834
9258,-274.45254516601557,105.91770935058594,129.37248229980472,-45.07514572143555
9259,-264.65774536132807,105.78307342529295,135.49844360351562,-39.46155548095703
9260,-248.9838409423828,133.17036437988278,151.5912322998047,-26.42800331115723
9261,-248.1573181152344,124.12354278564452,150.4131622314453,-28.484947204589844
9262,-274.87515258789057,103.4231948852539,121.27186584472656,-51.167442321777344
9263,-276.5169677734375,108.94328308105469,121.7393569946289,-45.89044189453125
9264,-246.88949584960938,130.47763061523438,141.53089904785156,-20.32074546813965
9265,-259.09652709960943,125.15575408935548,134.71307373046878,-25.14147758483887
9266,-273.49514770507807,104.8667984008789,119.09524536132812,-38.171287536621094
9267,-275.5296630859375,113.3376693725586,119.26728057861328,-34.453826904296875
9268,-253.8045654296875,138.52589416503906,142.81369018554688,-16.629465103149414
9269,-261.41900634765625,128.19255065917972,138.09393310546878,-24.19902229309082
9270,-281.9136657714844,109.1639404296875,115.16835021972656,-49.52936553955078
9271,-272.4666748046875,112.855224609375,126.51146697998048,-32.20615005493164
9272,-258.13162231445307,135.29461669921878,145.37551879882812,-12.130365371704102
9273,-260.371826171875,121.93196105957031,143.47938537597656,-20.57505989074707
9274,-286.7643127441406,103.28107452392578,125.82706451416016,-39.1848030090332
9275,-277.9605712890625,100.39013671875,131.6351318359375,-34.285533905029304
9276,-253.26976013183597,125.4399871826172,153.2592315673828,-13.394452095031738
9277,-257.05453491210943,111.6921157836914,139.28695678710938,-23.638036727905273
9278,-283.7275085449219,96.3173828125,120.39299011230469,-42.17298126220703
9279,-269.09329223632807,108.52067565917969,126.45162963867188,-44.41692352294922
9280,-246.1751708984375,125.7242202758789,150.0242156982422,-22.14955711364746
9281,-253.15008544921875,123.37555694580078,143.4195556640625,-28.84023857116699
9282,-267.43649291992193,99.38410186767578,114.25955200195312,-44.74229431152344
9283,-267.58236694335943,101.88983154296876,122.99595642089844,-35.37010192871094
9284,-249.53733825683597,115.42453002929688,145.47650146484375,-12.493135452270508
9285,-248.95391845703125,123.62612915039062,138.73345947265622,-15.208303451538086
9286,-275.6156616210937,89.36116790771484,117.61050415039062,-41.335243225097656
9287,-273.85043334960943,98.59123992919922,125.26233673095705,-34.457569122314446
9288,-262.19317626953125,124.55362701416016,140.88763427734375,-15.114805221557615
9289,-256.1195678710937,124.49378967285156,148.22158813476562,-16.790281295776367
9290,-279.45654296875,102.96318817138672,123.27271270751952,-41.42126083374024
9291,-281.32275390625,113.02725982666016,126.49650573730469,-42.69656753540039
9292,-249.6308441162109,135.65365600585938,153.5471954345703,-22.022401809692386
9293,-269.69540405273443,122.51164245605469,148.4197998046875,-25.934335708618164
9294,-283.7462158203125,102.6602554321289,121.6421127319336,-49.76498031616211
9295,-271.07916259765625,112.1969985961914,136.7999267578125,-40.856536865234375
9296,-261.65463256835943,128.82833862304688,153.39761352539062,-22.598344802856445
9297,-260.29702758789057,123.1586456298828,147.38011169433594,-31.09539794921875
9298,-273.28945922851557,107.41740417480469,133.17222595214844,-45.44539260864258
9299,-271.47933959960943,107.97090911865234,134.87762451171878,-33.15982437133789
9300,-252.46942138671875,121.47943115234376,152.017578125,-14.624878883361815
9301,-252.9593505859375,123.2596206665039,153.81272888183594,-18.3872184753418
9302,-274.00003051757807,94.97850036621094,120.92405700683594,-35.654335021972656
9303,-274.55728149414057,102.26756286621094,124.36849975585938,-35.889949798583984
9304,-250.28158569335938,118.7455596923828,146.20204162597656,-21.51377487182617
9305,-259.3096923828125,123.26710510253906,136.99440002441406,-25.19757652282715
9306,-281.24795532226557,98.9914093017578,120.4603042602539,-43.15657424926758
9307,-269.55703735351557,108.92832946777344,132.83563232421878,-40.92759704589844
9308,-258.6552124023437,122.4518051147461,151.7670135498047,-25.335952758789066
9309,-264.43710327148443,118.68572235107422,143.19515991210938,-25.212535858154297
9310,-288.4771728515625,101.2129135131836,119.4916763305664,-44.84326934814453
9311,-283.2188720703125,106.22811889648438,130.48324584960938,-37.22883224487305
9312,-262.72048950195307,123.62612915039062,152.30555725097656,-22.437530517578125
9313,-250.711669921875,126.40861511230469,153.57337951660156,-25.44440841674805
9314,-279.81182861328125,93.9462890625,121.64585876464844,-49.75001907348633
9315,-267.84414672851557,106.91252136230469,126.33943176269531,-41.60077667236328
9316,-246.50054931640625,139.76005554199222,150.7460174560547,-27.35175895690918
9317,-253.46798706054688,125.94113159179688,154.32884216308594,-23.686656951904297
9318,-274.52734375,95.69281768798828,127.05001068115234,-39.124961853027344
9319,-265.92184448242193,99.57857513427734,130.13917541503906,-39.62984848022461
9320,-250.89866638183597,132.69538879394528,148.00840759277344,-17.99452781677246
9321,-248.31065368652344,118.86898040771484,144.36949157714844,-18.14412498474121
9322,-269.3363647460937,106.41511535644531,125.23616027832031,-38.04787063598633
9323,-264.9307861328125,108.79368591308594,127.5810775756836,-36.69776916503906
9324,-257.00967407226557,126.74894714355469,148.86111450195312,-19.086580276489254
9325,-262.26797485351557,125.45868682861328,141.9385528564453,-24.479515075683594
9326,-294.95843505859375,115.44322967529295,118.81848907470705,-47.34900283813477
9327,-295.93829345703125,119.66558074951172,119.42061614990234,-48.50837326049805
9328,-272.83319091796875,143.30548095703125,141.8001708984375,-30.51571273803711
9329,-266.72219848632807,145.24649047851562,147.22303771972656,-34.81659698486328
9330,-284.94671630859375,119.98721313476562,124.9369659423828,-50.72239303588867
9331,-273.03887939453125,118.8016586303711,118.87458801269531,-50.53165817260742
9332,-243.2430877685547,132.28399658203122,145.16983032226562,-35.7927131652832
9333,-249.1446533203125,119.6992416381836,143.55418395996094,-38.08526992797852
9334,-265.8994140625,113.60694122314452,122.3227767944336,-51.97151947021485
9335,-257.22659301757807,120.54071807861328,129.49591064453122,-37.6888427734375
9336,-236.4813537597656,142.8716583251953,156.64010620117188,-18.18526268005371
9337,-250.64810180664062,126.33756256103516,147.9149169921875,-16.842639923095707
9338,-278.2410888671875,114.33248138427734,122.31903839111328,-33.62731170654297
9339,-275.2716064453125,115.02062225341795,126.76951599121094,-35.83759307861328
9340,-258.51309204101557,137.90133666992188,150.0728302001953,-9.130966186523438
9341,-263.01968383789057,139.7637939453125,146.84530639648438,-21.52125358581543
9342,-290.19378662109375,110.48786163330078,121.97496795654295,-39.27082061767578
9343,-282.2726745605469,120.09566497802734,129.18174743652344,-39.36805725097656
9344,-264.21646118164057,143.77671813964844,154.36997985839844,-25.455629348754886
9345,-273.41287231445307,135.43299865722656,144.0179443359375,-32.310867309570305
9346,-290.5303955078125,128.90687561035156,125.44185638427734,-47.49485778808594
9347,-288.2378234863281,127.0518798828125,131.82586669921878,-46.57484436035156
9348,-248.1199188232422,149.28558349609375,151.44911193847656,-29.47976112365723
9349,-271.1763916015625,135.79576110839844,140.94747924804688,-40.617183685302734
9350,-278.2186279296875,114.0183334350586,116.29779815673828,-54.32017517089844
9351,-268.8875732421875,117.0551300048828,120.52388763427734,-52.80177688598633
9352,-237.01242065429688,142.13490295410156,150.4542999267578,-28.477468490600586
9353,-240.3783264160156,138.30523681640622,146.5909881591797,-29.412443161010746
9354,-270.11801147460943,115.57412719726562,122.33399963378906,-53.87138748168945
9355,-265.76852416992193,106.91999816894531,123.81874084472656,-49.877174377441406
9356,-254.13742065429688,134.56907653808594,148.22906494140625,-22.81525993347168
9357,-260.48776245117193,124.73688507080078,143.74118041992188,-18.39469718933105
9358,-276.3636474609375,105.0874481201172,123.83744049072266,-35.44490051269531
9359,-282.6354675292969,118.86150360107422,127.42400360107422,-26.110111236572266
9360,-257.8099975585937,130.26071166992188,150.3271484375,-13.244855880737305
9361,-260.22970581054693,135.14875793457028,149.14907836914062,-12.59411334991455
9362,-296.6002502441406,106.00746154785156,124.21891021728516,-34.322933197021484
9363,-295.2538757324219,107.5595245361328,123.20539093017578,-38.54901885986328
9364,-265.64508056640625,141.39065551757812,151.37806701660156,-23.82503318786621
9365,-273.56246948242193,138.44735717773438,146.50497436523438,-34.947494506835945
9366,-295.15289306640625,117.17106628417969,118.7698745727539,-56.07793045043945
9367,-280.07736206054693,119.13825225830078,121.0998306274414,-52.36046981811523
9368,-256.03353881835943,143.630859375,137.5740966796875,-42.59933090209961
9369,-251.99819946289062,133.72012329101562,140.67820739746094,-44.5253791809082
9370,-278.80953979492193,112.80286407470705,111.76129913330078,-67.00217437744139
9371,-271.67007446289057,120.96332550048828,119.38695526123048,-62.07299041748047
9372,-245.9470367431641,136.29316711425778,148.40110778808594,-33.182262420654304
9373,-241.0103759765625,134.94306945800778,140.07981872558594,-32.034114837646484
9374,-263.67416381835943,114.28760528564452,124.9930648803711,-45.04148483276367
9375,-263.86489868164057,111.7743911743164,120.9764175415039,-40.4002685546875
9376,-242.7943115234375,128.19255065917972,144.75469970703125,-10.540907859802246
9377,-254.3992156982422,123.74207305908205,136.8822021484375,-20.668556213378906
9378,-282.68408203125,108.64035034179688,120.48648834228516,-36.23776245117188
9379,-274.06735229492193,108.66653442382812,123.53824615478516,-30.62042999267578
9380,-262.99725341796875,122.4144058227539,139.52632141113278,-18.428356170654297
9381,-272.05154418945307,131.87261962890622,134.78038024902344,-25.650104522705078
9382,-287.1719665527344,113.99588775634766,113.78084564208984,-48.17926025390625
9383,-286.9587707519531,120.1854248046875,111.49576568603516,-52.55868530273438
9384,-255.6820068359375,144.1357421875,142.02830505371094,-32.924209594726555
9385,-260.05020141601557,132.39993286132812,137.79473876953122,-43.27251434326172
9386,-286.12103271484375,112.00252532958984,118.11913299560548,-61.1978530883789
9387,-270.85476684570307,110.09143829345705,125.6176300048828,-55.13921356201172
9388,-246.309814453125,143.6719970703125,145.52511596679688,-30.470834732055664
9389,-261.56112670898443,133.52191162109378,140.70065307617188,-34.39398956298828
9390,-269.92727661132807,113.09457397460938,117.87603759765624,-48.97959899902344
9391,-269.46728515625,123.01653289794922,120.86421966552734,-48.60934829711914
9392,-257.67535400390625,142.29571533203125,142.9857177734375,-35.5122184753418
9393,-258.03439331054693,135.41804504394528,146.41896057128906,-35.77027130126953
9394,-271.40829467773443,115.02062225341795,126.93781280517578,-44.02049255371094
9395,-271.40078735351557,107.96343231201172,124.24508666992188,-38.20868682861328
9396,-260.98892211914057,123.88044738769531,141.3813018798828,-20.541400909423828
9397,-255.3790740966797,128.43937683105472,141.34765625,-18.293720245361328
9398,-280.27557373046875,104.99768829345705,123.19791412353516,-39.2969970703125
9399,-292.9800109863281,111.74820709228516,116.78398895263672,-37.23257446289063
9400,-268.55099487304693,139.22525024414062,139.41412353515622,-19.48674964904785
9401,-274.94247436523443,125.60079956054688,134.469970703125,-21.106124877929688
9402,-294.457275390625,108.4197006225586,119.42061614990234,-42.10192489624024
9403,-281.7752685546875,126.928466796875,123.8299560546875,-42.95088195800781
9404,-260.125,142.46026611328125,146.54237365722656,-24.733827590942386
9405,-254.02896118164062,131.78285217285156,146.90139770507812,-31.289873123168945
9406,-276.16168212890625,115.42453002929688,128.22059631347656,-50.2661247253418
9407,-266.89794921875,124.2581787109375,125.88690185546876,-43.22015380859375
9408,-248.3891906738281,132.29896545410156,145.29324340820312,-25.511728286743164
9409,-252.0505523681641,136.85789489746094,144.2198944091797,-23.065832138061523
9410,-263.67044067382807,109.8857421875,120.38551330566406,-40.93133544921875
9411,-276.73764038085943,111.26202392578124,126.4815444946289,-33.559993743896484
9412,-248.6397705078125,131.64822387695312,150.03916931152344,-17.52330207824707
9413,-246.2574462890625,134.393310546875,156.1800994873047,-19.86073875427246
9414,-276.95455932617193,102.94822692871094,124.14036560058594,-47.2442855834961
9415,-272.8892822265625,110.43924713134766,127.44644165039062,-37.68136215209961
9416,-261.5274658203125,133.32369995117188,144.83697509765625,-22.329072952270508
9417,-260.85427856445307,135.20486450195312,152.30181884765625,-26.73093414306641
9418,-289.045654296875,104.99394989013672,118.66515350341795,-51.590049743652344
9419,-279.74826049804693,115.1253433227539,127.83912658691406,-48.72528839111328
9420,-252.16275024414062,129.47160339355472,147.36888122558594,-26.92914962768555
9421,-255.82785034179688,129.10134887695312,140.84275817871094,-27.886564254760746
9422,-282.92718505859375,104.3282470703125,119.15508270263672,-51.79574584960938
9423,-277.8334350585937,118.6558074951172,124.54428100585938,-46.42898941040039
9424,-257.51455688476557,137.34782409667972,142.84361267089844,-27.67338943481445
9425,-257.28640747070307,136.5474853515625,140.4500732421875,-30.287580490112305
9426,-272.7284545898437,101.32137298583984,116.11454010009766,-51.7022476196289
9427,-270.57427978515625,107.52586364746094,119.551513671875,-45.99142074584961
9428,-250.8762359619141,134.2642822265625,141.64871215820312,-18.7799072265625
9429,-257.92593383789057,128.23556518554688,135.85560607910156,-25.85579872131348
9430,-281.38632202148443,105.77371978759766,114.5680923461914,-51.35443496704102
9431,-289.2625732421875,121.06990814208984,116.52780151367188,-41.24548721313477
9432,-261.557373046875,135.41242980957028,142.41539001464844,-30.291318893432614
9433,-255.31175231933597,134.63078308105472,151.4734344482422,-26.38312339782715
9434,-284.9504699707031,120.49022674560548,124.80046081542969,-48.43357467651367
9435,-277.14529418945307,105.05191802978516,125.5895767211914,-48.41861343383789
9436,-265.57403564453125,126.92659759521484,145.7812957763672,-25.54912567138672
9437,-254.4366149902344,130.21397399902344,144.78274536132812,-28.110958099365234
9438,-279.82305908203125,116.7017059326172,127.8933563232422,-48.20170211791992
9439,-278.33084106445307,108.48140716552734,136.02015686035156,-44.94424819946289
9440,-246.732421875,129.07704162597656,156.73171997070312,-26.798254013061523
9441,-248.4527740478516,131.43692016601562,152.1840057373047,-28.627063751220703
9442,-263.0682983398437,104.65548706054688,127.7961196899414,-46.36914825439453
9443,-268.57342529296875,104.3974380493164,133.89590454101562,-38.83699035644531
9444,-246.90444946289062,127.77928924560548,148.7171173095703,-21.872804641723636
9445,-248.0152130126953,126.95277404785156,149.9438018798828,-18.028186798095703
9446,-277.1265869140625,102.87529754638672,122.5340805053711,-38.31714630126953
9447,-283.9331970214844,107.41179656982422,116.2697525024414,-35.68051528930664
9448,-258.19894409179693,136.04072570800778,146.51806640625,-13.921777725219727
9449,-262.2081298828125,135.85748291015622,144.12078857421875,-18.12542533874512
9450,-283.4844055175781,109.58467864990234,118.26685333251952,-42.13558197021485
9451,-292.1572570800781,110.40371704101562,120.09192657470705,-38.00673294067383
9452,-264.5904541015625,146.2693634033203,147.41563415527344,-21.906463623046875
9453,-265.18133544921875,137.46563720703122,151.20040893554688,-23.1107120513916
9454,-284.87567138671875,114.91777801513672,127.268798828125,-50.82337188720703
9455,-279.41915893554693,123.31758880615234,129.22102355957028,-44.80587005615234
9456,-253.4193572998047,141.57952880859375,155.04129028320312,-24.14292335510254
9457,-252.4507293701172,134.3876953125,153.70614624023438,-31.574106216430664
9458,-271.08663940429693,119.62256622314452,134.99917602539062,-45.16490173339844
9459,-274.24685668945307,117.18789672851562,138.77272033691406,-41.903709411621094
9460,-254.97515869140625,139.4290771484375,154.70843505859375,-19.142677307128906
9461,-258.07180786132807,135.27778625488278,145.2352752685547,-27.808025360107425
9462,-272.56765747070307,117.39359283447266,125.9486083984375,-47.206886291503906
9463,-281.20681762695307,102.5723648071289,118.91385650634766,-45.57629013061523
9464,-254.7058868408203,135.43486022949222,149.36785888671875,-19.879438400268555
9465,-255.03126525878903,128.48612976074222,150.6244659423828,-22.80030059814453
9466,-278.02789306640625,105.9382781982422,120.56315612792969,-42.56567001342773
9467,-286.2294921875,103.98604583740234,117.0738296508789,-36.47711563110352
9468,-270.58175659179693,135.63682556152344,129.12004089355472,-22.478668212890625
9469,-270.33493041992193,143.22882080078125,132.06709289550778,-26.48784065246582
9470,-283.34979248046875,125.65876770019531,117.48896026611328,-40.17213439941406
9471,-284.0977478027344,126.48902893066406,117.4739990234375,-43.29869079589844
9472,-255.60720825195312,140.46502685546878,144.6555938720703,-26.38312339782715
9473,-256.7740478515625,150.8881378173828,153.57525634765625,-26.768333435058594
9474,-273.26327514648443,123.11937713623048,135.68731689453122,-38.29470443725586
9475,-266.59503173828125,118.80353546142578,137.77043151855472,-44.24114608764648
9476,-255.47630310058597,139.15232849121094,158.35484313964844,-30.23522186279297
9477,-246.134033203125,133.24702453613278,159.15518188476562,-36.039546966552734
9478,-270.39849853515625,109.52110290527344,135.8668212890625,-49.1030158996582
9479,-264.88214111328125,114.1735382080078,132.0521240234375,-52.37168884277344
9480,-250.23670959472656,136.078125,153.384521484375,-35.38506317138672
9481,-251.6167297363281,134.42509460449222,153.64256286621094,-32.262245178222656
9482,-272.26846313476557,101.82438659667969,121.87960052490234,-50.12400817871094
9483,-278.85067749023443,113.1525421142578,121.49064636230469,-45.31075668334961
9484,-259.43685913085943,131.78472900390622,137.94247436523438,-23.29396629333496
9485,-266.61746215820307,123.99825286865234,132.62059020996094,-23.67169761657715
9486,-291.68975830078125,107.13504028320312,104.95281219482422,-37.83095932006836
9487,-291.065185546875,104.14312744140624,103.30352020263672,-37.812259674072266
9488,-262.67559814453125,130.748779296875,130.7020263671875,-23.35006523132324
9489,-264.89337158203125,138.15003967285156,133.47329711914062,-26.607519149780273
9490,-284.0528869628906,118.94938659667969,115.37965393066406,-50.27734375
9491,-278.8319702148437,113.42555236816406,120.79502868652344,-47.64071655273438
9492,-256.8002319335937,143.0006866455078,146.77236938476562,-33.687149047851555
9493,-256.60202026367193,154.47470092773438,155.10861206054688,-30.43343544006348
9494,-276.87600708007807,115.00379180908205,126.04210662841795,-53.92748641967773
9495,-275.4361572265625,124.60037994384766,134.13525390625,-47.34152221679688
9496,-248.28448486328125,144.70233154296875,158.2650909423828,-23.645517349243164
9497,-246.9381103515625,144.6051025390625,163.58322143554688,-20.66107749938965
9498,-268.07601928710943,120.55380249023438,139.90217590332028,-42.06826400756836
9499,-271.50924682617193,117.9844970703125,139.55436706542972,-40.4002685546875
9500,-249.8290557861328,127.42774200439452,153.2124786376953,-25.956775665283203
9501,-255.65956115722656,128.57963562011722,149.16964721679688,-30.246440887451172
9502,-277.45196533203125,105.2837905883789,119.07093811035156,-49.55928421020508
9503,-275.74282836914057,110.05216979980469,118.09856414794922,-46.56736373901367
9504,-262.2343139648437,125.94300079345705,139.29631042480472,-26.663616180419922
9505,-262.81771850585943,125.16883850097656,134.4344482421875,-24.812366485595703
9506,-277.91571044921875,111.75008392333984,111.12364959716795,-45.25091934204102
9507,-278.88433837890625,116.25666046142578,110.6935577392578,-39.88416290283203
9508,-263.10195922851557,125.37079620361328,134.13151550292972,-25.36213111877441
9509,-259.67996215820307,126.60870361328124,137.48246765136722,-28.68690299987793
9510,-287.12335205078125,111.76878356933594,110.59258270263672,-52.5362434387207
9511,-280.3803100585937,113.0478286743164,120.43599700927734,-48.62057113647461
9512,-253.95042419433597,135.52462768554688,152.05685424804688,-31.663862228393555
9513,-262.69058227539057,146.26187133789062,145.05575561523438,-29.19926834106445
9514,-266.71469116210943,118.58661651611328,129.22102355957028,-47.9773063659668
9515,-283.09173583984375,116.06966400146484,129.93534851074222,-46.933876037597656
9516,-263.3001708984375,139.06631469726562,148.8367919921875,-30.81116485595703
9517,-267.07000732421875,146.68447875976562,152.08677673339844,-27.45647621154785
9518,-280.26809692382807,121.06243133544922,133.69393920898438,-47.07599258422852
9519,-286.34918212890625,126.44414520263672,134.99917602539062,-44.22618865966797
9520,-262.0323486328125,150.77593994140625,159.51795959472656,-19.82707977294922
9521,-265.27859497070307,158.56240844726562,159.7086944580078,-16.521007537841793
9522,-286.68951416015625,118.72125244140624,126.5432586669922,-41.24922561645508
9523,-282.6653747558594,117.76010131835938,128.98541259765622,-37.382171630859375
9524,-260.80941772460943,143.95809936523438,145.43348693847656,-19.797161102294922
9525,-258.66268920898443,137.80970764160156,139.96949768066406,-22.7703800201416
9526,-281.393798828125,112.26244354248048,118.20327758789062,-45.74832534790039
9527,-277.47439575195307,116.87000274658205,124.5798110961914,-42.42729568481445
9528,-254.3206787109375,139.4290771484375,145.17543029785156,-26.78703308105469
9529,-259.64254760742193,143.69630432128906,144.03475952148438,-26.00913429260254
9530,-280.15963745117193,111.7089385986328,118.618408203125,-42.2776985168457
9531,-275.45858764648443,119.65996551513672,119.8413543701172,-43.00323867797852
9532,-253.5876617431641,146.75180053710938,140.11161804199222,-28.182016372680664
9533,-254.91531372070312,152.36538696289062,145.9608154296875,-28.87015724182129
9534,-276.0233154296875,116.08462524414062,121.30365753173828,-46.46638870239258
9535,-279.20596313476557,117.17293548583984,115.11038208007812,-47.02737045288086
9536,-262.81771850585943,144.1002197265625,143.01751708984375,-25.27237319946289
9537,-265.57403564453125,143.89825439453125,146.8995361328125,-29.37130355834961
9538,-285.1412048339844,122.50603485107422,127.47823333740234,-48.48219299316406
9539,-278.90676879882807,121.2045440673828,129.43045043945312,-46.589805603027344
9540,-267.4140625,142.6603546142578,145.24649047851562,-27.471435546875
9541,-262.05105590820307,143.61776733398438,144.8201446533203,-25.73238182067871
9542,-290.6089172363281,131.52667236328122,126.02340698242188,-44.439361572265625
9543,-286.7942199707031,123.71775817871094,123.90288543701172,-43.82975769042969
9544,-265.36459350585943,153.99224853515625,149.72689819335938,-19.808380126953125
9545,-261.54617309570307,144.646240234375,149.9026641845703,-23.31266593933105
9546,-276.5693359375,131.58651733398438,121.25503540039062,-48.75146484375
9547,-281.0123291015625,117.86481475830078,121.80854034423828,-49.877174377441406
9548,-255.49127197265625,149.66519165039062,140.51925659179688,-27.362977981567386
9549,-258.43829345703125,139.21591186523438,138.61564636230472,-31.37963104248047
9550,-273.41287231445307,119.1513442993164,121.6290283203125,-45.80068588256836
9551,-280.41021728515625,129.98583984375,126.41236114501952,-51.88924026489258
9552,-254.17108154296875,159.91250610351562,143.888916015625,-25.982954025268555
9553,-267.85910034179693,147.72792053222656,135.72471618652344,-31.54792594909668
9554,-282.34375,123.95337677001952,124.96501922607422,-48.13064193725586
9555,-286.54364013671875,122.56961059570312,122.53034210205078,-47.27420425415039
9556,-258.30368041992193,156.29603576660156,146.8845672607422,-23.7277946472168
9557,-260.97021484375,142.08815002441406,138.51841735839844,-26.27092742919922
9558,-276.322509765625,124.4919204711914,120.6080322265625,-45.06392288208008
9559,-285.5376281738281,119.9928207397461,120.1667251586914,-51.7733039855957
9560,-255.61468505859372,155.55552673339844,150.72918701171875,-27.131103515625
9561,-266.03778076171875,154.83746337890625,145.4933319091797,-29.83505249023437
9562,-285.78070068359375,135.47225952148438,123.1773452758789,-41.68305587768555
9563,-291.1063232421875,128.82646179199222,117.25334167480469,-44.55155944824219
9564,-261.91641235351557,141.82261657714844,145.34747314453125,-20.803194046020508
9565,-261.10858154296875,143.3671875,144.75282287597656,-23.94096946716309
9566,-282.9795227050781,124.30118560791016,117.74700927734376,-44.47301864624024
9567,-284.22119140625,125.01924896240234,120.27518463134766,-47.31908416748047
9568,-254.30946350097656,140.10600280761722,144.4386749267578,-25.687501907348636
9569,-240.90565490722656,144.88185119628906,144.02354431152344,-29.40496253967285
9570,-283.92572021484375,125.73356628417969,118.31173706054688,-52.97007369995117
9571,-284.9018249511719,114.06507873535156,121.0269012451172,-52.02761840820313
9572,-254.12620544433597,150.59268188476562,149.38282775878906,-24.026987075805664
9573,-268.177001953125,138.78955078125,144.34144592285156,-24.94326210021973
9574,-291.26715087890625,114.74948120117188,117.46651458740234,-44.76099395751953
9575,-282.7065124511719,127.1360321044922,120.5444564819336,-43.20893478393555
9576,-283.1253967285156,155.52186584472656,136.61480712890622,-23.970888137817386
9577,-267.45895385742193,147.0622100830078,137.51237487792972,-27.01142692565918
9578,-298.8778381347656,125.60640716552734,113.14693450927734,-52.884056091308594
9579,-289.65899658203125,134.41761779785156,113.55084228515624,-43.78487777709961
9580,-258.7225341796875,158.3006134033203,139.95079040527344,-26.00165367126465
9581,-274.03741455078125,148.1355743408203,135.88926696777344,-39.08008575439453
9582,-279.14239501953125,126.18235778808594,120.5481948852539,-56.22378540039063
9583,-280.735595703125,129.7689208984375,119.96102905273438,-53.17950820922852
9584,-250.86126708984372,157.2384796142578,149.992431640625,-31.80223846435547
9585,-246.38461303710938,143.56541442871094,144.79769897460938,-32.165008544921875
9586,-264.126708984375,124.9519271850586,129.64363098144528,-48.42983627319336
9587,-266.12753295898443,117.14301300048828,130.55242919921878,-46.39906692504883
9588,-255.89517211914062,140.49868774414062,148.91159057617188,-25.01432037353516
9589,-259.3358764648437,141.92733764648438,138.86996459960938,-27.12736511230469
9590,-275.81015014648443,125.53160858154295,116.35576629638672,-48.08576202392578
9591,-289.1690673828125,115.0150146484375,116.3482894897461,-44.24114608764648
9592,-269.51962280273443,152.69076538085938,145.9982147216797,-22.32533264160156
9593,-267.18966674804693,148.01214599609375,139.15419006347656,-28.35779190063477
9594,-288.28643798828125,123.7476806640625,115.74242401123048,-51.11134338378906
9595,-288.12188720703125,128.0672607421875,116.7746353149414,-49.96693420410156
9596,-267.05502319335943,155.7051239013672,136.17349243164062,-33.01770782470703
9597,-267.96755981445307,140.7904052734375,136.61480712890622,-35.68799591064453
9598,-291.3307189941406,127.89522552490234,115.30111694335938,-54.85498428344727
9599,-285.6086730957031,130.65153503417972,111.10494995117188,-55.35612869262695
9600,-255.1023101806641,152.55612182617188,137.609619140625,-33.945201873779304
9601,-260.81689453125,150.36080932617188,142.46400451660156,-31.4619083404541
9602,-280.87771606445307,114.39044952392578,116.22486877441406,-53.89756774902344
9603,-271.9393310546875,122.6668472290039,124.20955657958984,-48.63552856445313
9604,-248.6584625244141,140.9512176513672,146.91822814941406,-29.54333877563477
9605,-251.49331665039062,144.17127990722656,150.30284118652344,-32.53525924682617
9606,-269.85995483398443,119.40939331054688,124.43395233154295,-54.181800842285156
9607,-269.373779296875,119.06158447265624,123.61491394042969,-48.04836654663086
9608,-259.021728515625,141.83009338378906,144.9136505126953,-27.579893112182614
9609,-257.39486694335943,140.01625061035156,140.9456024169922,-30.66530990600586
9610,-276.7152099609375,118.75865173339844,116.0079574584961,-46.04751968383789
9611,-286.6221923828125,114.7756576538086,113.44986724853516,-49.97441482543945
9612,-259.61636352539057,135.8724365234375,134.40826416015622,-28.19323539733887
9613,-258.63278198242193,144.44802856445312,132.43359375,-30.58677101135254
9614,-292.7331848144531,120.70713806152344,105.44647979736328,-52.25575256347656
9615,-290.96795654296875,112.35968780517578,105.59233856201172,-52.86909484863281
9616,-265.67874145507807,147.40628051757812,135.04031372070312,-28.60088539123535
9617,-260.22970581054693,135.0272216796875,134.74859619140622,-40.64336395263672
9618,-279.385498046875,124.00572967529295,118.04620361328124,-52.14729690551758
9619,-271.7186889648437,121.84780883789062,121.90203857421876,-56.6912727355957
9620,-258.41213989257807,149.49314880371094,149.82786560058594,-33.313159942626946
9621,-246.298583984375,134.92623901367188,153.6687469482422,-35.35140609741211
9622,-268.94369506835943,119.62256622314452,132.47099304199222,-48.30267715454102
9623,-268.43505859375,119.6936264038086,136.01641845703122,-45.69970703125
9624,-250.74159240722656,133.72947692871094,154.33445739746094,-32.20615005493164
9625,-240.5541076660156,145.5699920654297,158.23143005371094,-26.48036193847656
9626,-280.97119140625,120.12371826171876,128.34214782714844,-44.66749572753906
9627,-279.70712280273443,119.15508270263672,128.01676940917972,-48.36625671386719
9628,-260.3306884765625,144.38818359375,151.3874053955078,-28.526086807250977
9629,-271.74673461914057,138.707275390625,142.83238220214844,-32.522171020507805
9630,-286.9793395996094,122.7229461669922,117.00090026855469,-54.30708694458008
9631,-284.4960632324219,117.51700592041016,118.96060943603516,-51.50216293334961
9632,-270.1610107421875,143.74118041992188,134.9337158203125,-28.02680969238281
9633,-269.637451171875,144.24981689453125,130.50941467285156,-32.64558792114258
9634,-281.668701171875,124.9968032836914,112.5466766357422,-45.088233947753906
9635,-288.4454040527344,121.0960922241211,104.8611831665039,-49.76684951782226
9636,-259.449951171875,148.81248474121094,131.54536437988278,-25.75295066833496
9637,-257.44161987304693,140.72682189941406,137.92190551757812,-27.192811965942386
9638,-279.81369018554693,113.11888122558594,117.53196716308594,-51.06833267211914
9639,-269.50653076171875,112.4681396484375,125.5914535522461,-49.06000900268555
9640,-239.5948181152344,138.32206726074222,147.20059204101562,-36.55378341674805
9641,-251.7494964599609,138.34825134277344,147.64564514160156,-36.70337677001953
9642,-265.82647705078125,114.82801818847656,131.73609924316406,-56.42387008666992
9643,-271.76544189453125,110.4373779296875,129.24906921386722,-54.89051055908203
9644,-246.5398101806641,138.81573486328122,158.18467712402344,-28.569095611572266
9645,-260.65792846679693,139.57867431640622,151.84181213378906,-32.350135803222656
9646,-277.2032470703125,123.3662109375,128.54597473144528,-44.75164413452149
9647,-278.14572143554693,115.12721252441406,124.9968032836914,-49.49757766723633
9648,-260.24655151367193,142.89222717285156,151.6436004638672,-28.92064666748047
9649,-264.42776489257807,135.60316467285156,142.37986755371094,-28.479337692260746
9650,-299.1116027832031,119.82452392578124,118.1677474975586,-49.3218002319336
9651,-287.75726318359375,124.24508666992188,116.6456069946289,-44.747901916503906
9652,-254.24400329589844,141.4673309326172,142.73141479492188,-25.53229713439941
9653,-264.02011108398443,146.4339141845703,143.9281768798828,-30.483924865722656
9654,-284.4698791503906,130.09428405761722,115.21322631835938,-44.64692687988281
9655,-284.3876037597656,127.39781951904295,117.7227020263672,-47.17883682250977
9656,-261.24884033203125,140.37153625488278,137.23750305175778,-29.593828201293945
9657,-242.6016998291016,151.6323699951172,146.23196411132812,-28.296083450317386
9658,-269.98526000976557,125.08656311035156,126.9415512084961,-50.45499038696289
9659,-270.23580932617193,121.2606430053711,127.521240234375,-50.8476791381836
9660,-252.22445678710938,149.30615234375,154.08200073242188,-30.92149353027344
9661,-254.1505126953125,152.369140625,152.33921813964844,-30.04261589050293
9662,-272.75650024414057,139.19720458984378,133.82670593261722,-46.501914978027344
9663,-275.40811157226557,126.4778060913086,126.4553680419922,-47.57900619506836
9664,-262.31472778320307,153.79029846191406,147.14450073242188,-31.23190498352051
9665,-264.14352416992193,151.44537353515625,149.91575622558594,-20.816282272338867
9666,-288.5127258300781,132.7271728515625,127.93262481689452,-38.48357009887695
9667,-297.9896240234375,129.49964904785156,126.76203918457031,-43.87276458740234
9668,-274.09164428710943,149.1790008544922,146.49749755859375,-22.44688034057617
9669,-274.89572143554693,154.91600036621094,148.3824005126953,-23.76706504821777
9670,-290.37518310546875,121.0549545288086,119.891845703125,-45.71653747558594
9671,-288.2322082519531,135.87991333007812,118.15653228759766,-43.19210433959961
9672,-275.9765625,143.7449188232422,133.4078369140625,-28.84584808349609
9673,-256.45428466796875,147.60450744628906,143.97305297851562,-24.13357353210449
9674,-276.70211791992193,125.7373046875,122.39383697509766,-37.83656692504883
9675,-277.6370849609375,123.78507995605469,114.95143127441406,-48.31576919555664
9676,-254.5394592285156,144.305908203125,138.61378479003906,-30.569942474365234
9677,-254.90597534179688,156.28480529785156,146.4750518798828,-30.46896553039551
9678,-266.46224975585943,132.98896789550778,123.84117889404295,-52.05192947387695
9679,-268.54913330078125,127.09488677978516,122.0422821044922,-51.80883407592773
9680,-251.4577789306641,151.4678192138672,147.00611877441406,-32.047203063964844
9681,-254.2963714599609,150.1588592529297,150.5889434814453,-30.02391624450684
9682,-273.50076293945307,127.8017349243164,134.50736999511722,-42.90787124633789
9683,-275.8419189453125,124.26752471923828,127.77928924560548,-44.86383819580078
9684,-259.64068603515625,140.25186157226562,151.06764221191406,-24.911474227905273
9685,-261.16281127929693,146.56854248046875,144.97161865234375,-26.384994506835934
9686,-285.2590026855469,122.5845718383789,126.44414520263672,-45.62303924560547
9687,-293.7897033691406,115.12347412109376,120.71088409423828,-47.373313903808594
9688,-257.7894287109375,140.584716796875,140.69316101074222,-25.59213447570801
9689,-265.08596801757807,134.40638732910156,134.129638671875,-31.594675064086914
9690,-273.58676147460943,118.29116821289062,120.4603042602539,-45.316368103027344
9691,-279.4210205078125,111.37235260009766,111.03575897216795,-50.02490234375
9692,-257.0639038085937,142.6566162109375,141.73660278320312,-21.55678367614746
9693,-250.7920837402344,140.31918334960938,142.84735107421875,-23.381855010986328
9694,-283.62091064453125,110.15314483642578,109.24434661865234,-48.24097061157226
9695,-285.9546203613281,110.46729278564452,102.086181640625,-54.9129524230957
9696,-256.4393310546875,136.511962890625,129.05459594726562,-34.511795043945305
9697,-247.08958435058597,138.44923400878906,136.0369873046875,-31.523616790771484
9698,-267.00830078125,107.3893585205078,108.81426239013672,-57.94601058959961
9699,-276.85171508789057,111.81365966796876,114.7569580078125,-55.836708068847656
9700,-254.3711700439453,139.12240600585938,149.59039306640625,-32.271595001220696
9701,-257.26583862304693,144.32461547851562,154.90478515625,-26.923540115356445
9702,-278.9759521484375,123.78134155273438,128.32905578613278,-46.89086532592773
9703,-281.9117736816406,125.2698211669922,127.2818832397461,-41.91305923461914
9704,-260.9608764648437,150.90682983398438,150.83950805664062,-22.9293270111084
9705,-263.60870361328125,146.11227416992188,152.5299530029297,-23.531450271606445
9706,-275.72225952148443,119.92549896240234,130.46453857421878,-41.03792190551758
9707,-288.4117431640625,110.4336395263672,126.8592758178711,-53.37959289550781
9708,-260.72525024414057,138.21360778808594,152.0587158203125,-26.61312866210937
9709,-256.92178344726557,136.42593383789062,152.29434204101562,-25.72677230834961
9710,-278.77401733398443,114.68215942382812,128.60206604003906,-46.68517303466797
9711,-284.368896484375,110.9459991455078,117.31130981445312,-51.913551330566406
9712,-257.0377197265625,144.9491729736328,146.56106567382812,-27.248910903930664
9713,-256.61135864257807,127.7044906616211,147.5184783935547,-25.483678817749023
9714,-279.74639892578125,103.9336929321289,120.80437469482422,-38.221778869628906
9715,-290.636962890625,103.9336929321289,109.04987335205078,-43.24446487426758
9716,-259.15451049804693,131.52293395996094,141.8039093017578,-21.657760620117188
9717,-263.93783569335943,133.35174560546878,141.07089233398438,-22.237445831298828
9718,-287.70489501953125,100.69493865966795,115.22818756103516,-45.697837829589844
9719,-282.8205871582031,105.51192474365234,119.47671508789062,-42.8592529296875
9720,-253.3314666748047,127.01634979248048,145.18104553222656,-20.2702579498291
9721,-263.0589599609375,130.07185363769528,150.6263427734375,-24.26447105407715
9722,-276.42910766601557,112.7448959350586,127.79051208496094,-48.5513801574707
9723,-281.42559814453125,109.34532165527344,127.50627899169922,-42.70591735839844
9724,-263.28707885742193,126.61244201660156,150.8806610107422,-20.655467987060547
9725,-259.84637451171875,135.34510803222656,153.4350128173828,-23.6623477935791
9726,-287.5066833496094,109.715576171875,124.03191375732422,-42.69469833374024
9727,-277.92880249023443,106.08787536621094,124.60411834716795,-44.89376068115234
9728,-256.32711791992193,134.66818237304688,153.3826446533203,-21.074337005615234
9729,-250.07028198242188,130.49072265625,153.37142944335938,-22.252405166625977
9730,-286.4295959472656,97.08592987060548,115.23566436767578,-50.79532241821289
9731,-285.038330078125,101.48779296875,114.7345199584961,-55.84044647216797
9732,-256.2747802734375,124.01695251464844,135.2740478515625,-36.56126022338867
9733,-255.96435546875,119.78712463378906,137.63766479492188,-31.340362548828125
9734,-279.7613525390625,100.1601333618164,107.509033203125,-54.2098503112793
9735,-291.54949951171875,100.78095245361328,104.42361450195312,-56.910057067871094
9736,-267.15414428710943,134.90005493164062,133.98377990722656,-30.50636482238769
9737,-265.42257690429693,133.35922241210938,142.51075744628906,-22.52541732788086
9738,-280.92071533203125,106.71991729736328,119.89558410644531,-40.88458633422852
9739,-290.88006591796875,96.3865737915039,119.4916763305664,-49.935142517089844
9740,-258.89645385742193,127.49505615234376,148.26272583007812,-20.775144577026367
9741,-254.60304260253903,142.07693481445312,151.0489501953125,-25.689373016357425
9742,-281.41064453125,113.1488037109375,131.8931884765625,-45.82499313354492
9743,-283.54986572265625,110.05216979980469,116.5633316040039,-55.24954223632813
9744,-249.6102752685547,141.4224395751953,156.45684814453125,-24.96383285522461
9745,-261.59292602539057,135.43112182617188,150.05413818359375,-24.86285400390625
9746,-285.79754638671875,110.65802764892578,126.65731811523438,-50.316612243652344
9747,-279.06573486328125,114.2520751953125,123.0071792602539,-55.61605072021485
9748,-259.34524536132807,139.72079467773438,150.93301391601562,-35.196197509765625
9749,-261.5106201171875,140.8352813720703,144.6499786376953,-32.02102279663086
9750,-280.66265869140625,114.0164566040039,123.0445785522461,-47.89690017700195
9751,-284.28662109375,126.7957000732422,123.71775817871094,-46.89834594726562
9752,-269.60751342773443,139.57119750976562,139.75445556640622,-24.65715980529785
9753,-261.36105346679693,142.51449584960938,141.48228454589844,-18.54616355895996
9754,-278.05221557617193,117.84237670898438,126.5413818359375,-37.51119613647461
9755,-280.46444702148443,119.08776092529295,123.79629516601562,-34.80350875854492
9756,-260.94216918945307,137.66384887695312,147.94483947753906,-18.538684844970703
9757,-257.1312255859375,146.54611206054688,149.1864776611328,-11.309457778930664
9758,-283.018798828125,131.5416259765625,124.75745391845705,-35.027904510498054
9759,-276.69088745117193,123.3886489868164,123.75515747070312,-37.82534790039063
9760,-261.10671997070307,139.92274475097656,139.60111999511722,-27.16663360595703
9761,-264.296875,157.6610870361328,148.8461456298828,-22.32720184326172
9762,-292.02447509765625,120.48274993896484,116.20803833007812,-51.19549179077149
9763,-287.9666748046875,122.55091094970705,111.03202056884766,-53.9106559753418
9764,-268.3359375,148.27394104003906,139.55624389648438,-29.679845809936523
9765,-260.3662109375,149.71380615234375,151.11627197265625,-28.441938400268555
9766,-288.7894592285156,115.0374526977539,121.77301025390624,-53.14397811889648
9767,-291.7813720703125,110.71412658691406,119.1102066040039,-51.24784851074219
9768,-263.85556030273443,133.460205078125,148.1767120361328,-20.113182067871094
9769,-262.52413940429693,135.5732421875,146.70692443847656,-23.25843811035156
9770,-291.93096923828125,116.99342346191406,116.24918365478516,-48.558860778808594
9771,-283.5423889160156,100.53785705566406,113.1712417602539,-40.929466247558594
9772,-270.57614135742193,133.91273498535156,134.10346984863278,-20.56945037841797
9773,-257.6136474609375,146.05618286132812,140.05364990234378,-18.79673767089844
9774,-276.563720703125,116.03226470947266,121.44763946533205,-35.76466369628906
9775,-282.1399230957031,104.84996795654295,126.29080963134766,-38.93235778808594
9776,-250.23483276367188,147.1482391357422,151.66229248046875,-19.29414367675781
9777,-246.18826293945312,149.4295654296875,159.37022399902344,-22.712411880493164
9778,-275.96160888671875,116.72040557861328,132.3045654296875,-45.46222305297852
9779,-272.4872436523437,121.34666442871094,127.99620819091795,-47.567787170410156
9780,-249.2923889160156,147.08465576171875,146.07862854003906,-30.076274871826172
9781,-254.4123077392578,147.59327697753906,151.06390380859375,-30.397907257080078
9782,-277.749267578125,129.89607238769528,128.50483703613278,-49.6322135925293
9783,-283.6919860839844,119.09898376464844,122.9211654663086,-59.22131729125977
9784,-266.30517578125,147.72044372558594,144.18997192382812,-33.75259780883789
9785,-256.7684326171875,149.30615234375,153.9249267578125,-33.40478515625
9786,-288.05645751953125,119.18125915527344,120.87543487548828,-48.92537307739258
9787,-277.08731079101557,120.66973876953124,126.28333282470705,-48.65609741210938
9788,-271.8739013671875,145.30445861816406,148.06077575683594,-26.153120040893555
9789,-250.5190734863281,149.11915588378906,150.6712188720703,-16.799631118774414
9790,-285.0308532714844,106.52169799804688,115.4151840209961,-44.35147476196289
9791,-284.1145935058594,112.87953186035156,116.98967742919922,-42.30200958251953
9792,-264.64093017578125,130.88340759277344,147.21929931640625,-10.879368782043457
9793,-251.38671875,133.7481689453125,151.4715576171875,-17.28207778930664
9794,-276.76943969726557,115.44509887695312,130.71138000488278,-37.75802993774414
9795,-281.94171142578125,111.7276382446289,129.47346496582028,-38.29657745361328
9796,-250.7584228515625,133.96882629394528,154.17176818847656,-21.79239654541016
9797,-251.9477081298828,139.07379150390622,155.0693359375,-21.59418296813965
9798,-281.328369140625,112.10163116455078,125.05290222167969,-45.62677764892578
9799,-284.0622253417969,105.8597412109375,122.55838775634766,-49.11984634399414
9800,-258.65335083007807,145.14364624023438,148.7227325439453,-28.03055000305176
9801,-250.1226348876953,144.24607849121094,157.10011291503906,-26.90110015869141
9802,-273.02203369140625,120.50892639160156,131.30975341796878,-57.51966094970703
9803,-297.7689514160156,113.80702209472656,116.95227813720705,-62.87893676757813
9804,-256.45803833007807,150.8731689453125,152.0736846923828,-31.310441970825195
9805,-254.20660400390625,151.7296142578125,158.49508666992188,-27.79867553710937
9806,-279.52200317382807,114.79061889648438,127.15098571777344,-52.90462493896485
9807,-277.14340209960943,114.9551773071289,126.12999725341795,-45.28270721435547
9808,-263.017822265625,140.10600280761722,149.76242065429688,-21.94573211669922
9809,-256.92550659179693,137.615234375,154.04835510253906,-18.549903869628906
9810,-270.75567626953125,119.53655242919922,129.45477294921878,-39.88603210449219
9811,-281.9342346191406,115.27306365966795,120.8791732788086,-45.15181350708008
9812,-256.67868041992193,128.51979064941406,147.51100158691406,-22.83582878112793
9813,-259.54718017578125,140.77919006347656,154.22412109375,-20.62928771972656
9814,-281.41436767578125,115.08981323242188,121.82910919189452,-43.61471176147461
9815,-281.9604187011719,108.03262329101562,118.44450378417969,-46.17654418945313
9816,-265.21688842773443,135.28901672363278,141.52342224121094,-28.56535530090332
9817,-255.1640167236328,134.5933837890625,153.30410766601562,-21.803617477416992
9818,-283.3815612792969,119.43931579589844,128.03359985351562,-45.40986633300781
9819,-289.47760009765625,114.9364776611328,128.27296447753906,-48.49154281616211
9820,-264.81295776367193,132.15496826171878,148.89476013183594,-34.90448760986328
9821,-259.14700317382807,145.57373046875,154.0633087158203,-28.251203536987305
9822,-287.48797607421875,107.7895278930664,122.42749786376952,-52.99812316894531
9823,-286.2126770019531,112.27740478515624,121.91886901855469,-50.35401153564453
9824,-272.61065673828125,144.4368133544922,136.81489562988278,-33.816173553466804
9825,-257.912841796875,146.2282257080078,145.26332092285156,-25.55473709106445
9826,-278.5645751953125,117.3636703491211,122.16944122314452,-44.45619201660156
9827,-284.533447265625,105.18655395507812,116.65309143066406,-53.64138412475586
9828,-261.37973022460943,129.19297790527344,149.07054138183594,-29.15999984741211
9829,-258.90017700195307,131.0367431640625,156.99913024902344,-21.85971450805664
9830,-272.68170166015625,106.7834930419922,133.85850524902344,-42.64421081542969
9831,-279.14425659179693,102.59480285644531,128.48426818847656,-51.90793991088867
9832,-255.47817993164062,126.59374237060548,149.8540496826172,-28.33535194396973
9833,-243.0504913330078,135.21795654296878,158.41842651367188,-24.61415100097656
9834,-272.29275512695307,100.87071228027344,128.19255065917972,-50.89442825317383
9835,-288.1910705566406,94.66996002197266,114.61671447753906,-58.14235305786133
9836,-252.5311279296875,137.09538269042972,142.11993408203125,-35.134490966796875
9837,-251.59616088867188,139.29071044921878,149.02378845214844,-32.67737579345703
9838,-270.460205078125,117.90221405029295,132.1343994140625,-52.48014450073242
9839,-289.87030029296875,115.02997589111328,119.23922729492188,-57.4429931640625
9840,-254.8274383544922,140.8689422607422,139.62916564941406,-33.608612060546875
9841,-266.75396728515625,146.3441619873047,146.91075134277344,-28.28299331665039
9842,-287.9891357421875,127.39034271240234,115.03184509277344,-50.1838493347168
9843,-294.0328063964844,124.82476806640624,120.07322692871094,-49.23017120361328
9844,-263.36187744140625,138.60256958007812,149.5174560546875,-22.205656051635746
9845,-261.95193481445307,144.7696533203125,154.30453491210938,-25.10407829284668
9846,-277.21072387695307,108.9975128173828,131.45748901367188,-48.98334121704102
9847,-288.617431640625,112.62147521972656,133.49198913574222,-44.79839324951172
9848,-264.04254150390625,138.34825134277344,155.5948028564453,-25.27985382080078
9849,-257.2172241210937,134.85517883300778,152.75994873046875,-26.005393981933594
9850,-274.14028930664057,104.90980529785156,133.52565002441406,-43.20519256591797
9851,-273.171630859375,102.41155242919922,131.94366455078122,-48.83000564575195
9852,-251.88412475585938,125.38949584960938,151.79879760742188,-34.180816650390625
9853,-256.82080078125,132.39433288574222,147.73727416992188,-31.50678634643555
9854,-278.11953735351557,104.3974380493164,124.8266372680664,-52.41282653808594
9855,-282.0688781738281,100.14891052246094,115.96308135986328,-61.770057678222656
9856,-264.1884155273437,126.96399688720705,134.77851867675778,-40.62466430664063
9857,-263.9154052734375,141.33642578125,136.26325988769528,-33.586170196533196
9858,-292.4508361816406,112.43822479248048,110.37940979003906,-60.666786193847656
9859,-294.94158935546875,111.27136993408205,104.0851593017578,-54.37627410888672
9860,-272.98464965820307,131.36212158203122,131.30415344238278,-20.99392890930176
9861,-270.65093994140625,129.98583984375,134.63639831542972,-20.728395462036133
9862,-282.5999450683594,108.02887725830078,117.50017547607422,-41.75037384033203
9863,-297.06585693359375,106.63389587402344,113.50970458984376,-39.74204635620117
9864,-274.05801391601557,133.38540649414062,140.73243713378906,-18.390958786010746
9865,-265.55722045898443,139.29444885253906,148.09255981445312,-17.295167922973633
9866,-288.606201171875,113.49661254882812,126.17674255371094,-40.04497909545898
9867,-284.04351806640625,108.36547088623048,126.928466796875,-37.42330932617188
9868,-263.92660522460943,134.03614807128906,156.20440673828125,-26.67109680175781
9869,-255.3360595703125,137.37586975097656,161.7618865966797,-23.07331275939941
9870,-272.90237426757807,116.55210876464844,133.24516296386722,-46.70948028564453
9871,-277.28927612304693,101.61495208740234,126.09820556640624,-55.30751037597656
9872,-261.9556884765625,116.0958480834961,143.23068237304688,-43.048118591308594
9873,-251.0239562988281,139.99380493164062,143.806640625,-36.30508041381836
9874,-285.5133056640625,93.87335968017578,113.52091979980469,-57.62250900268555
9875,-288.7296142578125,96.77552032470705,113.64807891845705,-52.738197326660156
9876,-265.09719848632807,130.49446105957028,134.70745849609378,-36.00214767456055
9877,-261.13290405273443,131.20878601074222,132.08578491210938,-36.1330451965332
9878,-285.52825927734375,102.6322021484375,112.2755355834961,-49.14789581298828
9879,-298.5580749511719,98.3986358642578,107.2939910888672,-57.16624069213867
9880,-268.52294921875,134.72055053710938,132.44482421875,-29.027233123779297
9881,-273.3212280273437,141.34390258789062,138.08833312988278,-23.06209373474121
9882,-292.0843200683594,113.52279663085938,115.9892578125,-38.86690902709961
9883,-291.0633239746094,111.46958923339844,116.65496063232422,-42.55071258544922
9884,-261.33486938476557,133.448974609375,147.3184051513672,-13.55900764465332
9885,-260.52703857421875,128.25425720214844,150.34771728515625,-16.191896438598633
9886,-276.8778686523437,104.3974380493164,138.60069274902344,-34.715621948242195
9887,-272.2142333984375,107.17243957519531,132.88986206054688,-42.96583938598633
9888,-257.0414428710937,127.80547332763672,154.1437225341797,-28.99357414245605
9889,-248.85855102539062,129.2528076171875,155.99496459960938,-28.133398056030273
9890,-268.83334350585943,99.9993133544922,130.04380798339844,-52.65217971801758
9891,-274.38711547851557,97.29911041259766,130.45144653320312,-56.87078857421875
9892,-260.8935546875,125.18006134033205,149.29306030273438,-38.40690231323242
9893,-255.95687866210938,124.49565887451172,157.17677307128906,-34.988632202148445
9894,-279.9969482421875,100.07785034179688,122.90807342529295,-60.18434143066406
9895,-281.8631591796875,96.09111785888672,122.5752182006836,-52.19965362548828
9896,-270.32559204101557,116.50723266601562,138.58573913574222,-36.72768783569336
9897,-268.7174072265625,125.7784423828125,140.4033203125,-29.77895355224609
9898,-288.67352294921875,116.3613739013672,115.9481201171875,-46.634681701660156
9899,-285.554443359375,102.95757293701172,116.66617584228516,-46.26069259643555
9900,-265.224365234375,129.1705322265625,136.23333740234378,-29.397483825683594
9901,-264.37539672851557,132.58132934570312,139.52444458007812,-24.40471649169922
9902,-285.92095947265625,105.27257537841795,118.6782455444336,-34.47252655029297
9903,-286.1640625,97.82643127441406,122.23863220214844,-38.88935089111328
9904,-261.40966796875,132.96279907226562,149.11729431152344,-19.142677307128906
9905,-258.97872924804693,119.39443969726562,152.68141174316406,-14.737075805664062
9906,-281.6911315917969,102.6322021484375,129.71095275878906,-37.03435897827149
9907,-279.49581909179693,103.776611328125,120.09192657470705,-49.4433479309082
9908,-255.13784790039062,127.08367156982422,152.46824645996094,-29.906110763549805
9909,-244.03033447265625,130.70762634277344,160.68853759765625,-28.25681495666504
9910,-285.4534606933594,109.42760467529295,127.62782287597656,-50.88320922851562
9911,-286.3697509765625,104.53581237792969,122.84449005126952,-54.7839241027832
9912,-268.33221435546875,125.0155029296875,143.78793334960938,-37.49810791015625
9913,-267.9208374023437,131.72114562988278,143.87020874023438,-32.95786666870117
9914,-274.48809814453125,118.6501922607422,130.43649291992188,-42.02338409423828
9915,-297.0434265136719,101.42047882080078,115.64892578125,-50.22124481201172
9916,-275.93917846679693,137.51799011230472,140.49308776855472,-23.78015327453613
9917,-267.18032836914057,136.63911437988278,147.26229858398438,-19.299753189086914
9918,-274.55166625976557,117.12805938720705,128.80589294433594,-33.76568603515625
9919,-289.1559753417969,105.6652603149414,122.7734375,-38.17876815795898
9920,-254.54693603515625,128.882568359375,145.4970703125,-20.6461181640625
9921,-252.6545562744141,139.16728210449222,154.7907257080078,-15.500015258789062
9922,-277.15838623046875,106.828369140625,130.61225891113278,-32.696075439453125
9923,-271.832763671875,99.1802749633789,128.33467102050778,-30.17912292480469
9924,-263.75457763671875,119.81330871582031,143.8365478515625,-21.96256256103516
9925,-254.83865356445312,124.8696517944336,156.02114868164062,-17.624279022216797
9926,-270.1610107421875,96.8465805053711,140.02932739257812,-33.919021606445305
9927,-274.72744750976557,101.9477996826172,132.62432861328122,-46.03629684448242
9928,-263.32449340820307,132.65237426757812,152.0269317626953,-30.75132751464844
9929,-249.12034606933597,132.92539978027344,160.28463745117188,-30.265140533447266
9930,-278.69174194335943,105.91584014892578,130.90023803710938,-51.90420150756836
9931,-279.45468139648443,107.0265884399414,126.03462982177734,-57.72348403930664
9932,-262.19503784179693,133.03759765625,151.31260681152344,-40.7293815612793
9933,-258.12228393554693,134.49241638183594,152.5430450439453,-34.034957885742195
9934,-286.46697998046875,114.45028686523438,124.23199462890624,-46.361671447753906
9935,-287.86944580078125,106.23372650146484,118.11351776123048,-49.4844856262207
9936,-272.513427734375,121.7991943359375,142.50888061523438,-26.715974807739254
9937,-268.03677368164057,124.95940399169922,145.10812377929688,-19.49796867370605
9938,-282.9701843261719,111.9819564819336,127.98685455322266,-25.93807601928711
9939,-286.927001953125,100.85948944091795,114.97574615478516,-39.278297424316406
9940,-264.45394897460943,117.75261688232422,144.92860412597656,-18.13290405273437
9941,-260.22036743164057,124.76493072509766,148.35061645507812,-11.864832878112793
9942,-273.97946166992193,101.0427474975586,125.89625549316406,-29.805131912231445
9943,-280.96560668945307,91.4461669921875,117.00276947021484,-34.91009521484375
9944,-260.84494018554693,123.05580139160156,140.07421875,-19.438129425048828
9945,-252.7592620849609,131.27983093261722,151.41358947753906,-17.590620040893555
9946,-275.56143188476557,100.3620834350586,126.13934326171876,-41.634437561035156
9947,-279.21157836914057,105.88965606689452,122.98661041259766,-46.08491897583008
9948,-260.73648071289057,121.44763946533205,141.83570861816406,-33.25331878662109
9949,-258.29058837890625,130.70014953613278,148.64231872558594,-31.95183563232422
9950,-275.77462768554693,110.17184448242188,132.08204650878906,-48.46723175048828
9951,-293.546630859375,101.92162322998048,114.17914581298828,-62.955604553222656
9952,-266.7128295898437,128.71052551269528,147.785888671875,-36.65288925170898
9953,-266.99331665039057,127.70823669433594,148.19354248046875,-29.04593276977539
9954,-285.3076171875,112.37090301513672,132.97587585449222,-39.52513122558594
9955,-294.6985168457031,97.58708190917969,125.55218505859376,-44.005531311035156
9956,-265.6656494140625,117.89099884033205,141.5926055908203,-24.11300468444824
9957,-264.08743286132807,133.85662841796878,150.2429962158203,-13.74974250793457
9958,-279.35369873046875,110.29525756835938,134.38957214355472,-30.55685234069824
9959,-288.4603576660156,90.17459869384766,118.41645050048828,-31.2861328125
9960,-264.07620239257807,123.99825286865234,148.48150634765625,-16.105878829956055
9961,-258.70196533203125,122.2180633544922,146.940673828125,-14.366826057434082
9962,-276.8778686523437,104.21417999267578,132.27651977539062,-38.8856086730957
9963,-286.32861328125,93.8209991455078,128.34588623046878,-38.95666885375977
9964,-265.64697265625,119.34955596923828,147.54653930664062,-26.68605613708496
9965,-260.5831298828125,131.87448120117188,142.91653442382812,-26.697275161743164
9966,-273.13796997070307,102.58732604980469,124.721923828125,-48.75146484375
9967,-287.82830810546875,105.29127502441406,116.62503814697266,-58.58366394042969
9968,-266.6866455078125,129.2640380859375,142.2283935546875,-36.55191040039063
9969,-261.25259399414057,135.96966552734378,152.29246520996094,-32.729736328125
9970,-281.73602294921875,114.3156509399414,128.42068481445312,-52.05005645751953
9971,-291.9758605957031,106.55535888671876,120.06948852539062,-57.26721954345703
9972,-274.7611083984375,117.40106964111328,139.47209167480472,-37.670143127441406
9973,-266.95217895507807,134.23435974121094,148.8442840576172,-25.41448974609375
9974,-290.3714294433594,114.50264739990234,116.90927124023438,-45.43417358398438
9975,-301.516357421875,111.25267028808594,112.33537292480469,-42.01964569091797
9976,-272.74530029296875,131.93058776855472,138.712890625,-22.46370887756348
9977,-266.058349609375,141.86749267578125,154.065185546875,-13.042901039123535
9978,-284.368896484375,102.73692321777344,125.8251953125,-30.796205520629886
9979,-290.1882019042969,95.14118194580078,118.83531951904295,-37.28493118286133
9980,-261.86593627929693,120.48648834228516,139.34492492675778,-22.57964515686035
9981,-263.88922119140625,131.49301147460938,147.68490600585938,-22.57216644287109
9982,-273.40350341796875,99.71134185791016,124.09735870361328,-42.42355346679688
9983,-285.5021057128906,100.11898803710938,121.26251983642578,-46.71321868896485
9984,-269.86932373046875,123.8262176513672,138.42491149902344,-34.69692230224609
9985,-266.77642822265625,140.13218688964844,139.29257202148438,-33.93398284912109
9986,-281.317138671875,116.67552947998048,125.03233337402344,-56.91940689086914
9987,-289.0437927246094,99.4383316040039,117.02146911621094,-61.48208618164063
9988,-263.71343994140625,129.0059814453125,136.96635437011722,-40.531166076660156
9989,-258.5673217773437,122.33399963378906,146.64895629882812,-34.225692749023445
9990,-281.14511108398443,107.1051254272461,127.86344146728516,-53.44129943847656
9991,-279.33126831054693,104.49093627929688,122.33586883544922,-55.1840934753418
9992,-258.63839721679693,118.51930236816406,145.94960021972656,-32.108909606933594
9993,-259.943603515625,138.72598266601562,146.7611541748047,-25.50798797607422
9994,-279.18167114257807,109.84273529052734,125.5297393798828,-44.55155944824219
9995,-280.6102905273437,103.0361099243164,118.20327758789062,-43.242591857910156
9996,-257.30325317382807,127.0986328125,143.67947387695312,-23.07705307006836
9997,-260.88232421875,126.71341705322266,150.47860717773438,-14.27706813812256
9998,-275.3482666015625,105.88965606689452,124.83412170410156,-29.580738067626953
9999,-274.9256591796875,98.84742736816406,126.53577423095705,-34.76797866821289
10000,-265.81524658203125,118.94938659667969,138.31271362304688,-21.9962215423584
10001,-263.5526123046875,122.77156829833984,143.35784912109375,-32.127609252929695
10002,-280.93942260742193,111.37235260009766,128.51417541503906,-44.03171157836914
10003,-278.39627075195307,101.68975067138672,119.00735473632812,-49.031959533691406
10004,-268.1826171875,120.68843841552734,138.34637451171878,-40.20579528808594
10005,-262.67373657226557,135.30770874023438,149.48379516601562,-32.841930389404304
10006,-280.88333129882807,118.32482147216795,129.93534851074222,-52.16973495483398
10007,-286.4333190917969,93.1964340209961,117.72457122802734,-64.75075531005861
10008,-251.6933898925781,132.2222900390625,147.49417114257812,-40.912635803222656
10009,-245.8180084228516,137.37213134765622,153.5902099609375,-37.21761322021485
10010,-272.18057250976557,109.10597229003906,127.8185577392578,-57.35697555541992
10011,-282.69342041015625,104.85370635986328,123.76824951171876,-52.20713424682617
10012,-257.81185913085943,134.63078308105472,146.69757080078125,-25.773521423339844
10013,-257.078857421875,136.70643615722656,143.6271209716797,-20.866771697998047
10014,-284.4997863769531,116.4586181640625,124.56858825683594,-36.08816528320313
10015,-279.07693481445307,111.66032409667969,126.55447387695312,-34.229434967041016
10016,-269.461669921875,127.01634979248048,146.26748657226562,-17.003454208374027
10017,-256.6151123046875,125.62885284423828,145.8000030517578,-10.862539291381836
10018,-285.2440490722656,107.05276489257812,128.34588623046878,-31.076698303222656
10019,-292.091796875,91.5284423828125,119.53842163085938,-42.83868408203125
10020,-271.27926635742193,120.21721649169922,136.33056640625,-25.70620155334473
10021,-264.0799560546875,131.21626281738278,143.11474609375,-27.43403625488281
10022,-280.05307006835943,101.5476303100586,127.00326538085938,-44.52164077758789
10023,-285.8573913574219,97.40756225585938,123.22970581054688,-54.62310791015625
10024,-266.46600341796875,131.74732971191406,140.39958190917972,-41.9373664855957
10025,-256.48046875,129.33134460449222,148.7993927001953,-32.67363739013672
10026,-281.19000244140625,114.95891571044922,130.2681884765625,-47.06476974487305
10027,-279.24899291992193,94.961669921875,121.2251205444336,-58.07877731323242
10028,-259.19564819335943,115.33290100097656,139.09809875488278,-38.34706497192383
10029,-252.29551696777344,124.634033203125,143.7542724609375,-34.24813461303711
10030,-259.49856567382807,109.51361846923828,132.69912719726562,-42.40111541748047
10031,-274.82467651367193,105.88591766357422,118.84467315673828,-46.59728240966797
10032,-261.31240844726557,126.53390502929688,140.19575500488278,-30.01830673217773
10033,-262.01925659179693,132.41676330566406,145.37551879882812,-20.40676498413086
10034,-285.8760681152344,118.5118179321289,122.29660034179688,-37.28493118286133
10035,-300.0989074707031,107.43797302246094,110.70291137695312,-45.56133270263672
10036,-264.40158081054693,127.37164306640624,131.30975341796878,-24.486995697021484
10037,-277.431396484375,137.6563720703125,134.32037353515622,-22.321592330932614
10038,-289.3766174316406,109.16954803466795,122.12456512451172,-39.37927627563477
10039,-293.7485656738281,98.3350601196289,118.49685668945312,-42.10566329956055
10040,-264.97003173828125,132.69352722167972,141.86749267578125,-29.07211303710937
10041,-261.0169677734375,130.57673645019528,149.0144500732422,-30.48579406738281
10042,-282.9888916015625,100.3620834350586,127.5586395263672,-50.46434020996094
10043,-284.2978515625,109.53605651855469,127.36790466308594,-55.40100860595703
10044,-262.57650756835943,126.500244140625,141.7665252685547,-40.516204833984375
10045,-253.2117919921875,118.47441864013672,152.55612182617188,-32.56517791748047
10046,-277.30422973632807,105.1603775024414,131.14520263671878,-51.61996841430664
10047,-284.3876037597656,101.21852111816406,119.7347640991211,-56.23126602172852
10048,-265.14956665039057,122.25171661376952,148.22158813476562,-34.85399627685547
10049,-254.44970703125,132.81694030761722,152.69076538085938,-21.16222381591797
10050,-266.0059814453125,109.74549102783205,122.1993637084961,-46.780540466308594
10051,-286.8858642578125,107.509033203125,116.840087890625,-44.81709289550781
10052,-267.14666748046875,128.17945861816406,139.82176208496094,-16.25173568725586
10053,-269.94784545898443,135.22169494628906,151.01528930664062,-12.695090293884276
10054,-284.36517333984375,103.59709930419922,127.00139617919922,-25.900676727294922
10055,-291.7701721191406,107.35943603515624,125.05664825439452,-32.789573669433594
10056,-276.3729858398437,122.84262084960938,142.45840454101562,-20.29082679748535
10057,-268.94931030273443,138.18743896484378,147.46986389160156,-23.53705978393555
10058,-287.6151428222656,122.3003387451172,129.0059814453125,-41.42874145507813
10059,-288.67352294921875,116.00982666015624,128.27296447753906,-43.01445770263672
10060,-269.34945678710943,122.20684051513672,143.45321655273438,-26.98898887634277
10061,-257.9652099609375,126.2982940673828,148.19166564941406,-22.493627548217773
10062,-283.34417724609375,101.55511474609376,120.71088409423828,-46.65338134765625
10063,-287.525390625,91.51721954345705,117.47586822509766,-49.114234924316406
10064,-257.52017211914057,120.5164031982422,143.26248168945312,-36.907203674316406
10065,-251.22964477539062,132.40180969238278,152.35043334960938,-36.57809066772461
10066,-270.09371948242193,103.16326904296876,126.16365814208984,-54.26408004760742
10067,-275.037841796875,99.80110168457031,122.95855712890624,-51.87054061889648
10068,-255.6389923095703,124.7724151611328,139.61233520507812,-33.690887451171875
10069,-256.74224853515625,121.48503875732422,141.58700561523438,-30.19408226013184
10070,-277.65203857421875,117.22903442382812,119.7534637451172,-43.49690628051758
10071,-291.5121154785156,101.7832489013672,110.34387969970705,-42.55819320678711
10072,-270.29940795898443,126.93781280517578,134.81404113769528,-16.741662979125973
10073,-266.91851806640625,141.09707641601562,137.81344604492188,-15.324239730834961
10074,-282.45782470703125,120.3780288696289,120.7781982421875,-35.01107406616211
10075,-297.74652099609375,110.12696075439452,110.80762481689452,-46.57858276367188
10076,-265.42257690429693,134.70932006835938,139.48892211914062,-22.557207107543945
10077,-266.4398193359375,135.7789306640625,146.26560974121094,-28.85893821716309
10078,-276.14486694335943,112.92814636230469,129.03964233398438,-44.47676086425781
10079,-290.78656005859375,109.19198608398438,121.55609893798828,-52.97381210327149
10080,-263.92660522460943,130.59918212890622,146.95750427246094,-35.026031494140625
10081,-258.51123046875,130.87966918945312,155.44332885742188,-26.40182304382324
10082,-275.07525634765625,110.54957580566406,126.94529724121094,-46.95257568359375
10083,-291.833740234375,106.4281997680664,120.99137115478516,-45.45661544799805
10084,-268.82586669921875,136.25764465332028,141.0522003173828,-31.64142417907715
10085,-261.316162109375,135.98463439941406,144.5489959716797,-24.558053970336914
10086,-280.83096313476557,103.39888763427734,119.90306091308594,-40.68824005126953
10087,-284.3090515136719,98.2340850830078,117.69277954101562,-42.88356399536133
10088,-270.0899658203125,113.79580688476562,132.20733642578122,-30.64286994934082
10089,-268.85205078125,128.67312622070312,135.02348327636722,-22.22809600830078
10090,-284.5110168457031,99.2588119506836,109.95118713378906,-42.09070587158203
10091,-294.2272644042969,109.74175262451172,111.34991455078124,-39.536354064941406
10092,-280.64022827148443,130.15412902832028,130.52812194824222,-26.241008758544922
10093,-270.06378173828125,141.2915496826172,133.43775939941406,-26.33076477050781
10094,-293.94305419921875,119.89932250976562,121.69821166992188,-45.37059783935547
10095,-299.7436218261719,118.8521499633789,119.1663055419922,-52.34925079345703
10096,-274.379638671875,137.66758728027344,144.0553436279297,-35.71043395996094
10097,-267.8310546875,140.4500732421875,153.64817810058594,-29.51342010498047
10098,-274.58905029296875,111.05072021484376,140.65202331542972,-42.778846740722656
10099,-285.5993347167969,103.90003204345705,129.21914672851562,-50.66255569458008
10100,-254.0345764160156,116.12576293945312,150.42813110351562,-29.83131217956543
10101,-259.4237670898437,122.90994262695312,155.97813415527344,-23.37624549865723
10102,-268.12652587890625,93.99677276611328,135.22169494628906,-42.80876541137695
10103,-279.82119750976557,88.31212615966797,124.12166595458984,-42.92470169067383
10104,-258.46261596679693,118.0705108642578,146.01504516601562,-27.83420562744141
10105,-261.14785766601557,130.56178283691406,148.91346740722656,-22.22809600830078
10106,-281.833251953125,95.88542175292969,119.10272216796876,-40.0599365234375
10107,-287.256103515625,102.14228057861328,116.63439178466795,-48.19047927856445
10108,-274.8433837890625,121.5186996459961,138.68110656738278,-18.783647537231445
10109,-269.9515991210937,130.93951416015622,138.67361450195312,-22.5422477722168
10110,-284.73541259765625,109.6931381225586,124.4470443725586,-37.26623153686523
10111,-292.8323059082031,108.2532730102539,114.18475341796876,-51.81818389892578
10112,-275.13510131835943,130.748779296875,139.00273132324222,-34.117237091064446
10113,-261.73501586914057,136.14544677734378,150.68992614746094,-21.180923461914066
10114,-271.997314453125,112.1465072631836,140.13966369628906,-39.2670783996582
10115,-283.0711669921875,96.4651107788086,130.67398071289062,-44.76099395751953
10116,-268.87823486328125,129.20419311523438,157.0664520263672,-23.742753982543945
10117,-252.08609008789062,138.718505859375,164.45274353027344,-18.615352630615234
10118,-274.64889526367193,113.77336883544922,142.60800170898438,-40.24693298339844
10119,-269.1624755859375,100.2798080444336,129.73152160644528,-44.09154891967773
10120,-254.2514953613281,119.46549224853516,150.09153747558594,-22.91623687744141
10121,-252.7630157470703,119.3121566772461,153.58834838867188,-15.593512535095215
10122,-277.19952392578125,103.92247009277344,134.55598449707028,-35.56831741333008
10123,-280.71875,105.82608032226562,128.79653930664062,-35.8338508605957
10124,-267.37106323242193,116.03600311279295,139.8629150390625,-20.4703426361084
10125,-268.43319702148443,134.11468505859378,148.01214599609375,-10.611966133117676
10126,-286.4407958984375,118.36970520019531,125.68494415283205,-32.01541519165039
10127,-293.348388671875,109.68191528320312,114.08751678466795,-33.66844940185547
10128,-281.9678955078125,123.92719268798828,132.80570983886722,-20.668556213378906
10129,-261.39096069335943,141.91236877441406,147.1370086669922,-16.494829177856445
10130,-290.45745849609375,126.8218765258789,120.8604736328125,-40.3479118347168
10131,-292.3199157714844,119.43557739257812,116.8587875366211,-47.73047256469727
10132,-271.59341430664057,129.716552734375,136.69895935058594,-31.132797241210934
10133,-252.37779235839844,142.68653869628906,150.7946319580078,-35.897430419921875
10134,-276.5338134765625,129.23037719726562,141.20553588867188,-51.09264373779297
10135,-276.56747436523443,114.51760864257812,141.15316772460938,-50.70743179321289
10136,-253.8999328613281,138.87557983398438,163.82070922851562,-30.49701499938965
10137,-243.42074584960938,151.44537353515625,170.53756713867188,-23.37998390197754
10138,-277.87643432617193,113.14132690429688,142.5706024169922,-44.042930603027344
10139,-276.99755859375,114.633544921875,137.55912780761722,-44.86944961547852
10140,-263.8256225585937,126.20479583740234,144.79957580566406,-28.204456329345703
10141,-250.7210235595703,136.84480285644528,155.491943359375,-14.50146198272705
10142,-274.95184326171875,105.36607360839844,125.86072540283205,-32.59509658813477
10143,-289.53369140625,98.42855834960938,111.3648681640625,-37.64770126342773
10144,-268.99417114257807,114.30068969726562,132.95156860351562,-19.8831787109375
10145,-253.0098419189453,131.45187377929688,142.43222045898438,-13.226156234741213
10146,-282.2596130371094,108.68336486816406,118.41831970214844,-29.397483825683594
10147,-287.4692687988281,101.94406127929688,113.6536865234375,-35.0185546875
10148,-266.48095703125,126.07389831542969,126.04772186279295,-23.94096946716309
10149,-257.37057495117193,134.15582275390622,140.408935546875,-22.168256759643555
10150,-286.5455322265625,104.68914794921876,118.05929565429688,-41.48857879638672
10151,-290.8052673339844,99.7786636352539,114.2558135986328,-51.892982482910156
10152,-258.47384643554693,130.3673095703125,140.98114013671875,-36.34995651245117
10153,-254.4048309326172,143.53175354003906,150.05413818359375,-35.05221176147461
10154,-280.6102905273437,119.73851013183594,134.35403442382812,-49.63034057617188
10155,-281.40316772460943,110.1830596923828,129.59687805175778,-54.81010437011719
10156,-262.24365234375,133.17222595214844,157.56011962890625,-33.417877197265625
10157,-254.367431640625,143.50930786132812,168.6825714111328,-24.41967582702637
10158,-269.81320190429693,109.88761138916016,146.53863525390625,-44.05789184570313
10159,-277.01626586914057,106.00933074951172,136.32122802734378,-46.51500701904297
10160,-258.8927001953125,122.33773803710938,153.8389129638672,-25.668804168701172
10161,-254.0196075439453,123.87109375,153.56590270996094,-20.50026130676269
10162,-268.25741577148443,105.47078704833984,133.32929992675778,-35.57953643798828
10163,-287.37579345703125,105.4969711303711,120.6921844482422,-42.6890869140625
10164,-267.27383422851557,118.37344360351562,139.3056640625,-20.302047729492188
10165,-259.64068603515625,126.77326202392578,138.04531860351562,-14.44162368774414
10166,-277.0499267578125,103.28668975830078,121.76179504394531,-31.12157821655273
10167,-288.9278259277344,94.9018325805664,113.4891357421875,-41.00987243652344
10168,-275.45672607421875,120.21721649169922,130.2738037109375,-22.905017852783203
10169,-264.10986328125,129.73899841308594,138.25474548339844,-22.92745590209961
10170,-281.56396484375,107.71472930908205,120.3518524169922,-40.92011642456055
10171,-291.3363342285156,101.1100616455078,112.767333984375,-49.33115005493164
10172,-270.74444580078125,128.84890747070312,137.44692993164062,-29.5844783782959
10173,-262.01925659179693,135.65177917480472,144.7846221923828,-28.44754981994629
10174,-275.81576538085943,116.19308471679688,124.63029479980469,-51.69850540161133
10175,-275.40435791015625,104.62183380126952,124.84346771240234,-55.44962692260742
10176,-268.14520263671875,137.357177734375,150.5889434814453,-32.045333862304695
10177,-259.4910888671875,145.4091796875,162.2424774169922,-28.66446304321289
10178,-285.0832214355469,118.09294891357422,141.84130859375,-38.35080337524414
10179,-278.53466796875,111.5593490600586,140.16958618164062,-39.229679107666016
10180,-270.00021362304693,134.02867126464844,153.76785278320312,-26.11759185791016
10181,-254.03831481933597,131.64634704589844,161.36734008789062,-15.413997650146484
10182,-270.52752685546875,109.87265014648438,137.14399719238278,-35.063430786132805
10183,-278.9759521484375,105.24639129638672,126.15617370605469,-46.20459365844727
10184,-261.89208984375,126.3730926513672,147.93360900878906,-25.650104522705078
10185,-256.96664428710943,133.82670593261722,150.83203125,-17.923471450805664
10186,-274.99298095703125,112.75985717773438,132.98896789550778,-35.25042724609375
10187,-280.74868774414057,92.70651245117188,124.77615356445312,-39.80188369750977
10188,-260.25778198242193,125.91682434082031,143.3746795654297,-17.05581283569336
10189,-261.0169677734375,132.28587341308594,144.88185119628906,-20.537660598754886
10190,-282.2483825683594,107.59505462646484,122.91368103027344,-41.01735305786133
10191,-285.36370849609375,102.34049224853516,114.6522445678711,-55.20279312133789
10192,-275.400634765625,134.05110168457028,139.11492919921878,-34.266834259033196
10193,-260.55694580078125,138.68110656738278,146.18707275390625,-22.351512908935547
10194,-280.68508911132807,111.80243682861328,126.1973114013672,-46.30557250976562
10195,-287.3309020996094,103.0361099243164,113.13758087158205,-55.5767822265625
10196,-267.853515625,130.78617858886722,140.76795959472656,-35.91986846923828
10197,-255.6015930175781,138.98028564453122,146.5161895751953,-29.846271514892575
10198,-280.41583251953125,116.81016540527344,132.24847412109378,-47.1545295715332
10199,-279.52572631835943,109.46874237060548,125.58396911621094,-44.29350662231445
10200,-261.89584350585943,144.70982360839844,144.11517333984375,-24.03072738647461
10201,-264.4501953125,144.02542114257812,147.0135955810547,-27.45647621154785
10202,-286.51934814453125,122.7042465209961,132.64863586425778,-44.77221298217773
10203,-285.71527099609375,116.88870239257812,129.09199523925778,-42.232818603515625
10204,-257.56503295898443,134.99356079101562,149.6838836669922,-21.72320938110352
10205,-252.3179626464844,133.13108825683594,158.884033203125,-20.459123611450195
10206,-284.9710388183594,112.62147521972656,135.15437316894528,-39.65977096557617
10207,-284.6307067871094,112.57286071777344,130.58421325683594,-43.006980895996094
10208,-273.1417236328125,139.92274475097656,145.74951171875,-23.12567138671875
10209,-267.71139526367193,135.02348327636722,146.3890380859375,-24.05690574645996
10210,-288.3294677734375,117.65538024902344,122.67433166503906,-38.23486709594727
10211,-300.59259033203125,111.87349700927734,112.92440795898438,-44.06163024902344
10212,-279.02459716796875,129.22663879394528,129.37248229980472,-38.00673294067383
10213,-264.8466186523437,141.1756134033203,139.81428527832028,-35.21302795410156
10214,-282.1212158203125,124.04312896728516,124.73501586914062,-46.67582321166992
10215,-284.81396484375,111.36861419677734,118.9344253540039,-55.85353469848633
10216,-267.98440551757807,139.04386901855472,133.59483337402344,-35.4112434387207
10217,-252.1234893798828,151.52391052246094,151.49400329589844,-30.74758720397949
10218,-272.78643798828125,132.57759094238278,130.42340087890622,-46.61598205566406
10219,-282.0015563964844,106.828369140625,120.32566833496094,-58.09373474121094
10220,-264.37539672851557,136.80740356445312,138.90924072265622,-35.72913360595703
10221,-258.57479858398443,137.58905029296878,146.01878356933594,-25.47058868408203
10222,-274.203857421875,116.73536682128906,133.50881958007812,-43.44828796386719
10223,-285.1505432128906,117.24773406982422,126.49276733398438,-42.44599533081055
10224,-273.70645141601557,133.31808471679688,149.9905548095703,-25.945556640625
10225,-260.37371826171875,145.98512268066406,160.55577087402344,-16.434989929199222
10226,-283.7443542480469,119.00174713134766,139.82925415039062,-40.0487174987793
10227,-293.9654846191406,108.5524673461914,137.06172180175778,-41.76907348632813
10228,-276.40292358398443,136.0482177734375,155.2413787841797,-27.87534523010254
10229,-263.24594116210943,144.6051025390625,160.73902893066406,-17.863632202148438
10230,-279.110595703125,120.12371826171876,130.68893432617188,-41.802730560302734
10231,-290.7903137207031,113.56393432617188,122.68180847167969,-47.38640213012695
10232,-266.35940551757807,122.77717590332031,135.59194946289062,-42.22908020019531
10233,-255.23321533203125,137.55726623535156,143.45321655273438,-32.42306137084961
10234,-275.55209350585943,112.77667999267578,120.47900390625,-49.47700500488281
10235,-280.80291748046875,112.48497009277344,114.16231536865234,-57.26721954345703
10236,-260.33444213867193,123.53263854980469,139.17851257324222,-34.18829727172852
10237,-255.18833923339844,127.39968872070312,149.45201110839844,-24.026987075805664
10238,-280.96371459960943,126.74894714355469,128.47491455078122,-39.06138610839844
10239,-283.940673828125,118.13970184326172,122.33026123046876,-47.09095001220703
10240,-268.93246459960943,136.36796569824222,145.6634979248047,-33.72454833984375
10241,-259.7958984375,142.95767211914062,148.4609375,-23.608118057250977
10242,-284.18377685546875,135.54519653320312,129.25654602050778,-47.2555046081543
10243,-285.55633544921875,118.76800537109376,128.65817260742188,-47.5846176147461
10244,-270.72763061523443,141.48416137695312,153.77159118652344,-21.921422958374023
10245,-266.21728515625,151.2639923095703,156.12399291992188,-17.343786239624027
10246,-290.46307373046875,131.24057006835938,135.27030944824222,-38.601375579833984
10247,-286.4538879394531,119.15695190429688,128.69183349609378,-45.27335739135742
10248,-272.52651977539057,134.39704895019528,151.80441284179688,-28.20071601867676
10249,-262.589599609375,147.33709716796875,148.57687377929688,-23.36502456665039
10250,-281.08340454101557,129.94282531738278,127.56985473632812,-41.49605941772461
10251,-291.6448669433594,113.50596618652344,115.65453338623048,-49.04691696166992
10252,-271.25494384765625,131.79782104492188,134.11468505859378,-32.20615005493164
10253,-263.37496948242193,139.475830078125,132.91043090820312,-33.56747055053711
10254,-279.64727783203125,115.28241729736328,117.5843276977539,-51.249717712402344
10255,-281.62567138671875,108.36734008789062,108.14107513427734,-51.99769973754883
10256,-269.2802734375,133.67524719238278,126.4778060913086,-35.62067794799805
10257,-261.2133178710937,146.0393524169922,134.61209106445312,-23.058353424072266
10258,-272.81448364257807,120.14802551269531,121.78423309326172,-38.24608612060547
10259,-287.7292175292969,109.01808166503906,113.5751495361328,-51.399314880371094
10260,-269.34011840820307,134.0828857421875,131.418212890625,-37.44200897216797
10261,-261.744384765625,141.5851287841797,141.84506225585938,-22.9349365234375
10262,-286.8989562988281,120.9521026611328,121.5411376953125,-46.79549789428711
10263,-292.273193359375,118.56604766845705,122.19561767578124,-47.887550354003906
10264,-276.40478515625,132.35879516601562,142.82864379882812,-31.36093139648437
10265,-262.3203125,145.2801513671875,158.91395568847656,-24.29252052307129
10266,-275.00607299804693,131.00869750976562,136.12300109863278,-40.79669952392578
10267,-281.2105712890625,113.3002700805664,128.26922607421878,-47.17696762084961
10268,-273.7457275390625,137.97987365722656,142.28636169433594,-29.94350814819336
10269,-271.96926879882807,139.74884033203122,144.57144165039062,-25.07041931152344
10270,-279.64727783203125,127.33611297607422,128.22433471679688,-42.63298797607422
10271,-290.5415954589844,113.16189575195312,112.65513610839844,-56.852088928222656
10272,-265.04672241210943,128.83955383300778,126.0177993774414,-39.386756896972656
10273,-267.7955322265625,133.51068115234378,126.14495849609376,-27.35549736022949
10274,-283.24505615234375,119.88623046875,101.95902252197266,-49.29375076293945
10275,-293.0061950683594,110.32331085205078,100.22744750976562,-58.78187942504883
10276,-266.497802734375,134.37834167480472,125.04542541503906,-40.864017486572266
10277,-259.57150268554693,144.04598999023438,137.60774230957028,-27.658430099487305
10278,-272.0477905273437,123.536376953125,122.52847290039062,-43.16779708862305
10279,-289.385986328125,108.72637176513672,117.18041229248048,-46.11483764648438
10280,-270.95574951171875,140.8408966064453,140.97740173339844,-26.64117813110352
10281,-263.8050537109375,143.81411743164062,159.05233764648438,-13.947957038879395
10282,-278.95913696289057,118.69320678710938,132.11756896972656,-37.77859878540039
10283,-286.7867431640625,113.21424865722656,120.3368911743164,-45.90540313720703
10284,-276.22152709960943,141.7085418701172,141.91610717773438,-31.02433967590332
10285,-264.54556274414057,145.96829223632812,156.64010620117188,-26.22604751586914
10286,-281.7154541015625,121.6926040649414,133.68460083007812,-43.78487777709961
10287,-290.5378723144531,120.85860443115234,123.94215393066406,-54.70912551879883
10288,-266.54641723632807,135.29461669921878,144.67990112304688,-35.05221176147461
10289,-264.2650756835937,144.00485229492188,159.224365234375,-27.441516876220703
10290,-283.3348083496094,123.08758544921876,124.36102294921876,-47.5247802734375
10291,-276.83114624023443,110.86185455322266,123.15677642822266,-54.34635543823242
10292,-263.85366821289057,138.82135009765622,140.61836242675778,-39.12870407104492
10293,-246.8034820556641,135.23478698730472,148.70777893066406,-31.38337135314941
10294,-273.92898559570307,113.96597290039062,128.97605895996094,-46.61972427368164
10295,-286.4913024902344,119.87501525878906,116.5371551513672,-49.5443229675293
10296,-272.8930053710937,132.41490173339844,140.32666015625,-33.346817016601555
10297,-256.35891723632807,137.76669311523438,154.07452392578125,-23.33884620666504
10298,-281.54339599609375,115.6040496826172,127.83164978027344,-42.79754638671875
10299,-280.70193481445307,116.72227478027344,127.85408782958984,-42.80876541137695
10300,-271.98422241210943,125.8663330078125,144.27224731445312,-23.638036727905273
10301,-249.15213012695312,139.61795043945312,152.2382354736328,-18.312419891357425
10302,-279.98760986328125,109.94184112548828,127.60725402832031,-37.72624206542969
10303,-285.1187438964844,106.20568084716795,121.5,-43.49690628051758
10304,-270.97445678710943,132.04464721679688,139.44404602050778,-32.42306137084961
10305,-257.03958129882807,133.27880859375,152.20831298828125,-21.91020393371582
10306,-281.5209655761719,113.98841094970705,131.40699768066406,-37.35599136352539
10307,-283.21514892578125,105.98128509521484,126.49650573730469,-48.05584335327149
10308,-261.28436279296875,128.94427490234378,142.59303283691406,-27.617290496826172
10309,-257.1256103515625,130.77308654785156,151.70343017578125,-24.26260185241699
10310,-273.95513916015625,113.56206512451172,128.67686462402344,-41.34272384643555
10311,-285.8779602050781,106.07478332519531,117.73766326904295,-47.89502716064453
10312,-262.11837768554693,126.11316680908205,138.94288635253906,-31.28239250183105
10313,-264.949462890625,138.89241027832028,144.38070678710938,-25.35465240478516
10314,-282.6803283691406,117.432861328125,129.54078674316406,-40.50498580932617
10315,-296.4955139160156,105.91770935058594,111.29381561279295,-52.48762512207031
10316,-271.62518310546875,131.71553039550778,135.21421813964844,-31.869558334350586
10317,-265.454345703125,141.2447967529297,144.74722290039062,-20.077651977539066
10318,-273.8990478515625,112.48123168945312,126.50772857666016,-38.67991638183594
10319,-283.7013244628906,109.17516326904295,118.20140838623048,-43.852195739746094
10320,-270.15542602539057,125.4624252319336,138.18370056152344,-22.80404090881348
10321,-250.1619110107422,130.9600830078125,143.9281768798828,-17.093212127685547
10322,-279.10498046875,113.88743591308594,125.92803955078124,-32.57265853881836
10323,-275.82135009765625,98.8829574584961,118.025634765625,-45.449134826660156
10324,-273.53253173828125,122.69490051269531,138.30337524414062,-25.982954025268555
10325,-262.39511108398443,134.12777709960938,144.1263885498047,-21.057506561279297
10326,-276.31875610351557,110.86185455322266,129.20045471191406,-40.16091537475586
10327,-287.94610595703125,102.21146392822266,118.63523864746094,-47.03485107421875
10328,-266.54641723632807,128.80215454101562,143.63272094726562,-32.88681030273437
10329,-252.26747131347656,150.40756225585938,153.31906127929688,-26.1213321685791
10330,-272.20114135742193,109.4855728149414,132.65237426757812,-47.40884017944336
10331,-286.3641357421875,102.10675048828124,118.9157257080078,-55.32994842529297
10332,-273.1361083984375,125.66437530517578,142.1966094970703,-31.278654098510746
10333,-268.64822387695307,144.1731414794922,150.35333251953125,-21.483856201171875
10334,-283.50311279296875,115.3272933959961,129.62306213378906,-34.73432159423828
10335,-297.3033447265625,107.60440063476562,117.99197387695312,-43.051856994628906
10336,-268.68936157226557,138.00604248046878,148.5918426513672,-19.419429779052734
10337,-256.12704467773443,142.50888061523438,157.0552215576172,-12.006948471069336
10338,-272.96408081054693,110.74591827392578,138.27345275878906,-33.836746215820305
10339,-280.571044921875,97.29349517822266,128.92744445800778,-37.50558853149414
10340,-254.75450134277344,117.93026733398438,144.46298217773438,-18.64901161193848
10341,-247.28591918945312,130.23454284667972,159.01119995117188,-12.003209114074707
10342,-270.56304931640625,115.21509552001952,131.13772583007812,-29.71911430358887
10343,-288.4435119628906,93.55359649658205,113.05156707763672,-47.18818664550781
10344,-268.8165283203125,125.95609283447266,128.75166320800778,-25.837099075317386
10345,-250.8500518798828,139.74136352539062,139.02891540527344,-18.585432052612305
10346,-284.04541015625,121.5504913330078,122.13578033447266,-46.249473571777344
10347,-289.4233703613281,112.9599380493164,113.26847839355469,-54.04342269897461
10348,-268.08724975585943,137.43757629394528,137.62644958496094,-34.895137786865234
10349,-262.36892700195307,136.62228393554688,146.53863525390625,-25.59026527404785
10350,-281.20681762695307,126.1468276977539,125.52413177490234,-49.93701553344727
10351,-288.6567077636719,125.38762664794922,117.29634857177734,-56.14524841308594
10352,-276.93960571289057,133.51443481445312,132.521484375,-41.11833190917969
10353,-267.89276123046875,139.84608459472656,142.2340087890625,-31.185155868530273
10354,-288.5594482421875,128.701171875,127.99620819091795,-44.424400329589844
10355,-292.14227294921875,112.08106231689452,120.3555908203125,-44.03545379638672
10356,-266.90542602539057,131.3826904296875,145.7083740234375,-21.547433853149414
10357,-253.15756225585938,133.83232116699222,152.98622131347656,-14.39300537109375
10358,-276.8797607421875,104.80321502685548,134.22688293457028,-30.534412384033203
10359,-282.8486328125,91.95665740966795,119.37947845458984,-37.86835861206055
10360,-264.9457397460937,115.65640258789062,141.48602294921875,-15.963763236999512
10361,-260.85427856445307,126.13186645507812,150.15512084960938,-10.574566841125488
10362,-270.78372192382807,102.3610610961914,130.04940795898438,-27.90152359008789
10363,-284.8008728027344,95.53948211669922,115.34786224365234,-41.72419357299805
10364,-270.6715087890625,124.02629852294922,135.995849609375,-28.43632888793945
10365,-254.97889709472656,124.38907623291016,143.00442504882812,-22.901277542114254
10366,-285.7021789550781,116.58763885498048,126.54886627197266,-42.517051696777344
10367,-296.8732604980469,109.55288696289062,114.11370086669922,-54.31643676757813
10368,-281.9548034667969,134.4755859375,124.88461303710938,-39.82432556152344
10369,-266.18362426757807,141.41310119628906,141.2915496826172,-31.78727912902832
10370,-286.0724182128906,131.99977111816406,131.40699768066406,-47.22184753417969
10371,-283.33856201171875,114.75882720947266,120.24339294433594,-54.45481491088867
10372,-273.19219970703125,132.8973388671875,136.171630859375,-47.60331726074219
10373,-252.46568298339844,142.66221618652344,146.16464233398438,-28.421369552612305
10374,-268.60708618164057,119.0784149169922,131.30975341796878,-39.805625915527344
10375,-282.6130065917969,103.30725860595705,121.30178833007812,-52.48762512207031
10376,-264.53433227539057,124.81916046142578,142.110595703125,-26.27840614318848
10377,-257.09942626953125,138.06214904785156,149.25753784179688,-17.366226196289062
10378,-273.97384643554693,111.81926727294922,136.98692321777344,-28.87763786315918
10379,-277.1976318359375,105.10240936279295,122.79774475097656,-32.052810668945305
10380,-265.06915283203125,115.05428314208984,139.96014404296878,-19.161376953125
10381,-254.93402099609372,126.55447387695312,150.72732543945312,-12.242562294006348
10382,-271.61398315429693,111.52381896972656,134.23062133789062,-30.111804962158203
10383,-289.7487487792969,106.20194244384766,120.4416046142578,-40.276851654052734
10384,-266.09014892578125,127.68392181396484,141.2952880859375,-22.175737380981445
10385,-269.033447265625,136.00520324707028,143.13157653808594,-25.63514518737793
10386,-279.40792846679693,121.81602478027344,126.40300750732422,-40.69572067260742
10387,-303.35076904296875,128.00555419921878,116.75032806396484,-48.882362365722656
10388,-281.73040771484375,140.93064880371094,139.563720703125,-29.80139350891113
10389,-277.31356811523443,147.93922424316406,143.57289123535156,-29.11699104309082
10390,-293.436279296875,130.6085205078125,130.31494140625,-38.814552307128906
10391,-300.38128662109375,119.27662658691406,118.03311157226562,-49.19651412963867
10392,-269.76644897460943,141.99278259277344,140.21446228027344,-26.413043975830078
10393,-261.837890625,139.12054443359378,147.7765350341797,-18.686410903930664
10394,-276.71145629882807,108.8423080444336,133.30686950683594,-35.96474838256836
10395,-268.92498779296875,98.09009552001952,130.30372619628906,-38.59389877319336
10396,-254.03643798828125,119.30281066894531,143.6738739013672,-21.88402366638184
10397,-256.88250732421875,125.68682098388672,151.46408081054688,-14.621138572692873
10398,-261.30682373046875,107.26406860351562,136.86351013183594,-29.4087028503418
10399,-275.52590942382807,94.50727081298828,123.4110870361328,-41.89997100830078
10400,-256.826416015625,122.87067413330078,148.21035766601562,-23.8624324798584
10401,-246.8633117675781,118.7605209350586,153.34524536132812,-15.503755569458008
10402,-264.104248046875,100.71550750732422,138.90924072265622,-35.68799591064453
10403,-269.74777221679693,96.36600494384766,129.98957824707028,-47.62949752807617
10404,-257.3013916015625,121.00072479248048,145.0838165283203,-29.004793167114254
10405,-248.176025390625,121.82723999023438,153.83517456054688,-26.04279327392578
10406,-257.27520751953125,119.4037857055664,145.1660919189453,-32.838191986083984
10407,-289.3971862792969,111.18722534179688,129.56321716308594,-50.04920959472656
10408,-260.00906372070307,129.71842956542972,149.59786987304688,-30.59799194335937
10409,-257.32754516601557,138.51841735839844,158.95509338378906,-20.65359687805176
10410,-284.6774597167969,114.4035415649414,133.57614135742188,-44.64879608154297
10411,-287.355224609375,104.7508544921875,128.59085083007812,-48.74398422241211
10412,-274.1982421875,123.84678649902344,148.13182067871094,-31.742401123046875
10413,-259.42562866210943,134.58404541015622,151.0526885986328,-24.28129959106445
10414,-279.17977905273443,118.47628784179688,130.7786865234375,-43.67267990112305
10415,-282.1455383300781,108.45709991455078,122.42001342773438,-51.34695816040039
10416,-265.02426147460943,130.1971435546875,151.2621307373047,-31.050519943237305
10417,-254.24961853027344,131.40885925292972,154.5195770263672,-25.27237319946289
10418,-274.54605102539057,116.0528335571289,131.12275695800778,-35.32896423339844
10419,-273.52133178710943,108.02326965332031,129.69038391113278,-38.39568328857422
10420,-264.58670043945307,112.64579010009766,139.8516845703125,-26.902971267700195
10421,-251.0931396484375,135.51153564453122,152.8590545654297,-14.336906433105467
10422,-278.09149169921875,103.60270690917969,137.75360107421878,-26.70849609375
10423,-285.3768005371094,92.25959014892578,123.92719268798828,-38.48543930053711
10424,-262.95611572265625,117.36927795410156,143.1166229248047,-24.77496719360352
10425,-258.86090087890625,133.13296508789062,149.75868225097656,-19.023000717163086
10426,-274.59841918945307,112.2792739868164,130.70014953613278,-35.26164627075195
10427,-277.08169555664057,104.03279876708984,124.21516418457031,-40.22823333740234
10428,-263.094482421875,127.09676361083984,142.04327392578125,-28.19697570800781
10429,-262.15576171875,132.99832153320312,151.57254028320312,-14.07137393951416
10430,-274.41140747070307,112.56724548339844,129.86614990234378,-28.25307464599609
10431,-284.74102783203125,105.40534210205078,117.37114715576172,-32.602577209472656
10432,-265.82086181640625,115.42453002929688,132.93661499023438,-22.153297424316406
10433,-262.32968139648443,131.44999694824222,144.305908203125,-16.246126174926758
10434,-277.85772705078125,110.3270492553711,123.59434509277344,-30.41286659240723
10435,-278.5234375,99.60101318359376,118.27620697021484,-38.56210708618164
10436,-255.3659820556641,120.41729736328124,141.00732421875,-33.05697631835937
10437,-248.43968200683597,133.30499267578122,153.64443969726562,-23.785762786865234
10438,-273.86727905273443,107.5744857788086,128.29539489746094,-42.76201629638672
10439,-277.01998901367193,86.82177734375,118.99427032470705,-51.42362594604492
10440,-259.30410766601557,123.93280792236328,142.64913940429688,-28.090389251708984
10441,-250.4143524169922,133.970703125,149.32859802246094,-22.31972312927246
10442,-271.06982421875,112.44757080078124,128.9237060546875,-39.04829406738281
10443,-281.9080505371094,100.98104095458984,122.49481201171876,-45.40986633300781
10444,-267.5805053710937,116.98780822753906,144.75096130371094,-25.805309295654297
10445,-252.00755310058597,139.42721557617188,154.93096923828125,-16.062870025634766
10446,-282.2895202636719,120.5444564819336,129.22663879394528,-35.39441299438477
10447,-278.78897094726557,98.93157196044922,119.18125915527344,-43.266902923583984
10448,-260.38491821289057,124.59102630615234,138.97280883789062,-22.81712913513184
10449,-252.9687042236328,132.29896545410156,151.2284698486328,-20.46847152709961
10450,-272.33389282226557,109.463134765625,126.5413818359375,-39.16423416137695
10451,-284.8363952636719,111.74073028564452,116.92610168457031,-50.54100799560547
10452,-262.99911499023443,130.09616088867188,143.83468627929688,-33.621700286865234
10453,-256.46551513671875,134.63639831542972,150.63755798339844,-27.622901916503906
10454,-265.7703857421875,112.9599380493164,137.05424499511722,-41.87192153930664
10455,-278.79644775390625,110.65989685058594,123.52328491210938,-52.80364608764648
10456,-258.933837890625,120.8062515258789,142.54067993164062,-31.51987648010254
10457,-252.4114532470703,128.35336303710938,152.04002380371094,-30.203432083129886
10458,-266.33511352539057,103.97669982910156,127.97002410888672,-35.75718307495117
10459,-282.5999450683594,102.4395980834961,117.33000946044922,-48.68227767944336
10460,-270.72201538085943,124.2619171142578,135.99958801269528,-31.602153778076172
10461,-261.88088989257807,121.63650512695312,147.00985717773438,-20.633028030395508
10462,-279.67160034179693,111.57991790771484,123.35498809814452,-36.93525314331055
10463,-279.96328735351557,104.9079360961914,113.14132690429688,-35.39441299438477
10464,-266.29769897460943,118.79792022705078,133.68084716796878,-25.04985046386719
10465,-258.94879150390625,139.78250122070312,150.9629364013672,-16.05912971496582
10466,-276.13363647460943,113.3152313232422,123.39612579345705,-41.546546936035156
10467,-290.3677062988281,102.4582977294922,111.3012924194336,-43.40901947021485
10468,-262.6138916015625,132.51960754394528,130.74128723144528,-20.28521728515625
10469,-263.36563110351557,137.97987365722656,136.88595581054688,-23.307056427001953
10470,-278.65060424804693,113.08335876464844,115.78916931152344,-39.49334335327149
10471,-287.52911376953125,113.71165466308594,110.05216979980469,-48.12503433227539
10472,-263.3319702148437,128.99662780761722,131.04421997070312,-33.386085510253906
10473,-255.8222503662109,144.37135314941406,147.88499450683594,-24.32056999206543
10474,-255.07052612304688,115.39835357666016,134.35777282714844,-44.98725509643555
10475,-279.55191040039057,102.20398712158205,121.29430389404295,-55.59361267089844
10476,-248.15545654296875,125.9486083984375,148.70028686523438,-31.40768051147461
10477,-250.1076812744141,131.64822387695312,157.6199493408203,-17.573789596557614
10478,-260.99826049804693,122.29846954345705,141.15316772460938,-38.18811798095703
