,T7,F8,Cz,P4
2000,-270.95950317382807,117.93213653564452,150.31967163085938,2.0288956165313716
2001,-268.91375732421875,118.68759155273438,154.42233276367188,-2.574921131134033
2002,-302.0380554199219,89.97264099121094,118.37344360351562,-26.431743621826172
2003,-296.95928955078125,91.91738891601562,119.1887435913086,-20.65359687805176
2004,-280.81411743164057,108.27945709228516,137.54791259765622,-0.6114736199378967
2005,-272.08145141601557,110.08582305908205,138.5015869140625,-7.515328884124756
2006,-285.8704833984375,83.41659545898438,115.17208862304688,-32.04159164428711
2007,-287.332763671875,85.6081771850586,117.21033477783205,-29.580738067626953
2008,-266.09014892578125,112.50180053710938,133.88655090332028,-17.538261413574222
2009,-266.46786499023443,110.1568832397461,143.3410186767578,-9.942523956298828
2010,-276.1112060546875,79.27278900146484,126.335693359375,-26.007265090942386
2011,-273.8261108398437,92.7364273071289,139.0887451171875,-16.47052001953125
2012,-264.03134155273443,116.91862487792969,152.5710906982422,-4.891788959503174
2013,-259.47238159179693,118.62775421142578,145.21844482421875,-3.926894903182984
2014,-286.9643859863281,100.37704467773438,127.68205261230469,-21.59418296813965
2015,-279.6790771484375,89.42662048339844,132.48782348632812,-25.12464714050293
2016,-264.13229370117193,115.36656188964844,150.05413818359375,-1.8849096298217771
2017,-260.02215576171875,115.1608657836914,154.77389526367188,-4.398122310638428
2018,-291.2802429199219,86.49079895019531,126.16739654541016,-23.43795394897461
2019,-287.7198486328125,91.71917724609376,129.12191772460938,-22.36834144592285
2020,-272.68545532226557,119.85818481445312,147.69052124023438,-4.3382840156555185
2021,-281.97161865234375,112.8720474243164,137.17391967773438,-10.654974937438963
2022,-298.77874755859375,83.09122467041016,115.66201782226562,-30.02765655517578
2023,-292.4246520996094,91.51721954345705,122.25171661376952,-25.33034324645996
2024,-271.87762451171875,112.44196319580078,140.12469482421878,-8.111843109130861
2025,-277.30050659179693,113.84442138671876,141.6318817138672,-6.305471420288086
2026,-289.17840576171875,83.24456024169922,114.86541748046876,-31.69191169738769
2027,-295.63348388671875,79.37376403808594,121.40650177001952,-22.19630622863769
2028,-260.38491821289057,111.6266632080078,147.94857788085938,-0.2692728042602539
2029,-263.94903564453125,105.6203842163086,146.6396026611328,-7.124509334564209
2030,-285.5021057128906,87.25373840332031,128.65069580078122,-27.293790817260746
2031,-277.59219360351557,94.62507629394531,126.83683776855469,-26.74028396606445
2032,-261.0281982421875,113.09644317626952,147.66807556152344,-0.3365910053253174
2033,-265.40011596679693,107.0452880859375,152.94508361816406,-0.2505733072757721
2034,-293.53912353515625,90.39524841308594,124.30492401123048,-27.1254940032959
2035,-280.1016845703125,89.99882507324219,128.68809509277344,-25.27424430847168
2036,-272.842529296875,118.6501922607422,153.4350128173828,-5.849203586578369
2037,-278.25418090820307,113.80328369140624,146.43765258789062,-11.455313682556152
2038,-292.96319580078125,99.35979461669922,129.99331665039062,-28.752351760864254
2039,-303.60321044921875,86.89844512939453,125.19876098632812,-19.885047912597656
2040,-278.01107788085943,111.99691772460938,149.12289428710938,-7.094590187072754
2041,-280.43826293945307,106.31226348876952,140.77919006347656,-7.595736980438232
2042,-299.1452331542969,83.6596908569336,118.27994537353516,-26.99085807800293
2043,-293.9168701171875,86.79373168945312,123.0483169555664,-22.076629638671875
2044,-270.31060791015625,112.01935577392578,144.8594207763672,-5.5612311363220215
2045,-266.4921875,107.83814239501952,141.95726013183594,-2.636629581451416
2046,-292.9145812988281,88.24855041503906,122.9211654663086,-23.84186172485352
2047,-292.5966796875,93.72002410888672,120.396728515625,-23.62120819091797
2048,-269.30084228515625,117.344970703125,148.1580047607422,-4.81325101852417
2049,-262.759765625,114.3530502319336,150.8769073486328,-5.662208557128906
2050,-282.0314636230469,91.70047760009766,129.74647521972656,-22.1663875579834
2051,-287.41693115234375,90.07362365722656,128.63198852539062,-20.917261123657227
2052,-263.57879638671875,120.0115203857422,147.9971923828125,-6.0623779296875
2053,-263.346923828125,124.08052825927734,153.39385986328125,-5.243339538574219
2054,-278.8338623046875,88.28594970703125,126.99391174316406,-26.53084945678711
2055,-278.7440795898437,84.2618179321289,127.31554412841795,-26.175559997558594
2056,-264.2445068359375,118.9157257080078,150.9704132080078,-2.928341627120972
2057,-271.09600830078125,111.73886108398438,149.24632263183594,-3.5192458629608154
2058,-284.05474853515625,90.17086029052734,128.39263916015622,-17.56631088256836
2059,-281.64251708984375,102.74066162109376,122.84636688232422,-21.84849548339844
2060,-270.73321533203125,119.36077880859376,141.64683532714844,-4.293405055999757
2061,-267.37106323242193,114.39044952392578,139.46647644042972,-6.376529216766357
2062,-287.3084716796875,96.27811431884766,118.9306869506836,-24.00267791748047
2063,-295.1248474121094,92.99822235107422,112.15773010253906,-28.70747184753418
2064,-273.12301635742193,114.98883056640624,136.511962890625,-8.687788009643555
2065,-264.80923461914057,121.85529327392578,141.02227783203125,-7.2217469215393075
2066,-274.24124145507807,90.8702163696289,118.9157257080078,-29.60878753662109
2067,-291.7065734863281,100.06289672851562,124.51809692382812,-26.76646423339844
2068,-261.95193481445307,116.6194305419922,143.11288452148438,-5.104963302612305
2069,-267.6365966796875,122.96977996826172,147.1033477783203,-5.5612311363220215
2070,-286.34356689453125,101.62991333007812,130.0157470703125,-16.89312744140625
2071,-283.534912109375,94.61386108398438,128.60580444335938,-18.78177833557129
2072,-261.32363891601557,115.88641357421876,153.8987579345703,0.17951519787311554
2073,-273.0594482421875,128.18319702148438,153.1582489013672,-4.888049125671387
2074,-292.2750549316406,104.04214477539062,134.65696716308594,-20.232858657836914
2075,-293.2249755859375,97.50106048583984,128.61703491210938,-22.360862731933594
2076,-275.15005493164057,117.93213653564452,145.6709747314453,-11.257099151611328
2077,-262.90936279296875,113.9940185546875,143.51678466796875,-14.450973510742188
2078,-298.9919128417969,92.91220092773438,120.87169647216795,-31.523616790771484
2079,-297.59320068359375,92.6279754638672,119.17752075195312,-28.60275459289551
2080,-280.64022827148443,109.0124740600586,128.75540161132812,-9.454466819763184
2081,-274.99298095703125,111.89593505859376,132.05026245117188,-7.173128128051758
2082,-299.2686767578125,97.59829711914062,113.41433715820312,-20.34505653381348
2083,-298.1354675292969,104.47223663330078,111.33495330810548,-23.886741638183594
2084,-268.78848266601557,119.66371154785156,136.6353759765625,-1.8175914287567136
2085,-266.67169189453125,115.4563217163086,134.05857849121094,-10.572697639465332
2086,-292.2750549316406,90.1259765625,114.48394775390624,-25.50611686706543
2087,-281.01422119140625,90.96745300292969,128.55718994140622,-20.636768341064453
2088,-256.08404541015625,113.70978546142578,149.54925537109375,-3.9343748092651367
2089,-260.22784423828125,112.21756744384766,142.42100524902344,-11.960200309753418
2090,-280.35226440429693,90.4214324951172,122.54717254638672,-30.442785263061523
2091,-293.2436828613281,86.84608459472656,123.42230987548828,-27.36110877990723
2092,-272.3114624023437,109.70061492919922,145.1997528076172,-11.642308235168455
2093,-276.76568603515625,118.12287139892578,146.47879028320312,-12.96249294281006
2094,-296.0635681152344,92.87106323242188,124.9556655883789,-33.11681365966797
2095,-289.14849853515625,96.72315979003906,127.5436782836914,-30.71205902099609
2096,-267.572998046875,120.62112426757812,149.23135375976562,-10.310904502868652
2097,-270.49386596679693,111.5593490600586,149.62030029296875,-14.275197982788086
2098,-297.57073974609375,87.3734130859375,127.45391845703124,-27.918354034423828
2099,-288.7445983886719,93.76863861083984,127.01634979248048,-30.28570938110352
2100,-269.2335205078125,113.38815307617188,141.8001708984375,-14.813743591308596
2101,-271.57843017578125,109.45378112792969,143.17271423339844,-14.634228706359865
2102,-288.3818054199219,90.93006134033205,116.9672393798828,-35.23733901977539
2103,-290.1208801269531,87.93439483642578,122.87254333496094,-26.082061767578125
2104,-274.48809814453125,117.3075714111328,146.53489685058594,-0.9050557613372804
2105,-267.3934936523437,112.28114318847656,142.83238220214844,-13.73291301727295
2106,-289.9862365722656,84.23563385009766,123.4896240234375,-25.150827407836914
2107,-285.4347839355469,81.9505615234375,126.62366485595705,-29.25723648071289
2108,-266.6978759765625,99.60662841796876,146.46009826660156,-7.090850353240968
2109,-277.45382690429693,103.8140106201172,146.41896057128906,-6.881415843963622
2110,-293.09783935546875,87.07795715332031,124.46574401855469,-21.66897964477539
2111,-293.1352233886719,93.26375579833984,124.9332275390625,-34.08170700073242
2112,-269.52151489257807,116.08462524414062,147.72044372558594,-11.55255126953125
2113,-270.3779296875,119.00548553466795,140.71934509277344,-16.309703826904293
2114,-289.2345275878906,90.9487533569336,117.03829956054688,-39.7364387512207
2115,-287.936767578125,96.8091812133789,120.94275665283205,-37.537376403808594
2116,-269.88800048828125,119.45427703857422,151.92034912109375,-12.977453231811525
2117,-270.41534423828125,105.35485076904295,146.6358642578125,-12.913874626159668
2118,-285.6965637207031,89.44532012939453,126.0402374267578,-30.259531021118164
2119,-285.3525085449219,89.33312225341797,127.23326873779295,-25.04985046386719
2120,-266.1929931640625,114.82427978515624,148.57687377929688,-5.407895565032959
2121,-282.1324462890625,109.03117370605469,141.8114013671875,-5.995059490203857
2122,-291.2278747558594,90.15589904785156,127.1397705078125,-20.707826614379886
2123,-289.1297912597656,94.4380874633789,128.44499206542972,-17.383054733276367
2124,-271.24932861328125,108.46644592285156,147.7541046142578,-0.5385456085205078
2125,-281.6649475097656,114.5325698852539,146.60594177246094,-1.200507879257202
2126,-301.0899963378906,93.83222198486328,119.55525207519531,-22.521677017211914
2127,-303.9697265625,97.83016967773438,121.08860778808594,-15.004478454589846
2128,-279.92965698242193,112.59529876708984,141.2167510986328,-5.93148136138916
2129,-288.7857360839844,110.05964660644531,132.9852294921875,-4.289665222167969
2130,-295.1024169921875,91.85381317138672,112.849609375,-27.81737518310547
2131,-284.1557312011719,85.87744903564453,116.44739532470705,-32.45485305786133
2132,-271.2044677734375,114.11370086669922,134.28297424316406,-15.359768867492676
2133,-261.86593627929693,115.29176330566406,138.68484497070312,-17.196060180664062
2134,-285.16925048828125,87.8147201538086,123.0857162475586,-28.591535568237305
2135,-273.6466064453125,83.36424255371094,126.14495849609376,-33.69649887084961
2136,-277.4725341796875,111.2227554321289,145.35308837890625,-14.260238647460938
2137,-268.11529541015625,111.97821807861328,148.91720581054688,-7.39752197265625
2138,-286.5380554199219,91.96601104736328,121.4401626586914,-30.278230667114254
2139,-284.2940979003906,92.22406005859376,123.6691436767578,-30.09123420715332
2140,-269.44296264648443,113.92670440673828,146.45260620117188,-2.9694805145263667
2141,-276.6273193359375,108.63848114013672,144.25729370117188,-6.713120460510254
2142,-292.2226867675781,82.88179016113281,125.1912841796875,-20.988319396972656
2143,-297.4361267089844,99.90581512451172,127.56985473632812,-16.78093147277832
2144,-275.34078979492193,113.56019592285156,149.82974243164062,3.021839141845703
2145,-278.53839111328125,116.92610168457031,147.66433715820312,5.146102428436278
2146,-309.22802734375,85.92607116699219,123.18669128417969,-18.2170524597168
2147,-303.56207275390625,93.51806640625,124.83972930908205,-11.799384117126465
2148,-276.586181640625,111.11803436279295,142.4808349609375,3.4556674957275386
2149,-281.33209228515625,105.12297821044922,137.69377136230472,4.629996299743652
2150,-295.5998229980469,91.33396911621094,116.80642700195312,-21.515644073486328
2151,-293.60272216796875,92.2278060913086,121.10356903076172,-19.49983787536621
2152,-271.1259155273437,109.22938537597656,139.047607421875,-3.070457935333252
2153,-276.0438842773437,109.28174591064452,138.34451293945312,-15.097975730895994
2154,-286.6091003417969,88.43180084228516,119.20370483398438,-32.955997467041016
2155,-284.55963134765625,85.72037506103516,117.3225326538086,-31.65825271606445
2156,-273.4970092773437,106.33096313476562,139.07379150390622,-18.97251319885254
2157,-271.38021850585943,103.3315658569336,146.8116455078125,-19.462438583374023
2158,-286.60162353515625,87.76235961914062,121.99366760253906,-37.36907958984375
2159,-294.1524963378906,102.41529083251952,124.38719940185548,-37.9525032043457
2160,-267.1728515625,121.26812744140624,155.69390869140625,-9.0056791305542
2161,-286.0743103027344,115.7555160522461,149.5230712890625,-11.761985778808596
2162,-301.02642822265625,103.34652709960938,127.85782623291016,-20.61806869506836
2163,-301.3592834472656,94.95419311523438,129.24159240722656,-18.254451751708984
2164,-279.00961303710943,113.52653503417969,147.193115234375,-0.6657021641731262
2165,-270.11239624023443,114.15857696533205,145.6709747314453,-1.3837629556655884
2166,-285.0158996582031,80.4471206665039,126.79196166992188,-23.71844482421875
2167,-287.79840087890625,82.15998840332031,122.58831024169922,-22.046710968017575
2168,-273.9046630859375,102.2881317138672,137.18513488769528,-9.63398265838623
2169,-264.016357421875,107.31829833984376,139.46273803710938,-2.599230527877808
2170,-289.1971130371094,85.16313171386719,117.87977600097656,-25.70807266235352
2171,-286.8783874511719,87.7324447631836,120.36306762695312,-22.323463439941406
2172,-276.36550903320307,99.1615753173828,136.852294921875,0.1458560973405838
2173,-267.26632690429693,97.34772491455078,143.95436096191406,1.1892881393432615
2174,-285.8985290527344,89.6622314453125,124.8322525024414,-14.10316276550293
2175,-279.82492065429693,93.9032745361328,131.27983093261722,-21.665241241455078
2176,-282.79815673828125,110.4560775756836,147.81019592285156,-2.83484411239624
2177,-277.84652709960943,110.65802764892578,147.22677612304688,-8.078184127807617
2178,-294.3432312011719,99.4383316040039,126.43292999267578,-28.29234313964844
2179,-305.67510986328125,99.8609390258789,127.25944519042969,-28.97674560546875
2180,-280.11288452148443,123.09693908691406,150.89935302734375,-12.74557876586914
2181,-282.95147705078125,126.3955307006836,147.90744018554688,-11.690927505493164
2182,-298.03076171875,96.07615661621094,126.81066131591795,-26.60190773010254
2183,-281.19747924804693,98.6566925048828,128.542236328125,-23.467872619628906
2184,-266.16305541992193,114.89159393310548,145.33811950683594,-11.66100788116455
2185,-272.19927978515625,113.76214599609376,136.59423828125,-11.806863784790039
2186,-293.25115966796875,87.04804229736328,118.09294891357422,-24.4664249420166
2187,-292.2152099609375,87.80350494384766,118.47815704345705,-24.00267791748047
2188,-278.112060546875,105.22395324707031,141.36260986328125,-6.118476390838622
2189,-276.13739013671875,107.37065887451172,142.86978149414062,1.660515546798706
2190,-297.092041015625,76.72966003417969,119.62631225585938,-20.29269790649414
2191,-293.1651611328125,82.42552185058594,121.0549545288086,-17.412973403930664
2192,-268.07040405273443,105.57176208496094,145.21096801757812,1.6754751205444336
2193,-266.2864990234375,110.49347686767578,147.16319274902344,-2.012066125869751
2194,-285.7937927246094,88.50286102294922,127.80921173095705,-17.880460739135742
2195,-287.8544921875,86.13924407958984,133.42280578613278,-15.326109886169435
2196,-272.8163452148437,112.91693115234376,149.48941040039062,-3.698760986328125
2197,-267.69268798828125,111.3611297607422,153.68931579589844,-3.0031397342681885
2198,-296.071044921875,81.84210205078125,125.72982788085938,-25.56221580505371
2199,-295.0425720214844,92.2689437866211,127.57360076904295,-25.30042266845703
2200,-268.8221435546875,123.79629516601562,155.43959045410156,-6.716860294342041
2201,-272.62936401367193,110.29151916503906,150.37576293945312,-8.433474540710451
2202,-289.4028015136719,90.45134735107422,127.56985473632812,-26.90110015869141
2203,-290.59210205078125,85.94103240966797,129.69786071777344,-32.91859817504883
2204,-261.35354614257807,103.80279541015624,154.68038940429688,-5.523832321166992
2205,-274.15896606445307,115.42266082763672,151.88294982910156,-3.0293190479278564
2206,-292.3722839355469,93.0505828857422,135.56576538085938,-13.433720588684082
2207,-293.1090393066406,86.34494018554688,127.99246978759766,-20.58440971374512
2208,-276.2196655273437,116.37633514404295,150.6300811767578,4.428041458129883
2209,-280.6215209960937,119.49915313720705,147.62319946289062,-0.7517198920249939
2210,-294.5152587890625,88.61505889892578,125.00802612304688,-19.660654067993164
2211,-301.52569580078125,85.037841796875,125.39136505126952,-22.637615203857425
2212,-274.46005249023443,110.2859115600586,149.44265747070312,3.302331686019897
2213,-277.40707397460943,109.07044219970705,146.4619598388672,-3.4556674957275386
2214,-292.19464111328125,86.6983642578125,128.44313049316406,-21.721338272094727
2215,-290.9754333496094,93.37034606933594,131.52105712890622,-20.146841049194336
2216,-262.84017944335943,110.86185455322266,152.34481811523438,0.02243939973413944
2217,-270.80242919921875,108.62539672851562,156.29415893554688,1.495959997177124
2218,-290.3508605957031,91.79210662841795,126.33756256103516,-24.38414764404297
2219,-291.240966796875,97.54781341552734,122.23489379882812,-27.33866882324219
2220,-263.7377319335937,111.99130249023438,145.99447631835938,-9.510565757751463
2221,-279.0077514648437,103.37831115722656,138.619384765625,-10.168787956237793
2222,-291.89544677734375,84.51799774169922,120.40233612060548,-24.096176147460934
2223,-295.22021484375,88.76652526855469,127.32115173339844,-28.647634506225586
2224,-275.6268920898437,115.85462188720705,152.1204376220703,-7.3302040100097665
2225,-274.68069458007807,107.85871124267578,147.12017822265625,-10.97286605834961
2226,-303.9977722167969,100.0498046875,128.8358154296875,-26.9197998046875
2227,-297.3781433105469,97.7422866821289,127.87091827392578,-28.22128486633301
2228,-279.4266357421875,115.19639587402344,146.49188232421875,-5.280738830566406
2229,-285.7320861816406,119.40752410888672,142.71084594726562,-0.19821469485759732
2230,-299.4500427246094,95.86859893798828,120.26022338867188,-16.212467193603516
2231,-303.6761474609375,92.85797882080078,119.83761596679688,-19.35398292541504
2232,-273.6409912109375,115.40957641601562,148.7582550048828,2.95452094078064
2233,-274.7592163085937,122.29846954345705,143.43638610839844,-3.4968063831329346
2234,-298.1597900390625,94.27165985107422,125.66063690185548,-22.469318389892575
2235,-291.6149597167969,82.65552520751953,125.97479248046876,-23.96527862548828
2236,-272.4666748046875,106.48991394042969,141.2971649169922,-11.833043098449707
2237,-274.90509033203125,117.06260681152344,146.11415100097656,-11.915321350097654
2238,-291.0988464355469,87.85772705078125,120.5444564819336,-29.05154228210449
2239,-293.8289794921875,86.64974212646484,113.55084228515624,-30.988811492919922
2240,-280.81039428710943,120.51453399658205,138.34637451171878,-8.500792503356934
2241,-279.363037109375,113.66677856445312,142.34432983398438,-8.61298942565918
2242,-301.3349609375,85.74468994140625,122.11894989013672,-21.04815673828125
2243,-295.57177734375,85.9167251586914,119.55712127685548,-20.917261123657227
2244,-282.0520324707031,116.7746353149414,139.2177734375,-4.607556819915772
2245,-272.1375732421875,107.56326293945312,141.3383026123047,-11.833043098449707
2246,-294.375,88.38131713867188,124.6583480834961,-21.481985092163086
2247,-297.5987854003906,77.6066665649414,123.32694244384766,-25.13960838317871
2248,-277.16024780273443,115.59656524658205,144.14695739746094,-6.832797050476074
2249,-272.21609497070307,114.6466293334961,145.32876586914062,-5.572451114654541
2250,-292.41156005859375,90.30362701416016,125.56340026855469,-26.11946105957031
2251,-299.4612731933594,87.74179077148438,118.50247192382812,-31.08978843688965
2252,-264.84848022460943,112.15959930419922,145.06698608398438,-13.811450958251953
2253,-272.33950805664057,98.55758666992188,136.07252502441406,-19.76163101196289
2254,-286.5511474609375,77.05690002441406,114.9495620727539,-27.30875015258789
2255,-294.2029724121094,93.95376586914062,113.34514617919922,-25.51359748840332
2256,-276.81991577148443,112.54854583740234,137.96490478515622,-15.11667537689209
2257,-265.57778930664057,103.13148498535156,145.17169189453125,-10.841970443725586
2258,-281.5321960449219,83.77375793457031,126.97708129882812,-26.422393798828125
2259,-307.19537353515625,90.84964752197266,114.74761199951172,-29.23105812072754
2260,-268.22189331054693,107.0359344482422,141.36447143554688,-6.234413146972656
2261,-256.55340576171875,105.3679428100586,140.11909484863278,-11.2944974899292
2262,-299.3153991699219,88.80766296386719,115.99673461914062,-30.259531021118164
2263,-293.4400329589844,84.8545913696289,117.257080078125,-20.76392364501953
2264,-275.43240356445307,101.38121032714844,129.33695983886722,-13.254205703735352
2265,-275.10330200195307,103.1202621459961,132.95718383789062,-5.243339538574219
2266,-301.14794921875,81.91876983642578,109.80720520019531,-26.73654556274414
2267,-300.01104736328125,80.34800720214844,114.2240219116211,-26.21295928955078
2268,-277.4669189453125,109.1826400756836,132.99832153320312,-4.592597007751465
2269,-281.8987121582031,114.07068634033205,130.65341186523438,-11.249619483947754
2270,-305.665771484375,86.51136779785156,113.21051025390624,-28.23250389099121
2271,-296.5927734375,74.77555847167969,111.33308410644531,-27.5069637298584
2272,-275.806396484375,115.34225463867188,134.49427795410156,-11.855483055114744
2273,-271.74859619140625,111.08625030517578,144.7191619873047,-5.579930782318115
2274,-284.79339599609375,86.49266815185547,125.11087036132812,-26.067102432250977
2275,-283.177734375,84.24498748779297,124.6770477294922,-31.19076538085937
2276,-262.12957763671875,107.82879638671876,150.91244506835938,-11.227179527282717
2277,-267.10739135742193,105.05753326416016,150.40756225585938,-7.1880879402160645
2278,-283.4245910644531,80.17597198486328,127.16407775878906,-20.82376289367676
2279,-287.0560302734375,79.96653747558594,127.82230377197266,-24.31308937072754
2280,-269.59442138671875,109.1676788330078,147.2847442626953,-2.258899688720703
2281,-276.322509765625,103.49425506591795,141.77586364746094,-10.868148803710938
2282,-280.58224487304693,82.18804168701172,123.01653289794922,-27.77623748779297
2283,-297.96905517578125,83.78498077392578,126.09820556640624,-29.45545196533203
2284,-278.12887573242193,113.92857360839844,150.7142333984375,-8.167941093444824
2285,-281.12826538085943,116.92797088623048,154.32696533203125,-3.687541246414185
2286,-296.36090087890625,88.28034210205078,121.55422973632812,-25.37522125244141
2287,-304.2558288574219,89.39856719970703,119.27662658691406,-20.84246253967285
2288,-275.77273559570307,106.94618225097656,144.3152618408203,2.7862255573272705
2289,-274.51614379882807,106.00372314453124,143.05117797851562,-2.7563061714172363
2290,-292.84539794921875,80.31060791015625,120.65291595458984,-24.00267791748047
2291,-287.4786376953125,78.9941635131836,119.98346710205078,-22.140207290649414
2292,-256.67681884765625,101.99455261230469,141.82449340820312,-1.0546517372131348
2293,-255.83534240722656,102.6565170288086,145.31007385253906,1.7652328014373782
2294,-288.06951904296875,76.81380462646484,124.58728790283205,-16.784671783447266
2295,-275.37255859375,69.04977416992189,124.57232666015624,-21.34734916687012
2296,-263.4049072265625,101.26152801513672,140.9605712890625,-8.7999849319458
2297,-265.82461547851557,101.9534149169922,147.5689697265625,-10.78213119506836
2298,-282.7326965332031,74.07994079589844,124.89395904541016,-26.22043800354004
2299,-288.61181640625,74.91393280029297,124.6209487915039,-22.63013458251953
2300,-264.7138671875,105.82421112060548,155.14974975585938,-3.0554983615875244
2301,-274.13467407226557,106.15705871582031,148.27207946777344,0.1907348930835724
2302,-293.85516357421875,81.10346984863281,123.1511688232422,-19.032350540161133
2303,-300.067138671875,83.77001953125,117.1935043334961,-20.561969757080078
2304,-285.1336975097656,112.00252532958984,136.70829772949222,3.309811353683472
2305,-281.59576416015625,114.61297607421876,137.59840393066406,-2.1953213214874268
2306,-302.6102600097656,93.688232421875,125.402587890625,-22.424440383911133
2307,-302.4718933105469,93.54985809326172,121.53926849365234,-25.072288513183594
2308,-276.59176635742193,115.14404296875,144.16566467285156,-4.573897838592528
2309,-263.2066650390625,108.49076080322266,149.5660858154297,-4.263485908508302
2310,-287.26544189453125,89.30133056640625,129.04898071289062,-25.603355407714844
2311,-290.04046630859375,81.9636459350586,127.68392181396484,-20.487171173095703
2312,-264.85971069335943,101.30641174316406,154.12501525878906,0.5759446024894714
2313,-270.06939697265625,111.14982604980469,149.70445251464844,-1.3089649677276611
2314,-275.09207153320307,94.8102035522461,132.59815979003906,-20.45351219177246
2315,-289.8497314453125,80.12361907958984,136.166015625,-18.912673950195312
2316,-265.69744873046875,101.51958465576172,153.83705139160156,-4.9104886054992685
2317,-259.0180053710937,112.74302673339844,151.19667053222656,-4.080230712890625
2318,-279.8380126953125,83.99441528320312,130.44770812988278,-23.228519439697266
2319,-295.90087890625,84.95182800292969,124.92013549804688,-25.21066474914551
2320,-263.55075073242193,112.95246124267578,148.01776123046875,-7.569557666778564
2321,-277.04055786132807,121.2288589477539,142.84547424316406,-4.510319232940674
2322,-294.4759826660156,100.1732177734375,124.92761993408205,-15.442047119140625
2323,-297.8568420410156,92.51390838623048,116.8157730102539,-28.74861145019531
2324,-288.28271484375,126.22162628173828,134.53541564941406,-9.409587860107422
2325,-277.32107543945307,123.64482879638672,135.97901916503906,-5.276998996734619
2326,-294.1880187988281,101.28397369384766,122.1339111328125,-17.49525260925293
2327,-300.77398681640625,83.15667724609375,123.58499145507812,-22.43939971923828
2328,-269.87118530273443,119.28411102294922,147.20994567871094,-0.6956213712692261
2329,-279.3331298828125,116.0902328491211,146.65643310546875,-2.894682645797729
2330,-297.6212463378906,90.2325668334961,128.17759704589844,-23.228519439697266
2331,-285.31695556640625,82.55081176757812,131.10218811035156,-20.131881713867188
2332,-267.6459350585937,106.64698791503906,152.49441528320312,-0.6507425904273987
2333,-256.9647827148437,112.85147857666016,150.1981201171875,5.086264133453369
2334,-285.0476989746094,77.87593841552734,125.41006469726562,-20.135622024536133
2335,-301.0432434082031,90.04930877685547,120.06948852539062,-14.503332138061525
2336,-277.59408569335943,115.46941375732422,145.26145935058594,-1.9559676647186282
2337,-279.12744140625,108.37107849121094,142.67344665527344,1.1481492519378662
2338,-293.5709228515625,78.48554229736328,113.85751342773438,-23.071443557739254
2339,-305.4600830078125,77.29624938964844,105.77932739257812,-25.80156898498535
2340,-276.94708251953125,108.4010009765625,131.91375732421878,-11.395475387573242
2341,-279.97637939453125,116.57268524169922,134.60647583007812,-8.014605522155763
2342,-291.1063232421875,89.82492065429688,107.3388671875,-30.229610443115234
2343,-286.311767578125,85.0191421508789,113.01229858398438,-28.37462043762207
2344,-274.5684814453125,109.41825103759766,139.12054443359378,-8.938361167907715
2345,-277.29861450195307,112.12967681884766,137.72181701660156,-11.567510604858398
2346,-286.74188232421875,99.70573425292969,123.876708984375,-27.55184364318848
2347,-300.1195068359375,93.01131439208984,127.13790130615234,-29.32829475402832
2348,-277.02188110351557,124.0001220703125,154.33819580078125,-4.62251615524292
2349,-267.25698852539057,120.27144622802734,162.99232482910156,-1.0247325897216797
2350,-284.72979736328125,94.86630249023438,142.42286682128906,-16.092788696289062
2351,-286.3566589355469,78.50798034667969,140.81097412109375,-18.628440856933594
2352,-266.54266357421875,106.5347900390625,155.94635009765625,2.8834629058837886
2353,-274.30294799804693,109.8670425415039,161.76937866210938,1.305225133895874
2354,-302.28863525390625,77.7263412475586,126.43479919433594,-21.766218185424805
2355,-297.4566955566406,83.46334838867188,126.01593017578124,-16.029211044311527
2356,-276.73764038085943,107.761474609375,147.15757751464844,-1.03595232963562
2357,-271.74859619140625,114.38858032226562,147.33709716796875,-5.957660675048827
2358,-284.4754943847656,90.58786010742188,120.07696533203124,-28.83836936950684
2359,-306.57830810546875,86.3580322265625,116.33706665039062,-27.869733810424805
2360,-273.07626342773443,107.7427749633789,145.68780517578125,-4.173728466033936
2361,-272.05526733398443,110.73844146728516,143.032470703125,-2.7002077102661133
2362,-292.67333984375,82.14690399169922,120.95958709716795,-18.01883888244629
2363,-297.1836853027344,78.58277893066406,116.1313705444336,-16.736051559448242
2364,-265.9293212890625,104.90045166015624,141.92919921875,2.887202739715576
2365,-260.66354370117193,112.24935913085938,145.00714111328125,0.5609849691390991
2366,-278.84695434570307,86.14485931396484,125.5484390258789,-25.102209091186523
2367,-285.6124267578125,95.70030212402344,128.16636657714844,-27.607940673828125
2368,-262.83270263671875,110.85437774658205,151.82872009277344,-4.274705886840819
2369,-255.7867126464844,106.29917907714844,160.22105407714844,-5.77814531326294
2370,-289.363525390625,79.36441802978516,137.32913208007812,-28.08664894104004
2371,-290.6500549316406,93.9911651611328,140.37339782714844,-20.52831077575684
2372,-272.35446166992193,109.75858306884766,156.71302795410156,-6.406448841094972
2373,-277.53424072265625,113.91361236572266,157.80882263183594,0.127156600356102
2374,-273.98880004882807,89.50702667236328,137.15335083007812,-12.087356567382812
2375,-296.7648010253906,76.99331665039062,125.21185302734376,-17.603708267211914
2376,-276.62918090820307,104.89297485351562,140.63519287109378,2.494513273239136
2377,-274.81533813476557,106.35527801513672,142.9053192138672,4.989026546478272
2378,-286.2332458496094,83.90839385986328,118.56604766845705,-19.61951446533203
2379,-290.0853271484375,86.89283752441406,113.99214935302734,-23.40803337097168
2380,-266.19113159179693,109.80345916748048,139.12428283691406,-0.5048865079879761
2381,-267.51504516601557,105.0051727294922,138.16311645507812,-8.781285285949707
2382,-287.1981506347656,87.1808090209961,116.67739868164062,-23.12006187438965
2383,-284.22491455078125,87.9474868774414,122.3134307861328,-27.13297462463379
2384,-253.7372589111328,108.24392700195312,153.7659912109375,-11.320676803588867
2385,-261.568603515625,115.59282684326172,154.64112854003906,-8.627948760986326
2386,-281.053466796875,94.8139419555664,137.02619934082028,-29.103900909423828
2387,-289.93572998046875,88.78522491455078,134.00810241699222,-28.76357078552246
2388,-270.37606811523443,114.09312438964844,158.87843322753906,-7.449880599975586
2389,-264.1566162109375,110.92169189453124,159.55535888671875,-9.465686798095703
2390,-289.43084716796875,86.43283081054688,133.62287902832028,-26.175559997558594
2391,-294.3226318359375,92.77195739746094,133.63037109375,-23.67730712890625
2392,-270.0170288085937,106.54601287841795,152.62158203125,-3.422008514404297
2393,-277.71749877929693,97.760986328125,145.7887725830078,-9.144055366516113
2394,-292.2208251953125,79.76458740234375,129.82315063476562,-26.11572074890137
2395,-294.45355224609375,89.71272277832031,125.48860168457031,-25.0535888671875
2396,-277.56790161132807,112.84026336669922,148.82557678222656,-3.392089366912842
2397,-274.5909423828125,112.58594512939452,140.50056457519528,-5.056344509124756
2398,-291.02032470703125,94.08466339111328,117.4926986694336,-22.013051986694336
2399,-300.6879577636719,82.7677230834961,112.06610107421876,-25.65571403503418
2400,-274.52734375,102.56301879882812,136.21836853027344,-2.468333959579468
2401,-270.21151733398443,103.93181610107422,140.73243713378906,-9.52926540374756
2402,-287.3888854980469,89.3499526977539,121.0306396484375,-24.88529396057129
2403,-293.776611328125,84.41702270507812,121.39715576171876,-28.973005294799805
2404,-271.01559448242193,107.24163055419922,146.79481506347656,-9.791058540344238
2405,-265.6937255859375,110.2634735107422,153.3695526123047,-7.195567607879639
2406,-286.13226318359375,82.55455017089844,136.59609985351562,-26.807601928710934
2407,-285.0514221191406,89.16295623779297,134.62518310546878,-22.39826011657715
2408,-267.08120727539057,97.77594757080078,150.3177947998047,-7.666794776916504
2409,-276.42721557617193,117.8928680419922,144.898681640625,-10.329604148864746
2410,-299.8389892578125,87.91756439208984,124.34793090820312,-29.676105499267575
2411,-300.396240234375,86.26453399658203,122.62010192871094,-27.282569885253906
2412,-275.50909423828125,116.29966735839844,146.3460235595703,-11.017745018005373
2413,-276.0289306640625,121.6327667236328,145.69154357910156,-8.826164245605469
2414,-305.6676330566406,86.81430053710938,123.9814224243164,-26.82630157470703
2415,-295.3380432128906,94.29783630371094,122.010498046875,-26.407434463500977
2416,-271.15957641601557,109.81468200683594,138.78395080566406,-3.182654857635498
2417,-277.32666015625,112.97116088867188,142.11993408203125,-2.45337438583374
2418,-290.16949462890625,95.44224548339844,118.70816802978516,-22.58151626586914
2419,-291.6280517578125,91.76592254638672,121.74870300292969,-23.17616081237793
2420,-276.60861206054693,105.17346954345705,138.43240356445312,-5.434074401855469
2421,-275.90176391601557,110.29712677001952,142.92401123046875,-4.742193222045898
2422,-295.8017883300781,93.86026763916016,126.25527954101562,-28.13900756835937
2423,-292.78741455078125,84.69377136230469,127.16407775878906,-25.72677230834961
2424,-265.63949584960943,110.7683563232422,151.65293884277344,-8.399815559387207
2425,-269.78329467773443,115.94063568115234,156.91871643066406,-5.1573219299316415
2426,-294.6985168457031,92.6260986328125,127.03691864013672,-29.021623611450195
2427,-299.6800537109375,86.51510620117188,118.67076873779295,-32.862499237060554
2428,-286.6988525390625,107.1930160522461,142.16856384277344,-11.593689918518065
2429,-275.6885986328125,113.69670104980469,150.12705993652344,-7.150688648223878
2430,-303.63311767578125,89.56312561035156,119.54964447021484,-25.45001983642578
2431,-289.58233642578125,81.93373107910156,117.62733459472656,-29.68358612060547
2432,-287.3196716308594,113.89491271972656,141.36822509765625,-16.54157829284668
2433,-276.410400390625,113.2553939819336,143.00254821777344,-6.294251441955566
2434,-300.9591064453125,94.66060638427734,123.92906188964844,-24.776836395263672
2435,-304.8486022949219,91.19371795654295,119.44866180419922,-25.5996150970459
2436,-286.29119873046875,119.7441177368164,135.61251831054688,-1.709134221076965
2437,-279.48834228515625,112.37277221679688,134.86079406738278,0.9274951815605164
2438,-307.10748291015625,93.12725067138672,117.84424591064452,-14.802523612976074
2439,-299.9044494628906,90.01190948486328,115.24127960205078,-19.06600952148437
2440,-268.77352905273443,111.9389419555664,137.774169921875,-3.5229856967926025
2441,-268.45187377929693,101.1979522705078,140.8670654296875,3.807218074798584
2442,-288.3780822753906,78.10033416748047,113.54710388183594,-25.65571403503418
2443,-293.4755554199219,92.65975952148438,124.48631286621094,-28.84584808349609
2444,-270.57989501953125,110.20362854003906,147.12767028808594,-17.40175437927246
2445,-265.2542724609375,112.56350708007812,149.2145233154297,-17.35313606262207
2446,-292.3984680175781,95.20663452148438,131.04983520507812,-37.499977111816406
2447,-291.53082275390625,90.3148422241211,131.40512084960938,-41.6437873840332
2448,-272.57327270507807,105.11737060546876,154.3980255126953,-17.121261596679688
2449,-268.78848266601557,114.1828842163086,153.70614624023438,-12.592243194580078
2450,-290.4425048828125,90.83094787597656,126.6928482055664,-30.84295463562012
2451,-291.1343688964844,84.07669067382812,132.26904296875,-27.892173767089844
2452,-267.44586181640625,99.79923248291016,151.40611267089844,-3.81095814704895
2453,-266.99331665039057,110.70104217529295,154.02029418945312,-2.2140207290649414
2454,-286.751220703125,80.37045288085938,127.03691864013672,-16.100269317626953
2455,-293.2997741699219,86.7619400024414,131.36772155761722,-11.036444664001463
2456,-278.38507080078125,103.83084106445312,147.4492950439453,0.02243939973413944
2457,-272.59194946289057,110.5888442993164,152.1840057373047,10.430581092834473
2458,-295.85040283203125,84.60401916503906,120.62299346923828,-18.396568298339844
2459,-307.9788818359375,82.69292449951172,115.33477783203124,-18.53120422363281
2460,-285.79754638671875,122.97164916992188,141.6674041748047,1.047171950340271
2461,-278.43368530273443,123.98890686035156,143.11474609375,-1.2453867197036743
2462,-305.85089111328125,88.23545837402344,121.22137451171876,-25.94742584228516
2463,-295.9401550292969,88.59449005126953,122.61261749267578,-23.804462432861328
2464,-266.57070922851557,115.65640258789062,153.36581420898438,-5.909041881561278
2465,-268.18637084960943,103.89816284179688,153.47801208496094,-5.2882184982299805
2466,-297.361328125,81.481201171875,125.8476333618164,-28.92064666748047
2467,-299.6838073730469,86.62356567382812,120.06201171875,-38.79772186279297
2468,-267.39724731445307,110.648681640625,149.1509552001953,-10.004232406616213
2469,-263.7396240234375,111.83796691894531,151.36123657226562,-17.398014068603516
2470,-305.94439697265625,87.5660171508789,120.79129028320312,-35.54401016235352
2471,-296.35528564453125,93.03375244140624,125.63446044921876,-26.5271110534668
2472,-278.792724609375,112.26057434082031,149.3977813720703,-2.8423240184783936
2473,-267.70016479492193,109.96427917480469,152.9955596923828,2.610450267791748
2474,-308.9213562011719,79.1512451171875,123.38304138183594,-17.457853317260742
2475,-302.5373229980469,83.347412109375,121.3934097290039,-23.39307403564453
2476,-278.5758056640625,110.59258270263672,145.8822784423828,-0.1907348930835724
2477,-275.1014404296875,101.83373260498048,149.816650390625,4.506579399108887
2478,-297.2229309082031,81.64575958251953,125.96356964111328,-15.083016395568848
2479,-297.4622802734375,87.75675201416016,125.40632629394531,-21.26133155822754
2480,-282.18853759765625,98.74457550048828,144.31900024414062,-8.702747344970701
2481,-279.68280029296875,102.83602905273438,145.08193969726562,-0.699361264705658
2482,-294.3170471191406,85.66989135742188,125.32405090332031,-16.788410186767578
2483,-298.2962951660156,90.68509674072266,126.79383087158205,-14.738945960998535
2484,-265.1719970703125,117.02520751953124,150.38885498046875,-2.5767910480499268
2485,-275.61004638671875,111.56495666503906,148.3319091796875,-5.426594734191895
2486,-299.8258972167969,92.45406341552734,128.618896484375,-23.45291328430176
2487,-295.63720703125,82.80512237548828,131.64073181152344,-27.21899223327637
2488,-272.06088256835943,106.1159210205078,155.60975646972656,-9.12161636352539
2489,-267.16162109375,100.28541564941406,151.86985778808594,-15.37472915649414
2490,-283.1048278808594,81.18574523925781,133.38726806640622,-34.95310592651367
2491,-291.8823547363281,78.0704116821289,128.99662780761722,-34.35845947265625
2492,-275.91671752929693,103.87572479248048,151.8997802734375,-20.34879493713379
2493,-279.9146728515625,109.28361511230469,150.321533203125,-18.606002807617188
2494,-295.6783752441406,87.079833984375,127.85221862792969,-27.16663360595703
2495,-303.13946533203125,90.4345245361328,124.47509002685548,-22.753551483154297
2496,-281.00299072265625,118.87271881103516,145.00714111328125,-5.9987993240356445
2497,-277.65951538085943,115.03558349609376,147.04537963867188,0.4151288866996765
2498,-298.00457763671875,89.72393798828125,119.59825897216795,-20.20668029785156
2499,-308.8802185058594,89.64913940429688,116.17999267578124,-22.81712913513184
2500,-286.63153076171875,119.3626480102539,141.40936279296875,-7.345163345336914
2501,-267.70016479492193,121.55796813964844,148.98638916015625,-3.702501058578491
2502,-305.1365661621094,93.29928588867188,123.11376953125,-20.10196304321289
2503,-303.6368713378906,84.87702941894531,125.9299087524414,-27.67526054382324
2504,-275.72598266601557,101.72154235839844,147.51287841796875,-7.124509334564209
2505,-277.6370849609375,116.90553283691406,154.20355224609375,8.074443817138674
2506,-300.34576416015625,80.79679870605469,122.40692901611328,-22.061670303344727
2507,-300.3494873046875,77.13543701171875,124.7630615234375,-19.944887161254886
2508,-270.66592407226557,113.6555633544922,147.6138458251953,-5.026425361633301
2509,-269.1063842773437,109.47061157226562,151.22659301757812,-1.9971065521240237
2510,-295.6895751953125,89.67906188964844,125.70925903320312,-23.88300132751465
2511,-293.7597961425781,97.38699340820312,129.81941223144528,-30.199691772460934
2512,-277.06112670898443,124.22825622558594,150.6244659423828,-15.87961483001709
2513,-270.12734985351557,115.88453674316406,154.8206329345703,-18.60226249694824
2514,-294.8256530761719,89.49580383300781,132.75897216796878,-38.58080673217773
2515,-295.62225341796875,103.13148498535156,130.39161682128906,-44.11585998535156
2516,-278.1531982421875,126.2291030883789,155.51626586914062,-15.333589553833008
2517,-271.43634033203125,123.00531005859376,160.20236206054688,-10.535298347473145
2518,-294.51898193359375,95.4534683227539,137.0635986328125,-23.46413230895996
2519,-293.4606018066406,83.02204132080078,130.49632263183594,-24.387887954711914
2520,-268.33221435546875,110.74217987060548,156.58587646484375,-3.616483211517334
2521,-268.9193725585937,113.700439453125,160.26593017578125,-0.8900961875915527
2522,-290.6182861328125,87.59219360351562,129.41923522949222,-22.60769462585449
2523,-292.0618896484375,84.83963012695312,130.84039306640622,-25.079769134521484
2524,-267.7899169921875,104.0851593017578,149.68576049804688,-1.252866506576538
2525,-270.81924438476557,104.87053680419922,144.3489227294922,-5.063824653625488
2526,-301.2508239746094,90.80103302001952,118.06864166259766,-26.14937973022461
2527,-297.8250732421875,69.12083435058594,115.70128631591795,-21.5792236328125
2528,-280.83096313476557,108.0793685913086,138.2491455078125,-5.486433029174805
2529,-268.03302001953125,115.02810668945312,143.40272521972656,-5.703347206115723
2530,-300.5963439941406,88.53465270996094,115.9443817138672,-24.675859451293945
2531,-305.59283447265625,79.614990234375,110.21858978271484,-30.36798858642578
2532,-281.04412841796875,113.21424865722656,138.125732421875,-13.616975784301758
2533,-277.38650512695307,119.1606903076172,144.81640625,-11.765725135803224
2534,-289.5636291503906,103.75604248046876,129.3818359375,-24.256990432739254
2535,-291.8150329589844,87.43511962890625,126.48341369628906,-30.521324157714844
2536,-272.72659301757807,120.6080322265625,149.92510986328125,-4.005433082580566
2537,-274.00564575195307,119.26541137695312,146.53675842285156,-9.817237854003906
2538,-293.2549133300781,92.3830108642578,121.80106353759766,-26.859960556030273
2539,-300.9366455078125,87.75301361083984,131.39764404296878,-26.605648040771484
2540,-268.0068359375,114.83362579345705,155.42276000976562,-6.713120460510254
2541,-263.30953979492193,113.94727325439452,158.467041015625,-5.116183280944824
2542,-281.14511108398443,79.58881378173828,137.29173278808594,-26.7028865814209
2543,-294.53021240234375,75.56842041015625,124.46761322021484,-29.96781921386719
2544,-271.34283447265625,108.25140380859376,146.3011474609375,-10.744732856750488
2545,-265.99850463867193,110.49908447265624,151.57440185546875,-6.971173286437987
2546,-296.5946350097656,89.64540100097656,119.463623046875,-32.29403686523437
2547,-304.09686279296875,87.75675201416016,117.50017547607422,-38.02356338500977
2548,-274.24124145507807,112.5597686767578,150.02235412597656,-9.533004760742188
2549,-278.946044921875,115.2674560546875,143.13345336914062,-7.988426208496094
2550,-289.3616638183594,88.13822174072266,124.1796417236328,-19.612035751342773
2551,-296.0186767578125,88.2055435180664,120.81746673583984,-23.497791290283203
2552,-280.21762084960943,111.96886444091795,141.9853057861328,5.897822380065918
2553,-270.2807006835937,112.09976196289062,146.940673828125,4.083970546722412
2554,-288.0676574707031,87.37902069091797,120.6080322265625,-17.585010528564453
2555,-288.8941955566406,83.97197723388672,116.57268524169922,-22.96298599243164
2556,-268.86700439453125,104.2497100830078,140.55291748046878,-1.3501038551330566
2557,-264.72695922851557,105.34175872802734,145.9570770263672,-1.8662101030349727
2558,-288.86053466796875,84.90320587158203,117.88912963867188,-28.18762588500977
2559,-299.4818420410156,89.9333724975586,119.68801879882812,-33.34868621826172
2560,-278.27285766601557,110.48412322998048,148.98638916015625,-13.860069274902346
2561,-279.40231323242193,120.93340301513672,147.6512451171875,-10.288464546203613
2562,-302.7767028808594,92.58122253417969,124.75558471679688,-31.53109741210937
2563,-296.0635681152344,88.74408721923828,126.15056610107422,-27.67526054382324
2564,-278.47482299804693,111.5163345336914,152.55052185058594,-9.536745071411133
2565,-269.7496337890625,122.8370132446289,150.2542266845703,-5.22838020324707
2566,-295.4876403808594,93.08236694335938,132.45603942871094,-21.725078582763672
2567,-287.1813049316406,91.90804290771484,127.01821899414062,-27.432167053222656
2568,-271.04364013671875,111.0712890625,140.89324951171875,-4.648695468902588
2569,-277.58847045898443,105.43900299072266,140.25372314453122,-5.3667564392089835
2570,-277.98489379882807,86.99381256103516,124.10858154296876,-18.650880813598636
2571,-284.55963134765625,78.42570495605469,119.3215103149414,-24.982532501220703
2572,-268.14895629882807,110.47290802001952,135.96406555175778,-9.18519401550293
2573,-272.7191162109375,106.92373657226562,136.32682800292972,-4.484139919281006
2574,-294.1711730957031,83.17911529541016,115.00192260742188,-28.84210777282715
2575,-282.9140930175781,90.26248168945312,117.94896697998048,-32.903640747070305
2576,-272.69293212890625,107.58196258544922,144.04225158691406,-13.751611709594727
2577,-270.68087768554693,110.84689331054688,149.96250915527344,-6.170835018157959
2578,-292.71636962890625,82.95845794677734,134.75607299804688,-21.63158226013184
2579,-292.6976623535156,81.84770965576172,133.37605285644528,-19.492359161376953
2580,-265.20565795898443,100.84640502929688,154.89169311523438,-5.621069431304932
2581,-281.7098388671875,112.68318939208984,154.48779296875,-2.04946517944336
2582,-303.09832763671875,93.59847259521484,127.53807067871094,-25.221885681152344
2583,-299.0480041503906,96.42958068847656,130.72445678710938,-21.941993713378906
2584,-292.5966796875,119.28784942626952,148.01776123046875,-7.786471843719482
2585,-277.9213256835937,120.12932586669922,156.7803497314453,-1.413682222366333
2586,-296.5123596191406,87.42764282226562,128.15141296386722,-27.74631690979004
2587,-306.98406982421875,89.04328155517578,134.79347229003906,-23.39681434631348
2588,-277.37155151367193,115.3459930419922,153.10775756835938,-1.821331262588501
2589,-275.85690307617193,116.53528594970705,151.0433349609375,0.1645555943250656
2590,-295.38665771484375,89.0096206665039,124.61346435546876,-18.59104347229004
2591,-289.73193359375,76.72404479980469,120.5294952392578,-17.887941360473633
2592,-263.851806640625,106.97235870361328,147.68116760253906,-4.644955635070801
2593,-263.8480834960937,104.9490737915039,148.26834106445312,0.7816390991210938
2594,-287.3683166503906,77.79740142822266,122.01797485351562,-23.37437438964844
2595,-289.0437927246094,76.37997436523438,119.28784942626952,-26.960939407348636
2596,-276.8031005859375,100.4911117553711,129.60997009277344,-13.272905349731445
2597,-273.58676147460943,106.8713836669922,139.54689025878906,-10.060331344604492
2598,-303.7191467285156,89.75759887695312,115.226318359375,-32.61566925048828
2599,-309.9984436035156,91.30965423583984,115.32355499267578,-29.19365882873535
2600,-284.1258239746094,117.72083282470705,140.59779357910156,-3.1340360641479488
2601,-282.3605651855469,117.1336669921875,143.8103790283203,-7.120769500732423
2602,-308.05743408203125,94.4736099243164,123.2558822631836,-24.94513320922852
2603,-301.40789794921875,91.2797393798828,122.46302032470705,-21.377267837524414
2604,-279.69403076171875,118.3603515625,151.518310546875,1.9335283041000368
2605,-270.06753540039057,120.31258392333984,155.28439331054688,4.435521125793457
2606,-294.9715270996094,93.88270568847656,125.09217071533205,-23.5277099609375
2607,-311.7973327636719,96.64649200439452,118.8989028930664,-26.45605278015137
2608,-287.7647399902344,113.35636901855469,137.2281494140625,-4.951627731323242
2609,-279.63046264648443,108.75629425048828,139.73762512207028,-7.427441120147705
2610,-296.1720275878906,88.25415802001953,122.5565185546875,-27.177852630615234
2611,-294.7433776855469,80.7593994140625,119.87127685546876,-31.4974365234375
2612,-268.29855346679693,103.32595825195312,141.11390686035156,-11.133682250976562
2613,-272.8836669921875,108.1429443359375,140.44633483886722,-10.211796760559082
2614,-287.4617919921875,87.03495025634766,126.4404067993164,-22.938676834106445
2615,-288.8156433105469,77.44210815429688,114.5961456298828,-29.07211303710937
2616,-270.39663696289057,105.68209075927734,141.3775634765625,-5.6865177154541025
2617,-266.11444091796875,111.834228515625,143.01190185546875,-3.5285956859588623
2618,-298.18408203125,86.67218017578125,122.92864227294922,-30.28384017944336
2619,-297.6605224609375,87.2668228149414,118.76239013671876,-30.85978507995605
2620,-279.01336669921875,115.29737854003906,139.05882263183594,-13.185017585754395
2621,-275.65493774414057,115.45071411132812,153.3751678466797,-6.969303607940674
2622,-309.63568115234375,98.05269622802734,125.31095886230469,-27.419076919555664
2623,-294.7695617675781,97.97415924072266,125.07160186767578,-30.88222312927246
2624,-282.7906799316406,119.91241455078124,152.26815795898438,-12.160284996032715
2625,-271.17828369140625,118.18083953857422,152.02880859375,-4.336413860321045
2626,-295.82794189453125,89.21905517578125,129.57070922851562,-23.503400802612305
2627,-285.25152587890625,84.4319839477539,123.3437728881836,-31.211334228515625
2628,-282.6822204589844,105.00143432617188,140.93252563476562,-7.4442710876464835
2629,-279.2452392578125,101.38868713378906,144.6051025390625,-14.740816116333008
2630,-292.349853515625,86.85917663574219,117.50952911376952,-30.41099739074707
2631,-289.73565673828125,75.60581970214844,118.20514678955078,-22.160778045654297
2632,-276.7133178710937,98.51270294189452,142.55189514160156,-4.9198384284973145
2633,-260.48214721679693,98.20977020263672,151.5500946044922,-1.4080723524093628
2634,-292.43585205078125,83.88595581054688,127.63717651367188,-29.17683029174805
2635,-294.8780212402344,88.49351501464844,131.87821960449222,-27.52753448486328
2636,-270.21713256835943,104.66110229492188,149.1416015625,-8.738276481628418
2637,-273.39230346679693,102.26756286621094,148.90225219726562,-6.404578685760497
2638,-286.2538146972656,92.37552642822266,134.40264892578122,-22.358991622924805
2639,-290.072265625,89.32376861572266,137.13278198242188,-24.367319107055664
2640,-277.07235717773443,110.13257598876952,154.65420532226562,-13.35705280303955
2641,-278.605712890625,114.13052368164062,151.20602416992188,-16.532228469848633
2642,-294.88177490234375,92.9851303100586,126.65357971191406,-30.77750587463379
2643,-297.75775146484375,89.11433410644531,124.54053497314452,-32.81201171875
2644,-281.421875,109.13401794433594,139.29818725585938,-18.27128028869629
2645,-274.58905029296875,123.8168716430664,144.65371704101562,-13.413150787353516
2646,-299.0704345703125,89.63043975830078,123.59060668945312,-32.703556060791016
2647,-295.63720703125,90.40834045410156,123.96833038330078,-28.14087677001953
2648,-267.65155029296875,114.98322296142578,143.5803680419922,-8.850473403930664
2649,-267.2401733398437,109.61272430419922,143.40084838867188,-8.102493286132812
2650,-294.96405029296875,91.14884185791016,119.33834075927734,-26.237268447875977
2651,-303.4498596191406,96.7773895263672,119.05784606933594,-28.301692962646484
2652,-273.2127685546875,123.20726776123048,148.10191345214844,-5.3274874687194815
2653,-276.51885986328125,117.0513916015625,148.77134704589844,-2.952651023864746
2654,-287.7273254394531,95.31883239746094,129.94844055175778,-21.81296730041504
2655,-302.4625244140625,93.48253631591795,116.03226470947266,-26.12507057189941
2656,-280.7598876953125,120.9670639038086,153.56964111328125,-0.8807464241981506
2657,-277.80911254882807,114.0183334350586,149.6090850830078,-4.994636535644531
2658,-291.7552185058594,98.5875015258789,128.01864624023438,-23.716575622558594
2659,-294.06646728515625,102.06561279296876,126.72463989257812,-29.812612533569336
2660,-272.29275512695307,115.42453002929688,140.5323486328125,-22.011180877685547
2661,-282.6186218261719,115.81722259521484,142.24522399902344,-22.60208511352539
2662,-303.0945739746094,99.451416015625,118.29864501953124,-33.840484619140625
2663,-307.9901123046875,89.29385375976562,114.88411712646484,-31.63020324707031
2664,-274.72744750976557,113.13571166992188,139.96762084960938,-6.860846519470215
2665,-278.8114013671875,120.5481948852539,141.1344757080078,-2.9077723026275635
2666,-291.9496765136719,98.11627197265624,116.51470947265624,-22.01866149902344
2667,-296.916259765625,83.74009704589844,113.28343963623048,-29.21048927307129
2668,-264.75686645507807,109.20133972167969,144.7434844970703,-5.342447280883789
2669,-269.68231201171875,113.75653839111328,144.20492553710938,-15.069927215576172
2670,-292.525634765625,89.83987426757812,126.0140609741211,-33.904064178466804
2671,-293.4344177246094,88.74408721923828,131.48179626464844,-30.369857788085934
2672,-271.49990844726557,113.700439453125,149.88958740234375,-7.65370512008667
2673,-263.93035888671875,119.63939666748048,153.27418518066406,-4.957237243652344
2674,-294.09637451171875,87.41641998291016,128.78158569335938,-34.09105682373047
2675,-293.1015625,89.18165588378906,132.21855163574222,-31.2861328125
2676,-272.85000610351557,115.77608489990234,161.28878784179688,-9.516175270080566
2677,-272.326416015625,112.59716796875,152.18214416503906,-11.63295841217041
2678,-291.1156921386719,86.33184814453125,132.48408508300778,-26.30832672119141
2679,-298.37109375,86.29444885253906,129.48094177246094,-28.04738044738769
2680,-276.82177734375,116.01543426513672,148.69654846191406,-3.764209270477295
2681,-267.71139526367193,111.36299896240234,146.0935821533203,-7.721023559570312
2682,-302.1633605957031,85.9765625,121.44390106201172,-21.225801467895508
2683,-303.6593017578125,80.87533569335938,117.60676574707031,-24.45333671569824
2684,-276.21591186523443,109.81468200683594,137.38710021972656,-2.664678812026977
2685,-278.76278686523443,105.69705200195312,139.05882263183594,-1.86434018611908
2686,-299.627685546875,82.92854309082031,125.05290222167969,-19.247394561767575
2687,-294.6685791015625,80.6172866821289,118.1714859008789,-29.206748962402344
2688,-276.53005981445307,114.97948455810548,136.86724853515622,-11.666618347167967
2689,-279.533203125,111.63975524902344,139.5225830078125,-10.96351718902588
2690,-291.47845458984375,86.97511291503906,119.27849578857422,-33.02518844604492
2691,-290.1358337402344,91.83698272705078,124.21142578125,-29.42740249633789
2692,-267.07186889648443,120.6117706298828,152.275634765625,-11.767595291137695
2693,-258.94879150390625,112.95246124267578,144.88558959960938,-16.247995376586914
2694,-293.9654846191406,94.96727752685548,124.72005462646484,-37.12037658691406
2695,-295.83917236328125,94.18190002441406,121.28682708740234,-36.44345474243164
2696,-263.45162963867193,110.89177703857422,143.44198608398438,-18.275020599365234
2697,-273.72140502929693,115.21884155273438,147.93734741210938,-8.71209716796875
2698,-291.27276611328125,97.35333251953124,128.65069580078122,-30.48205375671387
2699,-299.98297119140625,85.72972869873047,121.06990814208984,-30.01830673217773
2700,-270.32183837890625,110.48412322998048,146.32171630859375,-8.921531677246094
2701,-273.171630859375,106.6769027709961,145.9925994873047,-10.888718605041504
2702,-290.1919250488281,82.34137725830078,129.2528076171875,-24.344879150390625
2703,-289.5486755371094,79.77954864501953,127.8840103149414,-23.08827209472656
2704,-260.86737060546875,103.19132232666016,154.987060546875,-0.7274105548858643
2705,-268.4930419921875,97.91806030273438,147.16693115234375,-6.602793216705322
2706,-290.5472106933594,82.13941955566406,123.7289810180664,-28.4400691986084
2707,-291.09698486328125,80.83045959472656,126.38804626464844,-24.96196174621582
2708,-272.4722900390625,107.75399780273438,145.08755493164062,-8.311927795410156
2709,-271.74301147460943,113.68547821044922,147.50726318359375,-9.710650444030762
2710,-295.25201416015625,91.94918060302734,131.42195129394528,-23.57445907592773
2711,-290.44622802734375,92.0576400756836,130.84226989746094,-30.47457504272461
2712,-279.39108276367193,121.7748794555664,154.306396484375,-12.130365371704102
2713,-271.18576049804693,112.73180389404295,153.87257385253906,-10.144478797912598
2714,-287.4281311035156,102.3573226928711,128.97605895996094,-29.98090744018555
2715,-289.4551696777344,84.17766571044922,122.8052215576172,-32.7708740234375
2716,-273.98321533203125,108.4047393798828,138.90174865722656,-11.139291763305664
2717,-284.9037170410156,110.6935577392578,133.49386596679688,-7.5826473236083975
2718,-301.98382568359375,91.71356964111328,118.60905456542969,-22.819000244140625
2719,-296.3328552246094,86.5001449584961,119.75720977783205,-26.14377021789551
2720,-284.6793212890625,113.19929504394531,138.66987609863278,-6.501816272735597
2721,-273.20529174804693,106.071044921875,145.51763916015625,-6.0343284606933585
2722,-292.06561279296875,85.39313507080078,125.21746063232422,-23.009735107421875
2723,-301.04510498046875,82.42365264892578,124.4470443725586,-27.39289665222168
2724,-262.22122192382807,103.8271026611328,151.17984008789062,-1.86434018611908
2725,-288.2023010253906,105.11737060546876,139.33184814453122,-6.412058353424072
2726,-294.85931396484375,83.30252838134766,118.52304077148438,-23.346324920654297
2727,-295.9513854980469,82.92105865478516,111.56682586669922,-28.58966445922852
2728,-278.71792602539057,104.41800689697266,135.49844360351562,-13.319653511047365
2729,-265.23184204101557,113.51344299316406,144.07029724121094,-9.665771484375
2730,-290.67437744140625,81.93373107910156,119.38695526123048,-28.634544372558594
2731,-289.1971130371094,79.9141845703125,121.14470672607422,-34.72684097290039
2732,-274.09915161132807,113.55084228515624,142.20408630371094,-16.004901885986328
2733,-263.59002685546875,109.122802734375,146.32171630859375,-17.957130432128906
2734,-291.76641845703125,96.40714263916016,125.5951919555664,-30.351158142089844
2735,-292.4657897949219,93.50872039794922,127.95132446289062,-31.79850006103516
2736,-283.3965148925781,108.77873229980469,145.77195739746094,-9.684471130371094
2737,-272.9659423828125,117.99384307861328,153.61077880859375,-0.1365063488483429
2738,-301.7968444824219,96.89332580566406,127.16968536376952,-20.930349349975586
2739,-298.50946044921875,96.31364440917969,134.08102416992188,-22.822738647460934
2740,-276.3580322265625,102.85846710205078,148.82745361328125,-1.722223877906799
2741,-280.7412109375,118.17335510253906,150.89561462402344,-1.9092189073562624
2742,-291.4447937011719,101.07079315185548,129.9334716796875,-17.429803848266598
2743,-289.451416015625,95.09817504882812,126.85179901123048,-25.33969306945801
2744,-276.03640747070307,109.968017578125,147.6194610595703,-6.026848793029785
2745,-268.48928833007807,108.35986328125,146.8976593017578,-9.527395248413086
2746,-286.822265625,91.05534362792969,125.9729232788086,-27.239561080932614
2747,-296.2842102050781,88.42245483398438,117.81620025634766,-31.95931434631348
2748,-284.5147705078125,100.34525299072266,132.38310241699222,-20.541400909423828
2749,-277.70065307617193,121.2251205444336,140.84649658203125,-14.81187343597412
2750,-289.9450988769531,104.1823959350586,119.84322357177734,-35.51596069335937
2751,-299.7698059082031,95.13931274414062,117.8274154663086,-34.58846664428711
2752,-272.89862060546875,122.78839874267578,151.03773498535156,-13.588926315307615
2753,-265.34030151367193,125.08843231201172,148.49085998535156,-11.479622840881348
2754,-292.35357666015625,105.77932739257812,126.23845672607422,-28.85893821716309
2755,-289.73565673828125,97.0167465209961,129.41363525390622,-27.80428695678711
2756,-276.234619140625,125.0211181640625,150.0316925048828,-12.811027526855467
2757,-270.4564819335937,129.28086853027344,156.9430389404297,-6.786048412322997
2758,-299.04052734375,97.00178527832031,130.18405151367188,-23.709095001220703
2759,-297.9185485839844,95.2328109741211,127.83164978027344,-20.687255859375
2760,-276.57119750976557,117.5338363647461,150.46926879882812,-3.9773836135864262
2761,-277.44259643554693,126.87984466552734,152.94134521484375,-3.917545318603516
2762,-298.8124084472656,88.42245483398438,129.97087097167972,-22.979814529418945
2763,-295.566162109375,93.2880630493164,125.1950225830078,-20.967748641967773
2764,-277.71188354492193,116.61382293701172,141.7216339111328,-6.939384460449219
2765,-277.244384765625,114.89346313476562,140.9287872314453,-9.112266540527344
2766,-290.6669006347656,99.65711212158205,122.04976654052734,-28.91877555847168
2767,-300.0690002441406,94.8326416015625,114.45402526855469,-34.259353637695305
2768,-288.46783447265625,118.10977935791016,132.23725891113278,-16.244255065917972
2769,-280.62899780273443,115.2861557006836,134.82901000976562,-9.194543838500977
2770,-294.95281982421875,96.5978775024414,120.04518127441406,-26.90670967102051
2771,-306.68115234375,94.17816162109376,110.1606216430664,-32.314605712890625
2772,-287.4244079589844,114.08938598632812,135.04217529296878,-17.197929382324222
2773,-279.5743408203125,117.8928680419922,149.51185607910156,-10.260415077209473
2774,-299.74737548828125,99.41776275634766,126.84431457519531,-22.73298263549805
2775,-294.1824035644531,95.02711486816406,127.86904907226562,-20.1000919342041
2776,-273.32870483398443,111.63975524902344,154.71031188964844,-2.3056483268737797
2777,-276.9676513671875,121.94317626953124,153.52102661132812,-1.838160872459412
2778,-296.7853698730469,92.0576400756836,137.48806762695312,-22.097198486328125
2779,-298.50946044921875,91.98284149169922,134.1820068359375,-22.70306205749512
2780,-282.2259521484375,117.02520751953124,157.88174438476562,-5.73513650894165
2781,-275.6923217773437,117.092529296875,161.70765686035156,-5.219030380249023
2782,-290.1096496582031,91.93421936035156,136.76252746582028,-24.662769317626953
2783,-297.84375,93.12725067138672,128.03359985351562,-29.5844783782959
2784,-275.04531860351557,123.3007583618164,146.62838745117188,-8.427864074707031
2785,-271.26803588867193,118.3154754638672,146.0337371826172,-16.786540985107422
2786,-297.8475036621094,85.7596435546875,120.22095489501952,-35.30652618408203
2787,-295.566162109375,89.16669464111328,120.76698303222656,-35.01481246948242
2788,-277.85772705078125,116.3071517944336,139.09622192382812,-18.663970947265625
2789,-269.461669921875,108.35986328125,141.60943603515625,-15.832866668701172
2790,-276.7133178710937,91.56771087646484,126.04397583007812,-36.29759979248047
2791,-309.2504577636719,94.37637329101562,121.14470672607422,-32.310867309570305
2792,-272.83505249023443,114.46711730957031,144.11517333984375,-15.52619457244873
2793,-275.38192749023443,111.90528869628906,150.4655303955078,-9.288041114807127
2794,-299.5865478515625,99.69451141357422,127.08367156982422,-30.175382614135746
2795,-305.731201171875,96.85218811035156,125.0342025756836,-33.02518844604492
2796,-282.92529296875,116.16503143310548,150.1999969482422,-16.61824607849121
2797,-275.92794799804693,121.5691909790039,157.8780059814453,-7.002962589263916
2798,-289.9076843261719,95.0869598388672,134.27175903320312,-28.75796127319336
2799,-299.474365234375,93.5835189819336,124.94070434570312,-34.74180221557617
2800,-273.8223876953125,111.92024230957031,153.61077880859375,-6.8234477043151855
2801,-269.88427734375,113.3825454711914,148.18418884277344,-2.8853328227996826
2802,-291.0184326171875,92.89911651611328,130.33364868164062,-19.060400009155273
2803,-293.05670166015625,85.68110656738281,127.34546661376952,-22.534767150878906
2804,-269.0390625,106.6357650756836,147.08465576171875,-11.898491859436035
2805,-266.4510498046875,116.8943099975586,150.22616577148438,-13.89559841156006
2806,-289.9862365722656,89.62296295166016,126.18235778808594,-28.189495086669922
2807,-295.5287780761719,87.04991149902344,113.82572174072266,-36.32378005981445
2808,-268.60147094726557,123.84304809570312,142.45840454101562,-9.456336975097656
2809,-274.48062133789057,116.77837371826172,139.986328125,-9.658291816711426
2810,-302.2344055175781,94.53345489501952,112.69627380371094,-32.67363739013672
2811,-301.1124267578125,98.9652328491211,114.9963150024414,-24.32617950439453
2812,-286.1977233886719,116.06405639648438,137.77230834960938,-5.705217361450195
2813,-275.0228881835937,123.94402313232422,137.36091613769528,-10.724163055419922
2814,-294.0758056640625,97.8245620727539,120.90348815917969,-30.152942657470703
2815,-294.8275451660156,105.06501007080078,122.1376495361328,-31.899477005004886
2816,-279.96142578125,123.5775146484375,143.888916015625,-13.29721450805664
2817,-276.94332885742193,117.99010467529295,150.04478454589844,-19.43439102172852
2818,-295.384765625,109.1676788330078,130.12982177734378,-36.44719314575195
2819,-295.63909912109375,109.5005340576172,128.34214782714844,-32.355743408203125
2820,-277.1527709960937,124.9612808227539,149.87649536132812,-16.266695022583008
2821,-276.01956176757807,127.82978057861328,144.5546112060547,-11.90597152709961
2822,-291.66357421875,102.30870056152344,127.20147705078124,-28.15209770202637
2823,-300.39251708984375,93.07862854003906,120.38738250732422,-27.83046531677246
2824,-267.66836547851557,116.92797088623048,150.46365356445312,-4.957237243652344
2825,-272.68359375,124.38907623291016,145.60552978515625,-8.637298583984375
2826,-294.49468994140625,103.72238159179688,125.79527282714844,-22.740461349487305
2827,-308.2463073730469,88.42245483398438,112.89261627197266,-29.868711471557614
2828,-282.8523864746094,116.56893920898438,137.92376708984378,-8.278268814086914
2829,-274.85647583007807,113.56206512451172,140.39958190917972,-5.99692964553833
2830,-288.83245849609375,100.50607299804688,122.16757202148438,-22.658184051513672
2831,-298.0027160644531,91.41437530517578,122.7958755493164,-28.87763786315918
2832,-284.643798828125,110.91795349121094,140.02558898925778,-11.374905586242676
2833,-277.47439575195307,119.60574340820312,142.17230224609375,-11.767595291137695
2834,-301.0395202636719,107.90359497070312,120.76885223388672,-31.32727241516113
2835,-307.74139404296875,95.55070495605469,114.06694793701172,-37.83469772338867
2836,-274.20571899414057,117.10374450683594,137.25059509277344,-18.85844612121582
2837,-288.4921569824219,124.57606506347656,144.50973510742188,-15.342939376831055
2838,-293.1595458984375,95.41606903076172,128.81336975097656,-32.19492721557617
2839,-300.19427490234375,92.502685546875,120.4247817993164,-42.34127807617188
2840,-280.03622436523443,113.62564086914062,144.5172119140625,-22.564685821533203
2841,-276.55813598632807,113.8014144897461,151.52952575683594,-19.93179702758789
2842,-294.0832824707031,92.22967529296876,122.19749450683594,-38.320884704589844
2843,-298.7806091308594,98.23595428466795,122.8781509399414,-36.39109802246094
2844,-275.4398803710937,113.0422134399414,142.66221618652344,-14.699676513671875
2845,-275.81387329101557,110.58509826660156,141.55520629882812,-13.790881156921387
2846,-282.9795227050781,98.12749481201172,126.92098236083984,-25.029279708862305
2847,-295.50445556640625,88.81514739990234,121.38593292236328,-33.58243179321289
2848,-279.81182861328125,114.71768951416016,142.4079132080078,-6.191404342651367
2849,-276.827392578125,106.33283233642578,138.16311645507812,-7.017922401428223
2850,-286.9662780761719,89.20783233642578,120.71275329589844,-26.098892211914066
2851,-294.4236145019531,84.91816711425781,118.88020324707031,-39.07260513305664
2852,-274.445068359375,103.0379867553711,136.09495544433594,-18.544294357299805
2853,-263.62554931640625,108.4010009765625,140.8670654296875,-17.538261413574222
2854,-292.94635009765625,96.86341094970705,121.76366424560548,-33.24209976196289
2855,-298.6983337402344,102.06561279296876,115.80226135253906,-46.57110595703125
2856,-267.69830322265625,120.23778533935548,145.074462890625,-21.225801467895508
2857,-274.78915405273443,119.3402099609375,152.46824645996094,-18.050626754760746
2858,-289.9507141113281,89.09937286376953,130.00265502929688,-37.73746109008789
2859,-309.1101989746094,95.36370849609376,121.90951538085938,-34.99611282348633
2860,-276.43096923828125,116.99154663085938,146.40960693359375,-10.862539291381836
2861,-277.508056640625,115.47315216064452,149.6371307373047,-7.694844245910644
2862,-291.39056396484375,97.8843994140625,127.7961196899414,-19.07161903381348
2863,-293.69061279296875,80.79679870605469,124.7593231201172,-30.740108489990234
2864,-267.45895385742193,102.2376480102539,147.42311096191406,-13.977875709533693
2865,-254.279541015625,111.37796020507812,156.3876495361328,-6.213843822479247
2866,-283.117919921875,76.59315490722656,129.5987548828125,-25.455629348754886
2867,-289.2326354980469,70.84492492675781,121.76740264892578,-22.10841941833496
2868,-274.69564819335943,96.53055572509766,141.82823181152344,-4.003562927246094
2869,-271.45315551757807,108.43466186523438,143.34288024902344,2.1971912384033203
2870,-298.5823974609375,67.61739349365234,113.44612884521484,-30.14920425415039
2871,-301.9445495605469,80.04508209228516,115.53298950195312,-30.73636817932129
2872,-282.4858703613281,111.84918975830078,139.5169677734375,-17.545740127563473
2873,-283.9070129394531,119.59078216552734,135.96406555175778,-12.242562294006348
2874,-297.004150390625,94.61946868896484,119.17191314697266,-26.36442565917969
2875,-293.20068359375,88.48603057861328,121.70008087158205,-30.051965713500977
2876,-284.4493103027344,113.54336547851562,146.1253662109375,-10.806441307067873
2877,-273.15853881835943,109.19385528564452,150.55340576171875,-7.459230422973633
2878,-291.60748291015625,87.25186920166016,127.51563262939452,-23.45852279663086
2879,-298.2345886230469,88.44489288330078,122.25733184814452,-28.19697570800781
2880,-268.56222534179693,102.28252410888672,146.39837646484375,-12.444517135620115
2881,-264.39971923828125,106.99105834960938,150.56463623046875,-11.427264213562012
2882,-281.44244384765625,84.75735473632812,132.53831481933594,-26.835651397705078
2883,-293.4101257324219,97.96668243408205,133.12921142578122,-24.21398162841797
2884,-273.57742309570307,101.46722412109376,152.35604858398438,-10.294075012207033
2885,-273.88034057617193,107.98587036132812,147.9878387451172,-5.308787822723389
2886,-295.8485107421875,88.01480865478516,130.03257751464844,-15.664570808410645
2887,-297.87554931640625,81.32412719726562,122.96043395996094,-18.058107376098636
2888,-284.6811828613281,104.88175201416016,144.8949432373047,-4.9460177421569815
2889,-277.04055786132807,120.48835754394531,147.00050354003906,-0.9368449449539183
2890,-302.06048583984375,92.69342041015624,117.84424591064452,-23.29022789001465
2891,-301.6154479980469,89.80247497558594,117.4777374267578,-33.10372543334961
2892,-276.2701416015625,120.35372161865234,138.46231079101562,-14.407964706420898
2893,-275.90362548828125,115.51055145263672,141.22984313964844,-11.595560073852539
2894,-295.1865539550781,98.02651977539062,123.3157196044922,-20.417984008789066
2895,-297.92791748046875,81.75794982910156,119.73289489746094,-23.645517349243164
2896,-279.22091674804693,101.77015686035156,139.50949096679688,-6.232543468475343
2897,-267.04006958007807,112.3765106201172,145.85609436035156,-3.0498883724212646
2898,-292.5574035644531,90.14280700683594,117.3954620361328,-27.04134750366211
2899,-296.3721008300781,87.07234954833984,116.04535675048828,-29.18804931640625
2900,-279.05636596679693,109.01060485839844,141.9815673828125,-11.692797660827635
2901,-264.48199462890625,111.47893524169922,154.5177001953125,-8.308187484741211
2902,-297.5389709472656,86.44404602050781,131.03861999511722,-24.96944236755371
2903,-289.7337951660156,81.88884735107422,126.74894714355469,-20.945310592651367
2904,-289.6926574707031,104.05523681640624,139.86477661132812,-13.63380527496338
2905,-271.9393310546875,111.52008056640624,148.71337890625,-4.643085956573486
2906,-294.2142028808594,90.86087036132812,129.61370849609378,-22.239315032958984
2907,-294.468505859375,91.63502502441406,124.1983413696289,-22.68810272216797
2908,-284.72979736328125,108.81238555908205,147.88687133789062,-7.560207843780518
2909,-277.39959716796875,117.75074768066406,154.37933349609375,-8.603639602661133
2910,-289.2625732421875,95.4534683227539,131.59585571289062,-25.27985382080078
2911,-295.8260803222656,87.74927520751953,119.87127685546876,-36.00214767456055
2912,-275.69046020507807,99.6458969116211,138.18182373046878,-19.008041381835934
2913,-265.2486572265625,109.75110626220705,143.36158752441406,-14.07137393951416
2914,-290.1189880371094,86.7619400024414,119.14947509765624,-33.687149047851555
2915,-281.1058349609375,80.3592300415039,115.09915924072266,-33.04762649536133
2916,-267.09243774414057,98.93531036376952,137.45628356933594,-20.40676498413086
2917,-257.13308715820307,112.1558609008789,144.053466796875,-14.112512588500975
2918,-284.7896423339844,88.67302703857422,117.69839477539062,-31.20385551452637
2919,-283.2113952636719,89.01709747314453,126.505859375,-25.036760330200195
2920,-274.81906127929693,108.44587707519531,142.4827117919922,-14.83431339263916
2921,-273.13238525390625,114.67281341552734,151.52952575683594,-6.827187538146973
2922,-290.9604797363281,88.265380859375,128.20376586914062,-23.09575271606445
2923,-298.4552307128906,87.50991821289062,131.74919128417972,-25.9866943359375
2924,-275.10330200195307,118.40523529052734,147.25856018066406,-10.776521682739258
2925,-272.33950805664057,109.6501235961914,150.20559692382812,-15.679530143737793
2926,-280.64584350585943,91.3620147705078,132.13066101074222,-25.24619483947754
2927,-290.4331359863281,89.3873519897461,126.1468276977539,-26.18490982055664
2928,-267.12234497070307,108.63287353515624,144.78648376464844,-10.63066577911377
2929,-265.23745727539057,110.2073745727539,149.04249572753906,-11.72645664215088
2930,-282.4297790527344,95.64046478271484,132.02220153808594,-21.390357971191406
2931,-285.5787658691406,94.43995666503906,126.86114501953124,-24.090564727783203
2932,-276.674072265625,111.92398834228516,144.2554168701172,-14.77447509765625
2933,-266.64364624023443,108.8460464477539,145.76260375976562,-10.63066577911377
2934,-285.53387451171875,95.02711486816406,125.81023406982422,-22.071020126342773
2935,-285.9041442871094,93.44888305664062,125.48860168457031,-21.951343536376953
2936,-268.53604125976557,107.28276824951172,137.83401489257812,-14.789434432983398
2937,-275.13320922851557,121.19893646240234,144.70794677734375,-9.362839698791504
2938,-287.08221435546875,91.85194396972656,131.33779907226562,-27.112403869628906
2939,-290.3321838378906,84.31604766845703,128.39076232910156,-28.59340476989746
2940,-266.3070678710937,117.24960327148438,152.34107971191406,-15.212042808532715
2941,-274.73678588867193,114.9308624267578,152.04937744140625,-15.660831451416016
2942,-287.8825378417969,93.07115173339844,140.53048706054688,-30.037006378173828
2943,-297.7895202636719,85.43427276611328,131.05731201171878,-35.83759307861328
2944,-278.60757446289057,122.37700653076172,147.7335205078125,-21.637191772460934
2945,-277.92691040039057,118.39401245117188,153.09654235839844,-15.08862590789795
2946,-294.7078552246094,95.44598388671876,132.27278137207028,-33.15982437133789
2947,-300.6842041015625,85.52029418945312,124.27313232421876,-25.268634796142575
2948,-271.9617919921875,102.52561950683594,144.9547882080078,-8.77193546295166
2949,-266.93536376953125,113.8014144897461,146.1328582763672,-3.738029956817627
2950,-275.23794555664057,88.03350830078125,130.50381469726562,-18.44705581665039
2951,-297.0452880859375,86.62356567382812,119.44866180419922,-24.37853813171387
2952,-260.07638549804693,107.88489532470705,147.07156372070312,-4.684224605560303
2953,-273.52880859375,108.40847778320312,145.15673828125,-5.477083683013916
2954,-294.6368103027344,77.83853912353516,115.73494720458984,-29.09081268310547
2955,-286.37908935546875,90.38216400146484,125.93365478515624,-24.034467697143555
2956,-275.82510375976557,103.79718017578124,139.08688354492188,-16.977275848388672
2957,-275.57827758789057,105.42404174804688,140.03681945800778,-16.233036041259766
2958,-286.1883544921875,94.99346160888672,123.03148651123048,-36.86980438232422
2959,-294.1618347167969,93.06741333007812,122.01797485351562,-42.707786560058594
2960,-269.1680908203125,113.69295501708984,146.79481506347656,-30.45213508605957
2961,-271.1876220703125,116.3071517944336,150.51976013183594,-25.997915267944336
2962,-297.79327392578125,103.03050231933594,130.1971435546875,-40.19831466674805
2963,-290.8258361816406,97.4617919921875,128.72735595703122,-37.24005508422852
2964,-274.0037841796875,123.1362075805664,152.44580078125,-15.47757625579834
2965,-266.00787353515625,114.63541412353516,150.05975341796875,-14.232189178466795
2966,-304.73828125,97.35333251953124,122.50416564941406,-34.083580017089844
2967,-293.75042724609375,99.25320434570312,126.19170379638672,-28.526086807250977
2968,-280.79544067382807,119.4000473022461,140.71372985839844,-15.432697296142578
2969,-279.4266357421875,124.6396484375,131.30789184570312,-18.940723419189453
2970,-298.2345886230469,102.25634765625,117.04764556884766,-27.452735900878906
2971,-293.2492980957031,93.183349609375,121.61780548095705,-26.09515190124512
2972,-277.65017700195307,107.06211853027344,139.37484741210938,-10.828880310058594
2973,-276.09063720703125,109.85581970214844,142.56124877929688,-13.11021900177002
2974,-285.93780517578125,95.38240814208984,130.17095947265622,-26.338245391845703
2975,-287.75164794921875,89.65662384033203,123.67101287841795,-33.77316665649414
2976,-272.08892822265625,114.57557678222656,141.24853515625,-14.508941650390625
2977,-273.29693603515625,112.12220001220705,139.72639465332028,-12.4033784866333
2978,-291.0016174316406,94.55963134765624,123.48401641845705,-32.29216766357422
2979,-293.26800537109375,108.03449249267578,126.2253646850586,-33.05510711669922
2980,-284.72607421875,116.494140625,142.43409729003906,-21.95882225036621
2981,-278.6412353515625,122.96043395996094,144.3152618408203,-16.827680587768555
2982,-291.1362609863281,111.12364959716795,129.14248657226562,-26.88801002502441
2983,-296.5067443847656,106.41885375976562,125.3838882446289,-31.09539794921875
2984,-280.65704345703125,118.56978607177734,140.39210510253906,-15.33545970916748
2985,-276.4608764648437,115.46192932128906,144.34144592285156,-16.535966873168945
2986,-293.3128662109375,96.65023803710938,128.52540588378906,-29.143171310424805
2987,-291.89544677734375,105.61477661132812,127.44083404541016,-25.926856994628906
2988,-273.08749389648443,120.46965789794922,142.2845001220703,-13.805840492248535
2989,-278.3831787109375,126.16926574707031,145.33251953125,-19.82707977294922
2990,-294.2216796875,96.32860565185548,123.5139389038086,-30.07066535949707
2991,-291.7907409667969,87.48748016357422,125.062255859375,-30.167903900146484
2992,-268.64822387695307,114.38858032226562,141.74594116210938,-10.978476524353027
2993,-278.46920776367193,109.88200378417969,138.53337097167972,-14.804393768310547
2994,-293.1707458496094,95.6180191040039,119.29532623291016,-31.2449951171875
2995,-293.20440673828125,95.05329895019531,120.2677001953125,-29.240407943725586
2996,-275.466064453125,123.83556365966795,146.74246215820312,-15.59725284576416
2997,-267.57489013671875,119.49354553222656,148.69094848632812,-18.66771125793457
2998,-294.3226318359375,101.06705474853516,125.1669692993164,-29.91732978820801
2999,-291.745849609375,101.13811492919922,129.60997009277344,-33.70958709716797
3000,-266.8568115234375,123.16986846923828,145.9234161376953,-16.790281295776367
3001,-281.7229309082031,121.78236389160156,138.619384765625,-18.106725692749023
3002,-284.7896423339844,98.63986206054688,129.07516479492188,-35.7927131652832
3003,-281.82391357421875,109.77728271484376,126.55821228027344,-32.70729446411133
3004,-267.167236328125,129.69598388671878,141.36447143554688,-24.584232330322266
3005,-272.249755859375,122.5340805053711,139.71517944335938,-17.579399108886722
3006,-284.8494873046875,104.55638122558594,125.41754150390624,-32.879329681396484
3007,-295.5680236816406,101.28771209716795,123.9215850830078,-34.40147018432617
3008,-276.58804321289057,124.00760650634766,144.6929931640625,-18.52559471130371
3009,-278.02789306640625,110.69729614257812,138.91110229492188,-22.336551666259766
3010,-288.08074951171875,102.39098358154295,122.8781509399414,-33.30194091796875
3011,-295.2838134765625,95.9321746826172,123.61117553710938,-33.904064178466804
3012,-274.70687866210943,113.61067962646484,138.98216247558594,-18.615352630615234
3013,-279.18728637695307,109.09288024902344,140.8296661376953,-17.605579376220703
3014,-298.2644958496094,94.80272674560548,114.71768951416016,-32.871849060058594
3015,-296.3478088378906,96.58665466308594,123.4297866821289,-26.82256317138672
3016,-282.49896240234375,108.99938201904295,139.13737487792972,-19.38016128540039
3017,-277.3677978515625,109.80345916748048,138.625,-11.593689918518065
3018,-292.5443115234375,98.31449127197266,126.94903564453124,-22.58525657653809
3019,-302.99359130859375,102.71261596679688,119.43931579589844,-19.447479248046875
3020,-279.00961303710943,112.61212921142578,138.50906372070312,-8.025825500488281
3021,-275.0902099609375,117.10000610351562,141.98342895507812,-5.87164306640625
3022,-304.721435546875,102.4433364868164,121.3990249633789,-24.08869552612305
3023,-297.267822265625,98.45286560058594,123.67288208007812,-29.56390953063965
3024,-273.88970947265625,119.42996215820312,143.2400360107422,-17.932819366455078
3025,-279.80996704101557,113.6181640625,140.76795959472656,-23.879261016845703
3026,-292.091796875,102.60415649414062,130.37478637695312,-32.13322067260742
3027,-296.8863525390625,107.40992736816406,131.33967590332028,-37.36159896850586
3028,-279.3387451171875,121.83097839355469,145.80560302734375,-24.95261192321777
3029,-277.86520385742193,134.19508361816406,150.34959411621094,-14.260238647460938
3030,-296.6470031738281,97.8208236694336,128.30661010742188,-31.39272117614746
3031,-294.68353271484375,99.78427124023438,133.14979553222656,-31.841508865356445
3032,-281.29843139648443,113.26660919189452,150.40194702148438,-14.16300106048584
3033,-274.3646850585937,113.8201141357422,152.54116821289062,-10.247325897216797
3034,-292.37603759765625,99.78427124023438,129.45103454589844,-30.323108673095703
3035,-298.2701110839844,99.59353637695312,122.33773803710938,-27.34988784790039
3036,-279.8323974609375,120.32379913330078,138.48661804199222,-13.037291526794435
3037,-279.7875366210937,117.62733459472656,138.13133239746094,-8.16046142578125
3038,-298.89093017578125,97.32341766357422,119.39443969726562,-24.12983512878418
3039,-295.98876953125,99.21580505371094,118.97930908203124,-22.9293270111084
3040,-283.87896728515625,104.7508544921875,131.19007873535156,-17.330696105957028
3041,-281.141357421875,116.86065673828124,136.41098022460938,-14.252758979797365
3042,-285.99951171875,91.59014892578124,119.77964782714844,-23.886741638183594
3043,-295.6895751953125,83.62042236328125,116.1407241821289,-33.535682678222656
3044,-281.68365478515625,104.21604919433594,141.26162719726562,-18.074935913085934
3045,-273.1417236328125,105.80177307128906,144.29843139648438,-20.86490249633789
3046,-288.25091552734375,94.31653594970705,128.60580444335938,-27.97445106506348
3047,-296.77789306640625,87.03868865966797,129.38371276855472,-29.70976448059082
3048,-268.53042602539057,117.8779067993164,155.01698303222656,-12.476305961608887
3049,-277.8128662109375,113.8014144897461,153.56216430664062,-5.284478664398193
3050,-290.96234130859375,92.85797882080078,140.80535888671875,-22.94428634643555
3051,-298.3224792480469,93.9462890625,129.06581115722656,-24.12983512878418
3052,-270.86038208007807,106.1944580078125,150.8058624267578,-12.513705253601074
3053,-276.4627685546875,109.5678482055664,152.7880096435547,-11.608649253845215
3054,-294.5040283203125,90.90574645996094,127.16968536376952,-26.80012321472168
3055,-292.65277099609375,95.29264831542969,124.30118560791016,-25.861408233642575
3056,-271.234375,112.06610107421876,144.58639526367188,-9.630242347717283
3057,-272.74154663085943,110.25225067138672,139.3056640625,-16.302223205566403
3058,-278.43740844726557,100.61078643798828,125.53909301757812,-27.01703643798828
3059,-287.7684631347656,93.7480697631836,121.23820495605469,-26.328895568847656
3060,-266.50714111328125,106.5534896850586,142.20408630371094,-13.620716094970705
3061,-279.55191040039057,109.38833618164062,139.07752990722656,-12.655821800231935
3062,-281.41436767578125,98.43042755126952,125.92803955078124,-25.71555137634277
3063,-290.9586181640625,96.55299377441406,123.91597747802734,-28.12404823303223
3064,-273.78872680664057,114.07442474365234,150.3645477294922,-12.483785629272461
3065,-266.6866455078125,112.50740814208984,151.38180541992188,-16.578975677490234
3066,-283.1496887207031,110.65989685058594,140.78292846679688,-28.019330978393555
3067,-293.69622802734375,93.11228942871094,130.64031982421878,-33.924633026123054
3068,-275.58013916015625,112.88513946533205,146.9313201904297,-16.141408920288086
3069,-271.2904663085937,124.97998046875,160.5482940673828,-9.383408546447754
3070,-280.45321655273443,98.28083038330078,142.76133728027344,-26.17930030822754
3071,-300.60382080078125,86.07379913330078,134.92997741699222,-23.71096611022949
3072,-264.25946044921875,106.3926773071289,149.0630645751953,-11.885401725769045
3073,-272.595703125,106.86016082763672,149.3846893310547,-8.242739677429201
3074,-287.88067626953125,91.04412078857422,128.35150146484378,-25.91750717163086
3075,-290.96234130859375,104.07767486572266,123.05953979492188,-25.45375823974609
3076,-275.2098999023437,119.22052764892578,142.9932098388672,-8.272658348083496
3077,-279.26394653320307,114.02954864501952,139.61233520507812,-13.564617156982422
3078,-283.8303527832031,98.9016571044922,123.94215393066406,-25.6108341217041
3079,-298.04571533203125,93.7106704711914,118.57913970947266,-35.64872741699219
3080,-283.8827209472656,120.72396850585938,136.20903015136722,-15.599123001098633
3081,-266.94845581054693,122.62757873535156,144.21615600585938,-14.518291473388672
3082,-278.58700561523443,103.27733612060548,132.43547058105472,-18.232011795043945
3083,-284.5932922363281,100.82022094726562,123.84491729736328,-21.60540199279785
3084,-263.79196166992193,113.22920989990234,153.15451049804688,-4.2560062408447275
3085,-264.6708374023437,117.99010467529295,150.5328369140625,-10.105209350585938
3086,-283.43017578125,99.02133178710938,136.19032287597656,-26.20921897888184
3087,-283.9986572265625,95.9359130859375,137.53669738769528,-26.538330078125
3088,-276.16357421875,111.90528869628906,146.80416870117188,-16.029211044311527
3089,-267.56179809570307,113.6368637084961,150.00926208496094,-15.112936019897461
3090,-288.2172546386719,106.83024597167969,132.46913146972656,-26.242877960205078
3091,-295.4203186035156,95.72647857666016,125.54656982421876,-32.65680694580078
3092,-279.3275146484375,115.7499008178711,141.69546508789062,-16.20124626159668
3093,-270.32559204101557,124.46761322021484,143.88330078125,-11.97141933441162
3094,-286.37347412109375,106.57218933105469,131.98294067382812,-24.97879219055176
3095,-289.17840576171875,90.3335418701172,118.18644714355469,-30.33806800842285
3096,-269.82818603515625,115.6264877319336,145.5475616455078,-7.348903179168701
3097,-271.40267944335943,120.40982055664062,141.78147888183594,-6.275552272796631
3098,-294.2908630371094,96.7025909423828,118.11913299560548,-19.200645446777344
3099,-299.4032897949219,95.31509399414062,117.75636291503906,-20.947179794311523
3100,-282.31195068359375,110.41680908203124,139.45526123046878,-8.807464599609375
3101,-265.5160522460937,109.6463851928711,148.5806121826172,-8.848603248596191
3102,-289.1522216796875,92.14739227294922,129.4285888671875,-23.000385284423828
3103,-290.4237976074219,86.07006072998047,128.45246887207028,-35.719783782958984
3104,-273.14547729492193,105.18094635009766,151.06016540527344,-18.13851547241211
3105,-264.6259765625,104.885498046875,151.07139587402344,-8.624209403991701
3106,-280.51681518554693,92.52886199951172,137.28985595703122,-29.96407890319824
3107,-296.2917175292969,91.3620147705078,126.1187744140625,-32.5595703125
3108,-265.71054077148443,112.5560302734375,150.9217987060547,-10.14634895324707
3109,-272.0908203125,113.4797821044922,143.31109619140625,-21.702638626098636
3110,-283.6583251953125,96.86714935302734,127.74188995361328,-32.50720977783203
3111,-300.6374816894531,97.68992614746094,122.3863525390625,-35.742225646972656
3112,-280.34475708007807,117.5749740600586,137.58905029296878,-22.57403564453125
3113,-271.56723022460943,106.74422454833984,135.326416015625,-26.63930702209473
3114,-292.6265869140625,97.85448455810548,118.3472671508789,-35.360755920410156
3115,-296.5946350097656,94.10710144042969,112.17642974853516,-35.98531723022461
3116,-275.74468994140625,116.94293212890624,132.49530029296878,-20.48343276977539
3117,-273.17538452148443,112.70936584472656,130.19900512695312,-16.91556739807129
3118,-297.7764587402344,99.87403106689452,120.4603042602539,-29.481632232666016
3119,-295.8765869140625,102.17406463623048,118.80353546142578,-31.014989852905273
3120,-280.82720947265625,116.4567413330078,136.13796997070312,-11.836783409118652
3121,-268.85952758789057,118.24441528320312,144.04037475585938,-9.749918937683104
3122,-288.7408447265625,96.2986831665039,121.97496795654295,-24.642200469970703
3123,-297.2752990722656,92.0426788330078,120.88291931152344,-28.52795600891113
3124,-273.17910766601557,112.39521026611328,143.2475128173828,-16.380762100219727
3125,-273.20904541015625,117.0738296508789,145.03892517089844,-13.766571998596193
3126,-277.07235717773443,98.73336029052734,132.00912475585938,-31.03742980957031
3127,-295.37542724609375,92.64854431152344,122.33773803710938,-37.30176162719727
3128,-278.0185546875,118.10977935791016,141.64309692382812,-19.88130760192871
3129,-283.0375061035156,113.75279998779295,140.80162048339844,-18.508764266967773
3130,-286.3061828613281,106.6956024169922,132.16246032714844,-28.34470176696777
3131,-293.4344177246094,102.12545013427734,121.49252319335938,-33.012096405029304
3132,-268.9156494140625,115.9518585205078,144.82949829101562,-14.86610221862793
3133,-274.3534545898437,125.0435562133789,141.4561004638672,-12.408987998962402
3134,-282.8318176269531,107.27155303955078,126.18983459472656,-24.17097282409668
3135,-294.09637451171875,95.27769470214844,122.04976654052734,-26.747764587402344
3136,-282.79815673828125,111.44153594970705,138.50906372070312,-10.157567977905273
3137,-269.2447509765625,121.75244140625,143.38589477539062,-11.574990272521973
3138,-293.2848205566406,103.75978088378906,128.73297119140622,-19.825210571289066
3139,-296.12713623046875,94.15198516845705,126.33194732666016,-26.71784591674805
3140,-276.74697875976557,117.18976593017578,142.29383850097656,-9.346010208129883
3141,-274.81719970703125,115.2450180053711,141.8562774658203,-10.441801071166992
3142,-289.47760009765625,102.26382446289062,130.12794494628906,-26.624347686767575
3143,-290.96234130859375,105.28192138671876,127.00513458251952,-29.593828201293945
3144,-267.99563598632807,113.95848846435548,146.84530639648438,-14.133082389831545
3145,-274.45443725585943,111.92772674560548,135.22169494628906,-16.769710540771484
3146,-286.4146423339844,100.50233459472656,120.19103240966795,-31.359060287475586
3147,-288.3930358886719,96.30242156982422,123.6878433227539,-33.80121612548828
3148,-275.0228881835937,106.18698120117188,134.99729919433594,-29.829442977905273
3149,-278.56832885742193,105.90274810791016,130.96194458007812,-27.37606811523437
3150,-293.5279235839844,103.43815612792969,119.76094818115234,-35.45799255371094
3151,-290.1246032714844,93.90140533447266,112.0492706298828,-38.04974365234375
3152,-277.69317626953125,117.01773071289062,132.30830383300778,-22.39078140258789
3153,-268.3883056640625,119.35142517089844,131.69869995117188,-20.23659896850586
3154,-298.7862243652344,105.3529815673828,123.81874084472656,-35.170021057128906
3155,-290.6893310546875,93.81912994384766,112.90570831298828,-34.336021423339844
3156,-283.6358947753906,127.10050201416016,137.19636535644528,-19.98228454589844
3157,-275.15005493164057,124.69200134277344,142.33123779296875,-11.193520545959473
3158,-280.07550048828125,98.93531036376952,128.50857543945312,-21.05563735961914
3159,-292.3984680175781,94.4885711669922,124.21142578125,-22.74607086181641
3160,-273.78872680664057,107.94473266601562,147.8363800048828,-7.042231559753418
3161,-280.9506225585937,114.8037109375,147.2305145263672,-1.4323816299438477
3162,-293.49798583984375,90.01190948486328,130.87966918945312,-22.19630622863769
3163,-299.82965087890625,81.5821762084961,128.10466003417972,-22.226224899291992
3164,-283.0113220214844,114.32125854492188,138.89427185058594,-12.121015548706055
3165,-277.36032104492193,110.02411651611328,139.76193237304688,-21.990612030029297
3166,-282.0464172363281,93.45262145996094,126.61992645263672,-33.24023056030273
3167,-287.4094543457031,90.64395141601562,116.06218719482422,-37.98616409301758
3168,-280.7000732421875,119.33272552490234,132.84310913085938,-23.98023796081543
3169,-271.63455200195307,118.30425262451172,143.8421630859375,-17.786964416503906
3170,-296.1196594238281,97.03170776367188,113.36946105957031,-38.75284194946289
3171,-300.60382080078125,92.9477310180664,110.61688995361328,-39.91969299316406
3172,-279.33126831054693,112.05113983154295,127.60725402832031,-25.92498588562012
3173,-275.50534057617193,120.89600372314452,133.33677673339844,-26.25409698486328
3174,-282.7121276855469,105.90274810791016,123.59434509277344,-39.13431167602539
3175,-288.3219909667969,98.74832153320312,125.88316345214844,-40.592872619628906
3176,-262.88693237304693,114.62793731689452,146.0038299560547,-24.30561065673828
3177,-255.7063140869141,119.73289489746094,147.85507202148438,-22.181346893310547
3178,-282.6335754394531,99.14849090576172,132.07269287109378,-34.810989379882805
3179,-286.7474670410156,85.6137924194336,131.36585998535156,-30.67840003967285
3180,-265.213134765625,114.10808563232422,147.98223876953125,-13.130788803100586
3181,-275.41558837890625,118.80540466308594,145.34185791015625,-10.643754959106444
3182,-278.16067504882807,85.78956604003906,128.82646179199222,-20.995798110961914
3183,-290.6407165527344,80.10865783691406,122.7042465209961,-22.81712913513184
3184,-277.7343139648437,111.41535949707031,137.88450622558594,-9.536745071411133
3185,-271.5223388671875,104.39183044433594,137.16270446777344,-8.489572525024414
3186,-284.65313720703125,81.17079162597656,117.65164184570312,-23.77454376220703
3187,-297.421142578125,84.81719207763672,116.23796081542969,-24.365447998046875
3188,-267.82357788085943,103.1464385986328,125.53160858154295,-11.073843955993652
3189,-272.1356811523437,101.99081420898438,136.60171508789062,-11.799384117126465
3190,-298.453369140625,94.59329223632812,116.75406646728516,-19.447479248046875
3191,-295.9252014160156,86.28697204589844,112.95059204101562,-28.273643493652344
3192,-280.57662963867193,108.3785629272461,131.42568969726562,-15.84221649169922
3193,-276.01397705078125,115.92193603515624,135.41990661621094,-10.239846229553224
3194,-288.0639343261719,98.83433532714844,125.47177124023438,-24.8366756439209
3195,-292.1516418457031,97.0354461669922,117.53570556640624,-33.03079605102539
3196,-265.7142944335937,117.5749740600586,145.2333984375,-14.148041725158693
3197,-271.86642456054693,113.62937927246094,144.6013641357422,-16.795890808105472
3198,-278.62814331054693,107.27155303955078,136.50822448730472,-31.987363815307614
3199,-287.14764404296875,88.69172668457031,123.36247253417969,-43.40153884887695
3200,-269.2447509765625,111.94268798828124,151.2172393798828,-15.25879192352295
3201,-267.408447265625,115.9443817138672,151.78570556640625,-18.29932975769043
3202,-288.781982421875,92.51764678955078,132.86929321289062,-38.16941833496094
3203,-292.5181579589844,84.03929138183594,125.22868347167969,-31.071088790893555
3204,-271.90756225585943,104.63491821289062,136.75505065917972,-15.520585060119627
3205,-272.3787841796875,109.1639404296875,146.0038299560547,-8.164201736450195
3206,-287.3458557128906,91.47421264648438,128.4599609375,-16.874427795410153
3207,-294.64239501953125,82.6443099975586,109.6968765258789,-23.576330184936523
3208,-276.52633666992193,103.31473541259766,135.49844360351562,-6.275552272796631
3209,-274.41329956054693,108.0569305419922,132.31953430175778,-7.8687496185302725
3210,-300.0615234375,91.7621841430664,123.7439422607422,-17.59248924255371
3211,-297.772705078125,86.48892974853516,121.9001693725586,-27.005817413330078
3212,-276.15234375,111.42283630371094,140.56974792480472,-13.777791023254395
3213,-277.99237060546875,110.89177703857422,142.24522399902344,-14.56691074371338
3214,-291.1306457519531,98.39676666259766,125.5951919555664,-28.210065841674805
3215,-291.29144287109375,98.95027160644531,126.41049194335938,-34.395858764648445
3216,-266.52584838867193,110.71412658691406,145.86170959472656,-16.406940460205078
3217,-264.6932983398437,124.0281753540039,156.49050903320312,-13.385102272033693
3218,-274.79476928710943,100.7061538696289,144.33583068847656,-30.356767654418945
3219,-296.598388671875,81.91690063476562,133.63970947265622,-34.68383407592773
3220,-259.04977416992193,109.4388198852539,156.09780883789062,-14.387394905090332
3221,-262.06414794921875,112.11659240722656,149.15281677246094,-13.78153133392334
3222,-282.8841552734375,94.4792251586914,131.14146423339844,-31.85272789001465
3223,-286.575439453125,82.1151123046875,123.0483169555664,-27.31996917724609
3224,-270.119873046875,103.25676727294922,135.46478271484378,-9.533004760742188
3225,-278.21676635742193,104.53955078125,136.63163757324222,-10.583916664123537
3226,-289.4925537109375,93.17399597167969,117.62920379638672,-18.837875366210934
3227,-296.16455078125,83.56619262695312,115.28802490234376,-22.734851837158203
3228,-272.06088256835943,99.26255798339844,133.61727905273438,-2.31125807762146
3229,-276.7806396484375,109.54354095458984,143.59532165527344,4.207387447357179
3230,-281.9903259277344,94.55402374267578,131.30975341796878,-10.78961181640625
3231,-299.28363037109375,83.6409912109375,121.80667114257812,-17.53639030456543
3232,-274.96304321289057,104.8985824584961,143.8870391845703,-3.1153366565704346
3233,-270.40786743164057,112.0455322265625,144.53404235839844,-1.3201847076416016
3234,-290.307861328125,96.24071502685548,125.49420928955078,-21.95695304870605
3235,-289.9039611816406,98.36123657226562,121.2195053100586,-25.349040985107425
3236,-268.84832763671875,121.6047134399414,144.1002197265625,-6.772958755493164
3237,-266.06582641601557,113.32457733154295,144.70982360839844,-16.65377426147461
3238,-280.83843994140625,97.04853057861328,130.70388793945312,-29.27967643737793
3239,-294.4329833984375,104.24784088134766,128.02986145019528,-24.8366756439209
3240,-272.8388061523437,121.00633239746094,148.10565185546875,-20.06082344055176
3241,-265.08224487304693,113.36946105957031,153.70802307128906,-7.68175458908081
3242,-281.2909545898437,87.0555191040039,133.59483337402344,-27.55932235717773
3243,-290.6407165527344,93.0730209350586,118.78108978271484,-29.84814071655273
3244,-270.17599487304693,111.61544799804688,140.6258544921875,-10.370742797851562
3245,-266.245361328125,114.49142456054688,145.4951934814453,-6.847756862640381
3246,-282.77197265625,99.89459991455078,127.11358642578124,-22.65257453918457
3247,-284.5409240722656,94.65499877929688,125.84576416015624,-29.18991851806641
3248,-276.93771362304693,113.90426635742188,135.19924926757812,-12.988672256469727
3249,-274.4619140625,115.32916259765624,138.23979187011722,-7.262885570526122
3250,-293.8158874511719,94.9018325805664,121.82910919189452,-25.43132019042969
3251,-291.3774719238281,88.71977996826172,126.92659759521484,-22.53289794921875
3252,-267.38601684570307,110.71038818359376,148.14678955078125,-2.45337438583374
3253,-272.85748291015625,108.41783142089844,138.42678833007812,-7.917368412017822
3254,-282.0501708984375,94.70361328125,123.99451446533205,-20.60310935974121
3255,-294.0814208984375,91.1694107055664,127.53620147705078,-26.83752250671387
3256,-269.0166015625,109.8165512084961,149.6427459716797,-14.727725982666016
3257,-270.36297607421875,119.21865844726562,147.02481079101562,-16.967926025390625
3258,-284.44744873046875,92.63919067382812,131.47431945800778,-31.48247718811035
3259,-293.9991455078125,83.940185546875,124.07305145263672,-37.83656692504883
3260,-282.02398681640625,109.24060821533205,143.48687744140625,-22.77225112915039
3261,-272.97341918945307,126.1150360107422,150.18502807617188,-11.848003387451172
3262,-299.0629577636719,94.77841186523438,123.65792083740234,-28.03803062438965
3263,-300.21112060546875,90.83281707763672,127.95132446289062,-22.768510818481445
3264,-284.84759521484375,114.88785552978516,143.57662963867188,-2.520692586898804
3265,-278.2354736328125,116.19308471679688,146.39651489257812,-0.3141515851020813
3266,-291.164306640625,93.24505615234376,129.48841857910156,-17.992658615112305
3267,-296.751708984375,87.64642333984375,121.55609893798828,-21.2388916015625
3268,-269.70101928710943,108.6758804321289,147.12953186035156,-2.6478490829467773
3269,-280.32980346679693,109.56971740722656,142.55189514160156,-6.309211254119872
3270,-285.3487548828125,87.56788635253906,125.19876098632812,-20.26277732849121
3271,-296.30291748046875,86.26266479492188,118.17897033691406,-28.296083450317386
3272,-267.76373291015625,106.7012176513672,138.20613098144528,-10.856929779052734
3273,-264.81671142578125,104.88362121582031,142.5668487548828,-16.702392578125
3274,-279.450927734375,98.08448791503906,127.04253387451172,-29.50781059265137
3275,-295.2033996582031,88.57392120361328,122.15074157714844,-35.151321411132805
3276,-262.64382934570307,108.21961212158205,149.0967254638672,-14.593090057373047
3277,-258.39157104492193,117.75261688232422,154.2353515625,-10.71855354309082
3278,-275.13882446289057,91.67803955078124,133.74443054199222,-33.202831268310554
3279,-271.60089111328125,91.31153106689452,133.04507446289062,-32.653064727783196
3280,-279.25271606445307,105.41842651367188,142.63043212890625,-22.84704971313477
3281,-265.5946044921875,112.62147521972656,152.9151611328125,-17.031503677368164
3282,-291.80755615234375,99.198974609375,131.54911804199222,-23.03404426574707
3283,-289.23077392578125,87.96057891845703,132.16993713378906,-20.232858657836914
3284,-280.37094116210943,113.50035095214844,149.3622589111328,-0.7143208980560303
3285,-273.92709350585943,107.93912506103516,152.5374298095703,2.1691420078277592
3286,-286.33984375,86.90966796875,129.63053894042972,-19.20438575744629
3287,-301.1872253417969,78.96611785888672,125.1950225830078,-19.39512062072754
3288,-277.81658935546875,97.50106048583984,136.08186340332028,-11.10002326965332
3289,-262.95050048828125,116.1182861328125,142.43222045898438,-6.7579994201660165
3290,-292.4770202636719,93.30489349365234,114.47272491455078,-25.71555137634277
3291,-281.5677185058594,85.13320922851562,119.15882110595705,-34.661392211914055
3292,-265.77786254882807,119.21492004394531,140.89512634277344,-15.180253982543945
3293,-279.1068725585937,111.02828216552734,132.76083374023438,-27.36484718322754
3294,-279.89971923828125,92.91220092773438,119.68241119384766,-37.22322463989258
3295,-283.370361328125,87.65016174316406,118.07798767089844,-49.92766571044922
3296,-259.05352783203125,118.98304748535156,142.0544891357422,-30.1361141204834
3297,-259.2592163085937,120.38551330566406,150.00926208496094,-24.716999053955078
3298,-282.88043212890625,98.97832489013672,130.56552124023438,-38.11706161499024
3299,-285.70404052734375,93.63026428222656,133.45271301269528,-27.16663360595703
3300,-264.86532592773443,120.2957534790039,148.7152557373047,-13.777791023254395
3301,-275.11264038085943,119.72354888916016,147.4923095703125,-7.5882568359375
3302,-299.73614501953125,91.73413848876952,129.48468017578122,-23.2808780670166
3303,-305.4768981933594,99.35231018066406,125.62510681152344,-23.793243408203125
3304,-283.23944091796875,112.34846496582031,139.24581909179688,-11.765725135803224
3305,-269.06149291992193,117.11683654785156,149.7362518310547,-0.9948133826255798
3306,-294.814453125,88.36074829101562,122.92864227294922,-28.0529899597168
3307,-293.1090393066406,85.28654479980469,125.38949584960938,-23.6922664642334
3308,-278.69921875,105.79615783691406,144.33583068847656,-7.5209388732910165
3309,-274.20758056640625,109.30792236328124,135.29649353027344,-13.51973819732666
3310,-287.772216796875,87.92691802978516,121.73561096191406,-29.103900909423828
3311,-276.79934692382807,86.651611328125,122.49481201171876,-30.1361141204834
3312,-273.41848754882807,104.36377716064452,136.76252746582028,-20.93222045898437
3313,-264.24822998046875,120.6173858642578,144.24981689453125,-17.330696105957028
3314,-286.8671569824219,101.68226623535156,113.25726318359376,-44.52350997924805
3315,-285.7377014160156,100.38826751708984,119.75720977783205,-45.0844955444336
3316,-264.37164306640625,122.18440246582031,143.47564697265625,-22.117769241333008
3317,-268.9193725585937,128.37019348144528,148.554443359375,-20.898561477661133
3318,-287.3982238769531,108.03636169433594,128.23930358886722,-29.60130882263184
3319,-288.8829650878906,88.5589599609375,135.18803405761722,-24.69081878662109
3320,-272.3787841796875,115.2955093383789,154.83746337890625,-0.7591996788978577
3321,-272.07958984375,126.70594024658205,157.8780059814453,-2.771265983581543
3322,-294.814453125,89.9202880859375,128.21311950683594,-21.257591247558594
3323,-302.97491455078125,87.66512298583984,126.1187744140625,-32.095821380615234
3324,-278.441162109375,123.90101623535156,143.04556274414062,-8.014605522155763
3325,-272.45733642578125,113.64247131347656,141.8151397705078,-12.218253135681152
3326,-288.2060546875,88.9628677368164,127.10610961914062,-31.403940200805664
3327,-291.9571533203125,90.36907196044922,123.36994934082031,-27.43590545654297
3328,-273.68026733398443,108.38417053222656,141.6356201171875,-12.483785629272461
3329,-265.26174926757807,110.07086181640624,146.02252197265625,-6.110996723175049
3330,-279.46963500976557,96.91764068603516,126.5413818359375,-26.02970314025879
3331,-291.31390380859375,93.31237030029295,120.15737915039062,-28.9917049407959
3332,-280.55419921875,109.2331314086914,135.77519226074222,-11.227179527282717
3333,-271.327880859375,123.4073486328125,145.9290313720703,-13.493558883666992
3334,-290.6182861328125,98.3088836669922,126.32820892333984,-32.81388092041016
3335,-296.72552490234375,97.25796508789062,121.34292602539062,-37.541114807128906
3336,-273.511962890625,114.05011749267578,141.11203002929688,-18.572343826293945
3337,-270.20965576171875,115.50494384765624,145.89910888671875,-16.676214218139652
3338,-287.9704284667969,101.18860626220705,128.31784057617188,-31.516136169433594
3339,-283.8864440917969,104.52833557128906,130.62535095214844,-32.32021713256836
3340,-269.03158569335943,120.17233276367188,144.18997192382812,-30.28196907043457
3341,-268.05545043945307,122.86132049560548,153.94363403320312,-18.03379821777344
3342,-283.60595703125,111.09185791015624,130.56178283691406,-32.009803771972656
3343,-276.081298828125,110.75526428222656,135.77145385742188,-28.57283592224121
3344,-274.1664428710937,116.7241439819336,147.275390625,-8.306317329406737
3345,-269.6673583984375,122.37139892578124,147.6119842529297,-5.819284439086914
3346,-301.0899963378906,95.99388122558594,117.03829956054688,-24.74691772460937
3347,-295.03509521484375,93.98929595947266,118.36970520019531,-26.60190773010254
3348,-266.1107177734375,118.85588836669922,138.42304992675778,-14.563170433044435
3349,-270.1722412109375,119.1663055419922,139.7694091796875,-12.05369758605957
3350,-281.6387634277344,91.78649139404295,122.79774475097656,-27.92209243774414
3351,-294.7247009277344,95.0065460205078,121.70195770263672,-30.38294792175293
3352,-273.08187866210943,115.99112701416016,138.38565063476562,-9.970573425292967
3353,-270.987548828125,118.92321014404295,146.49374389648438,-1.9671874046325684
3354,-284.3988342285156,92.6279754638672,124.20021057128906,-19.35772132873535
3355,-301.6285400390625,91.70795440673828,110.1755828857422,-25.37896156311035
3356,-283.6545715332031,109.42386627197266,135.3563232421875,-6.559784412384032
3357,-270.42654418945307,106.93682861328124,139.87039184570312,-6.107256412506104
3358,-279.17791748046875,87.06300354003906,124.79485321044922,-20.22163963317871
3359,-287.2074890136719,95.1037826538086,122.31529998779295,-28.93934631347656
3360,-269.20361328125,112.98424530029295,141.83009338378906,-23.333236694335934
3361,-256.74224853515625,120.47900390625,155.36105346679688,-21.29499053955078
3362,-280.658935546875,96.52120971679688,133.69207763671878,-44.11212158203125
3363,-285.7825927734375,99.61036682128906,136.35862731933594,-45.68661880493164
3364,-271.1371459960937,113.92296600341795,152.03628540039062,-41.393211364746094
3365,-253.6044921875,130.03071594238278,161.74131774902344,-33.520721435546875
3366,-283.0561828613281,109.66695404052734,132.41676330566406,-51.03467559814453
3367,-287.0691223144531,102.84912109375,127.97377014160156,-49.80424880981445
3368,-274.12158203125,103.3166046142578,141.7665252685547,-27.35736846923828
3369,-272.62936401367193,119.33834075927734,146.94627380371094,-13.489819526672365
3370,-301.09747314453125,95.12996673583984,123.77385711669922,-20.704086303710934
3371,-300.4429931640625,89.56873321533203,115.1159896850586,-15.965632438659668
3372,-292.9968566894531,111.29755401611328,134.92250061035156,0.9461947083473206
3373,-278.19805908203125,113.09644317626952,143.7224884033203,10.957906723022461
3374,-297.8325500488281,79.49718475341797,116.75780487060548,-15.909534454345705
3375,-291.48968505859375,83.47269439697266,123.57564544677734,-18.20957374572754
3376,-276.17105102539057,99.70760345458984,144.07403564453125,0.7816390991210938
3377,-271.14834594726557,104.26280212402344,144.79583740234375,0.09723740071058272
3378,-284.555908203125,91.96601104736328,130.28128051757812,-16.601415634155273
3379,-280.0904541015625,87.50431060791016,131.46682739257812,-23.58006858825684
3380,-261.37225341796875,108.47393035888672,148.32630920410156,-11.885401725769045
3381,-264.22207641601557,106.95926666259766,150.48422241210938,-17.75704574584961
3382,-274.09915161132807,91.09087371826172,127.60725402832031,-41.804603576660156
3383,-275.66241455078125,91.73413848876952,125.1912841796875,-53.8695182800293
3384,-269.37939453125,113.4928741455078,145.89910888671875,-30.760677337646484
3385,-261.63406372070307,123.0707550048828,154.16802978515625,-26.23539733886719
3386,-283.47882080078125,95.17484283447266,128.03359985351562,-39.740177154541016
3387,-290.2293395996094,92.3138198852539,124.9556655883789,-35.289695739746094
3388,-271.2867431640625,111.6453628540039,145.85797119140625,-12.955013275146484
3389,-283.8041687011719,113.18620300292969,138.82695007324222,-8.942100524902344
3390,-300.0690002441406,96.50251007080078,123.108154296875,-11.784424781799315
3391,-300.1662292480469,89.01896667480469,119.79460906982422,-13.22054672241211
3392,-283.4077453613281,96.75308227539062,133.13108825683594,5.090003967285156
3393,-274.41329956054693,110.50469207763672,138.1612548828125,7.52841854095459
3394,-292.6452941894531,87.17893981933594,123.20913696289062,-18.1871337890625
3395,-300.2971496582031,79.75149536132812,113.45173645019531,-19.073490142822266
3396,-272.40869140625,100.71363830566406,141.00357055664062,-4.162508487701416
3397,-270.20965576171875,98.94092559814452,148.02337646484375,-5.318137645721436
3398,-279.7763061523437,87.672607421875,126.70594024658205,-24.06625556945801
3399,-285.29638671875,91.29656982421876,128.53849792480472,-35.10269927978516
3400,-266.234130859375,104.08328247070312,144.21241760253906,-21.02945709228516
3401,-260.21664428710943,112.56912231445312,147.60450744628906,-27.155412673950195
3402,-273.87100219726557,99.18401336669922,123.47467041015624,-51.03093338012695
3403,-293.0267639160156,99.35231018066406,118.60157775878906,-51.33012771606445
3404,-274.10662841796875,119.55899047851562,139.49266052246094,-21.519384384155273
3405,-278.26913452148443,127.36042022705078,137.79847717285156,-23.041522979736328
3406,-294.7583312988281,104.19548034667969,122.75660705566406,-30.5175838470459
3407,-298.7338562011719,88.22985076904297,121.2045440673828,-27.73509788513184
3408,-270.53128051757807,115.72933197021484,148.5581817626953,-1.9410080909729004
3409,-262.14266967773443,116.29032135009766,156.32220458984375,1.0583916902542114
3410,-289.978759765625,93.0767593383789,132.46913146972656,-20.105701446533203
3411,-291.16802978515625,86.78998565673828,127.36416625976562,-21.568002700805664
3412,-277.771728515625,112.91319274902344,143.60281372070312,-0.6357830166816711
3413,-268.9193725585937,116.41373443603516,144.3844451904297,-4.098930358886719
3414,-283.9163818359375,92.65789031982422,123.27645111083984,-18.183393478393555
3415,-294.1300354003906,89.35929870605469,117.13927459716795,-23.7034854888916
3416,-267.92831420898443,110.66925048828124,139.03265380859378,-7.584517002105713
3417,-267.43463134765625,102.25634765625,132.30644226074222,-21.442716598510746
3418,-276.7133178710937,90.85338592529295,118.24441528320312,-37.02313995361328
3419,-285.9583740234375,92.3605728149414,116.7073211669922,-44.304725646972656
3420,-262.29226684570307,113.53588104248048,139.1766357421875,-26.861831665039066
3421,-262.4718017578125,113.87247467041016,147.05661010742188,-19.370811462402344
3422,-285.53948974609375,108.19530487060548,132.54205322265622,-25.10407829284668
3423,-294.0814208984375,92.22967529296876,129.29208374023438,-30.78124618530273
3424,-272.842529296875,119.1008529663086,151.4734344482422,-10.006102561950684
3425,-262.25112915039057,114.96078491210938,153.44061279296875,-5.4135050773620605
3426,-282.36431884765625,99.6870346069336,136.67463684082028,-24.083086013793945
3427,-282.184814453125,95.22533416748048,141.57391357421875,-14.587479591369627
3428,-255.7250061035156,114.71768951416016,162.98109436035156,-5.619199752807617
3429,-272.21795654296875,111.0937271118164,161.41407775878906,-1.4641708135604858
3430,-270.89028930664057,88.53465270996094,147.88687133789062,-17.57192039489746
3431,-294.91168212890625,85.49785614013672,133.69767761230472,-28.701862335205078
3432,-268.85952758789057,111.32186126708984,153.73606872558594,-10.544648170471193
3433,-277.408935546875,112.52236938476562,153.31346130371094,-8.412904739379883
3434,-291.07080078125,84.64141845703125,127.27627563476562,-29.05341339111328
3435,-295.6297302246094,92.29698944091795,120.61925506591795,-34.689441680908196
3436,-267.4047241210937,111.14608764648438,141.1699981689453,-17.64297866821289
3437,-270.85665893554693,112.9786376953125,134.20631408691406,-20.964008331298828
3438,-293.2287292480469,90.8346939086914,112.9786376953125,-37.29989242553711
3439,-297.256591796875,87.3453598022461,111.82675170898438,-32.871849060058594
3440,-283.6246643066406,110.38688659667969,131.45375061035156,-8.678438186645508
3441,-277.19952392578125,107.81383514404295,132.65425109863278,-5.723917007446289
3442,-301.0376281738281,97.40943145751952,115.21509552001952,-18.749988555908203
3443,-289.73565673828125,90.6813507080078,115.25249481201172,-18.14412498474121
3444,-275.0191650390625,104.90419006347656,137.35903930664062,-1.621246576309204
3445,-274.6825561523437,108.4870147705078,143.15963745117188,-8.977629661560059
3446,-277.23690795898443,96.2799835205078,124.22077941894531,-20.91164970397949
3447,-287.7684631347656,87.43885803222656,121.67764282226562,-20.634897232055664
3448,-256.06161499023443,112.79164123535156,148.05889892578125,-10.98969554901123
3449,-256.65249633789057,124.5798110961914,158.8111114501953,-4.011042594909668
3450,-279.27890014648443,104.33573150634766,139.66282653808594,-19.015522003173828
3451,-282.1661071777344,92.0202407836914,142.1423797607422,-22.605825424194336
3452,-265.45248413085943,110.48786163330078,156.1370849609375,-15.705709457397461
3453,-262.84576416015625,118.3416519165039,163.35134887695312,-10.327733993530273
3454,-284.2380065917969,95.9546127319336,141.71603393554688,-30.590511322021484
3455,-283.9089050292969,79.67108917236328,139.26264953613278,-34.704402923583984
3456,-269.3681640625,113.50970458984376,150.94610595703125,-17.052074432373047
3457,-269.26345825195307,115.6115264892578,146.27122497558594,-13.962916374206545
3458,-296.6357727050781,98.15367126464844,118.63336944580078,-26.020353317260746
3459,-308.5174255371094,88.34391784667969,118.60718536376952,-21.36043930053711
3460,-277.12472534179693,114.5867919921875,139.2589111328125,-1.3145748376846311
3461,-275.50534057617193,118.46133422851562,145.8000030517578,0.5852943658828735
3462,-301.0189514160156,93.61343383789062,120.27892303466795,-13.903078079223633
3463,-291.60186767578125,93.97246551513672,119.8488311767578,-13.364532470703125
3464,-274.41329956054693,118.47628784179688,146.11788940429688,10.099599838256836
3465,-268.36587524414057,120.35372161865234,144.54339599609375,5.948310852050781
3466,-295.3417663574219,91.82950592041016,125.61949920654295,-13.962916374206545
3467,-288.6548156738281,95.4497299194336,139.36737060546878,-17.91973114013672
3468,-270.66217041015625,113.9809341430664,152.21018981933594,-7.679884433746338
3469,-259.06472778320307,110.31208801269531,155.83041381835938,-7.904278755187987
3470,-276.51885986328125,102.15162658691406,134.92811584472656,-23.18177032470703
3471,-287.9591979980469,86.63104248046875,132.99458312988278,-29.303985595703125
3472,-267.43838500976557,109.02930450439452,155.8827667236328,-7.519068717956543
3473,-266.03591918945307,104.02157592773438,154.44290161132812,-4.6991844177246085
3474,-287.7385559082031,92.70838165283205,132.42985534667972,-19.699922561645508
3475,-296.9461975097656,85.02662658691406,122.78839874267578,-22.598344802856445
3476,-277.10226440429693,111.05632781982422,142.4079132080078,-7.406871795654298
3477,-277.8427734375,105.00143432617188,136.83172607421878,-10.784001350402832
3478,-281.657470703125,88.90863800048828,114.87476348876952,-19.8831787109375
3479,-296.4824523925781,78.2312240600586,107.08081817626952,-25.23871421813965
3480,-279.19287109375,106.8115463256836,129.60249328613278,-10.73538303375244
3481,-262.39700317382807,113.04595947265624,137.68815612792972,-6.973043441772461
3482,-275.1724853515625,92.2072296142578,126.41983795166016,-19.972936630249023
3483,-282.79815673828125,76.00598907470703,117.86668395996094,-23.69039535522461
3484,-259.5995483398437,107.4398422241211,143.8365478515625,-3.1620852947235107
3485,-258.8515625,104.27589416503906,147.96165466308594,-7.440530776977539
3486,-275.29217529296875,87.77171325683594,131.0311279296875,-27.06004524230957
3487,-281.152587890625,85.213623046875,130.57485961914062,-32.277206420898445
3488,-263.3768310546875,124.77054595947266,157.39743041992188,-14.348126411437988
3489,-265.35897827148443,113.64434051513672,162.33409118652344,-15.971242904663086
3490,-286.6689453125,90.6963119506836,138.97468566894528,-30.669050216674805
