,T7,F8,Cz,P4
2000,-307.9770202636719,63.6867561340332,116.52967071533205,-23.716575622558594
2001,-298.2121276855469,70.09320831298828,125.74104309082031,-15.08488655090332
2002,-294.1206970214844,90.05679321289062,140.7904052734375,-1.4454712867736816
2003,-291.33819580078125,75.47118377685547,125.9729232788086,-11.6404390335083
2004,-318.95361328125,53.42073059082031,108.4888916015625,-16.693042755126953
2005,-309.562744140625,69.86881256103516,118.92321014404295,-10.346433639526367
2006,-289.32989501953125,85.22109985351562,135.64804077148438,4.848780155181885
2007,-304.82427978515625,76.18923950195312,124.5966339111328,-3.416398525238037
2008,-310.05267333984375,70.34378051757811,109.6781768798828,-17.239068984985348
2009,-323.9987487792969,68.80667877197266,115.11225128173828,-18.33485984802246
2010,-288.58563232421875,92.25398254394531,138.378173828125,1.578237771987915
2011,-297.4866027832031,84.05612182617188,129.03590393066406,-7.240446090698242
2012,-325.61065673828125,59.219444274902344,106.95926666259766,-24.79927635192871
2013,-303.107666015625,73.6218032836914,120.74079895019531,-16.377021789550778
2014,-288.9559020996094,89.2620620727539,127.9887237548828,-3.399569034576416
2015,-303.3844299316406,80.51069641113281,121.9600067138672,-8.639168739318848
2016,-307.8124694824219,69.80335998535156,110.36257934570312,-18.946332931518555
2017,-302.50927734375,72.36519622802734,115.8415298461914,-21.57174301147461
2018,-285.313232421875,98.02090454101562,138.89801025390622,-7.9547672271728525
2019,-295.42218017578125,81.13152313232422,122.68928527832031,-15.303670883178713
2020,-315.0267333984375,73.28520965576172,111.6640625,-26.55702972412109
2021,-305.88641357421875,73.40862274169922,128.00743103027344,-15.296191215515135
2022,-289.8273010253906,82.82195281982422,141.3887939453125,-0.5983840227127075
2023,-301.757568359375,85.8699722290039,133.71076965332028,-2.457114219665528
2024,-328.0453186035156,61.40354919433594,111.24893188476562,-13.38884162902832
2025,-310.25836181640625,71.16468811035156,120.77072143554688,-7.042231559753418
2026,-290.19378662109375,85.46980285644531,140.78292846679688,8.272658348083496
2027,-297.08642578125,70.04645538330078,127.6483917236328,-4.308364868164063
2028,-320.0045471191406,65.34540557861328,109.4949188232422,-12.203293800354006
2029,-297.14251708984375,70.6523208618164,124.20768737792969,-7.5209388732910165
2030,-281.82763671875,87.1340560913086,144.20492553710938,13.35144329071045
2031,-297.7745666503906,68.04934692382811,126.8181381225586,-3.9455945491790767
2032,-313.0857238769531,54.95595932006836,103.0735092163086,-17.652328491210938
2033,-300.8113708496094,58.66593933105469,120.06013488769531,-11.829303741455078
2034,-286.3042907714844,81.83087921142578,134.74671936035156,4.940407752990723
2035,-291.0539855957031,77.39910125732422,127.9887237548828,-7.165648460388184
2036,-308.8484191894531,57.77584457397461,109.5959014892578,-29.24601745605469
2037,-300.3588562011719,74.30994415283203,115.73681640625,-22.297283172607425
2038,-284.984130859375,93.51432800292969,137.11782836914062,-9.26747226715088
2039,-292.7892761230469,89.80809020996094,137.08416748046878,-12.595983505249025
2040,-314.6676940917969,76.56510162353516,121.3765869140625,-28.056730270385746
2041,-297.0228576660156,83.56245422363281,135.98089599609378,-20.210418701171875
2042,-281.6817932128906,99.9432144165039,154.1867218017578,-5.209680557250977
2043,-288.8661193847656,84.45629119873047,149.41087341308594,-7.098330020904541
2044,-310.31072998046875,74.49694061279297,131.31349182128906,-18.3928279876709
2045,-306.0547180175781,75.3496322631836,133.53874206542972,-14.308856964111328
2046,-283.880859375,96.75682067871094,152.0699462890625,1.7166141271591189
2047,-295.4483642578125,80.88468933105469,139.12614440917972,0.6133435964584351
2048,-312.79400634765625,59.630836486816406,121.24568939208984,-14.118122100830078
2049,-302.2100830078125,73.92847442626953,127.71571350097656,-8.61298942565918
2050,-283.8210144042969,87.18267822265625,142.1367645263672,6.013759136199951
2051,-284.281005859375,65.89142608642578,131.86700439453122,-6.316690921783447
2052,-313.57940673828125,59.88514709472656,107.29959869384766,-19.892528533935547
2053,-305.5909729003906,69.84824371337889,116.40625762939452,-10.856929779052734
2054,-273.3829345703125,78.9810791015625,126.17113494873048,0.6956213712692261
2055,-301.2302551269531,70.11751556396484,118.025634765625,-13.826410293579102
2056,-316.4703369140625,62.24876403808594,107.70350646972656,-23.62868881225586
2057,-310.748291015625,78.5809097290039,116.18560028076172,-16.25734519958496
2058,-293.1932067871094,84.82279968261719,135.65177917480472,-3.612743377685547
2059,-294.5545349121094,82.29837036132812,133.41157531738278,-10.703593254089355
2060,-313.3138732910156,68.0830078125,119.97785949707031,-19.533496856689453
2061,-304.5924072265625,77.75064849853516,131.01055908203122,-9.52926540374756
2062,-288.1480712890625,98.81002807617188,149.6053466796875,-3.4369680881500244
2063,-289.61785888671875,88.59635925292969,140.71560668945312,-8.912181854248047
2064,-306.0247802734375,65.10604858398439,118.88581085205078,-22.66379356384277
2065,-295.7325744628906,77.22332763671875,125.84202575683594,-12.352890014648438
2066,-290.1376953125,86.53941345214844,141.09707641601562,6.369049549102782
2067,-292.1759338378906,74.70637512207031,133.00393676757812,-4.588857173919678
2068,-316.5077209472656,63.677406311035156,111.0432357788086,-21.235151290893555
2069,-300.73284912109375,70.4541015625,119.56647491455078,-8.762585639953612
2070,-287.9535827636719,88.84693145751953,137.42449951171878,0.7891188859939575
2071,-302.4344787597656,76.30704498291016,118.48190307617188,-4.652435779571533
2072,-315.3745422363281,58.89407348632813,105.40347290039062,-21.093036651611328
2073,-302.0679931640625,63.81204223632813,114.03515625,-18.411527633666992
2074,-282.4746398925781,84.08978271484375,130.70762634277344,-6.432628154754639
2075,-293.5933532714844,85.27159118652344,123.27645111083984,-8.317537307739258
2076,-298.0588073730469,64.32067108154297,108.62352752685548,-29.070241928100586
2077,-314.5442810058594,78.89879608154297,118.0069351196289,-20.180500030517575
2078,-292.54620361328125,94.35954284667969,136.20529174804688,-4.727233409881592
2079,-293.9112548828125,84.48621368408203,126.2982940673828,-6.0773372650146475
2080,-318.1607666015625,76.0340347290039,114.89907836914062,-14.110642433166506
2081,-303.2086486816406,78.47618865966797,132.54393005371094,-8.882262229919434
2082,-283.8359680175781,93.38716888427734,153.2928924560547,4.330804347991943
2083,-300.2092590332031,86.9695053100586,140.58096313476562,-1.144409418106079
2084,-305.6246337890625,56.68753433227539,124.94070434570312,-22.63387489318848
2085,-303.3171081542969,74.22392272949219,131.67253112792972,-13.889988899230955
2086,-285.7283630371094,84.75173950195312,147.68304443359375,2.139222860336304
2087,-290.0030517578125,80.85476684570312,135.66299438476562,-6.391489028930664
2088,-305.56103515625,55.22149276733398,111.3611297607422,-19.626995086669922
2089,-295.7550354003906,61.66160202026367,119.7347640991211,-8.489572525024414
2090,-290.2386779785156,88.0540771484375,137.94807434082028,0.8526971936225891
2091,-303.7509460449219,80.888427734375,127.00513458251952,1.327664494514465
2092,-312.4312438964844,63.755943298339844,109.7978515625,-15.827256202697756
2093,-315.8345642089844,75.45809173583984,117.15423583984376,-12.648341178894045
2094,-286.3304748535156,102.60228729248048,139.32061767578122,4.506579399108887
2095,-304.798095703125,89.78564453125,129.4697265625,-8.014605522155763
2096,-311.71319580078125,76.57257843017578,114.06881713867188,-17.510211944580078
2097,-296.2823486328125,85.62313842773438,120.4603042602539,-11.952720642089846
2098,-282.8523864746094,96.51372528076172,141.5159454345703,-2.4084956645965576
2099,-293.7953186035156,84.21693420410156,136.43342590332028,-4.760892868041992
2100,-302.18017578125,67.24153137207031,121.1372299194336,-16.16010856628418
2101,-293.8514099121094,83.62977600097656,134.67941284179688,-8.253959655761719
2102,-275.50347900390625,86.95454406738281,147.70921325683594,3.1751749515533447
2103,-286.12103271484375,81.62144470214844,139.11866760253906,1.8138514757156368
2104,-315.34088134765625,71.31428527832031,117.33374786376952,-15.359768867492676
2105,-296.0355224609375,79.41864776611328,128.97605895996094,-4.166248321533203
2106,-281.3751220703125,86.45339965820312,140.10600280761722,-3.021839141845703
2107,-294.01971435546875,79.98336791992188,124.76119232177734,-10.251066207885742
2108,-310.5538024902344,62.17770767211914,104.53207397460938,-23.015344619750977
2109,-310.1311950683594,64.83677673339844,115.66575622558594,-18.460145950317386
2110,-282.4970703125,84.77043914794922,131.9642333984375,-4.7459330558776855
2111,-290.30224609375,85.8250961303711,126.0177993774414,-11.604909896850586
2112,-327.88824462890625,69.17505645751953,102.8678207397461,-30.083755493164066
2113,-310.9764099121094,91.23298645019531,114.82427978515624,-13.990965843200685
2114,-304.7345275878906,101.24844360351562,128.34027099609378,0.8115583062171936
2115,-300.3214416503906,101.81690979003906,117.1243133544922,-2.625409841537476
2116,-314.67144775390625,76.23973083496094,104.1767807006836,-20.614328384399414
2117,-315.056640625,89.69215393066406,120.40795135498048,-5.35927677154541
2118,-292.7032775878906,101.58877563476562,140.70065307617188,7.019792079925537
2119,-287.98724365234375,92.7775650024414,136.92333984375,-2.288818836212158
2120,-305.42266845703125,66.90493774414061,126.74707794189452,-17.491512298583984
2121,-288.94842529296875,83.68587493896484,137.74238586425778,-9.895774841308594
2122,-281.4910583496094,83.68587493896484,142.86978149414062,3.971773862838745
2123,-280.39151000976557,79.48222351074219,142.44717407226562,-4.517799377441406
2124,-298.30938720703125,64.72084045410156,122.31156158447266,-19.65691375732422
2125,-291.2933349609375,72.67560577392578,129.11817932128906,-11.335637092590332
2126,-284.5690002441406,90.11476135253906,139.64225769042972,1.2753058671951294
2127,-297.4866027832031,83.15106201171875,126.02902221679688,-0.07479800283908844
2128,-310.8791809082031,59.65327453613281,109.80533599853516,-15.84221649169922
2129,-316.75830078125,82.74341583251953,115.74803161621094,-8.470873832702638
2130,-292.66961669921875,87.76610565185547,128.94613647460938,0.3702501058578491
2131,-303.294677734375,85.21923065185547,117.83863830566406,-5.946440696716309
2132,-321.94927978515625,67.00965881347656,100.30598449707031,-16.997844696044922
2133,-314.76495361328125,82.26097106933594,108.01392364501952,-12.236952781677244
2134,-293.3353271484375,98.19293975830078,130.99934387207028,2.6441092491149902
2135,-302.80474853515625,84.20198059082031,123.31385040283205,-3.784778833389282
2136,-317.8653259277344,82.78081512451172,110.67672729492188,-19.92618751525879
2137,-307.5618896484375,90.53736877441406,118.42206573486328,-4.3046250343322745
2138,-294.7452697753906,100.63510131835938,140.80909729003906,8.583070755004883
2139,-298.3019104003906,86.80868530273438,126.8218765258789,-4.349503517150879
2140,-311.4214782714844,82.42926788330078,115.0374526977539,-17.985177993774414
2141,-299.64453125,82.12633514404297,123.01091766357422,-12.132235527038574
2142,-277.61276245117193,85.63436126708984,140.39398193359378,-5.355536937713623
2143,-294.86492919921875,94.76345825195312,134.72055053710938,-8.676568031311035
2144,-300.1307067871094,54.28651809692383,114.04637908935548,-26.070842742919922
2145,-298.5225524902344,64.20847320556639,128.20564270019528,-19.05479049682617
2146,-279.28076171875,81.52420806884766,140.68194580078122,-10.052850723266602
2147,-286.94757080078125,78.6183090209961,136.34739685058594,-12.147194862365724
2148,-314.9220275878906,69.53408813476561,110.055908203125,-27.81363677978516
2149,-307.1056213378906,64.96393585205078,115.8003921508789,-20.980838775634766
2150,-293.9449157714844,92.47089385986328,127.54741668701172,-9.925694465637207
2151,-291.0240478515625,78.81278228759766,123.84491729736328,-9.364709854125977
2152,-316.5713195800781,69.96791839599611,108.48140716552734,-19.61951446533203
2153,-304.8018493652344,80.1853256225586,117.45716857910156,-11.380515098571776
2154,-296.2337341308594,93.9032745361328,132.61497497558594,0.02617929875850677
2155,-292.5574035644531,76.95779418945312,126.1000747680664,-3.672581672668457
2156,-312.2966003417969,59.15960693359375,103.612060546875,-17.412973403930664
2157,-303.2909240722656,77.33926391601562,115.82283020019531,-11.111242294311523
2158,-280.91885375976557,90.63834381103516,135.71910095214844,3.2836322784423833
2159,-291.40179443359375,80.6715087890625,120.86421966552734,-4.25226640701294
2160,-302.5616455078125,66.41127014160156,104.9172821044922,-20.479692459106445
2161,-295.0743713378906,80.2302017211914,122.63318634033205,-16.01799201965332
2162,-281.6032409667969,87.71000671386719,135.19924926757812,-4.151288986206056
2163,-286.56982421875,80.9295654296875,131.2012939453125,-10.621315956115724
2164,-296.63763427734375,72.16323852539062,111.43218994140624,-29.320816040039066
2165,-295.63909912109375,72.21186065673828,116.50349426269531,-28.10534858703613
2166,-281.64813232421875,99.17279815673828,136.94578552246094,-13.336483001708984
2167,-297.43798828125,81.87576293945312,126.32447052001952,-16.291004180908207
2168,-308.9119873046875,72.1370620727539,105.2837905883789,-26.98337745666504
2169,-309.99658203125,79.13815307617188,114.60362243652344,-14.480892181396484
2170,-289.3934631347656,99.40840911865234,136.39228820800778,4.046571731567384
2171,-291.6935119628906,89.46775817871094,126.1786117553711,1.413682222366333
2172,-332.0694580078125,69.93799591064453,107.95782470703124,-10.108949661254883
2173,-304.0762939453125,85.20053100585938,124.52558135986328,-2.281338930130005
2174,-289.81231689453125,93.27871704101562,140.8352813720703,10.303424835205078
2175,-302.83465576171875,89.69589233398438,133.91273498535156,5.2882184982299805
2176,-317.6259765625,59.30546188354492,114.26703643798828,-11.619869232177734
2177,-309.7048645019531,69.01798248291016,128.25051879882812,-9.05429744720459
2178,-288.5594482421875,81.94681549072266,143.88330078125,3.762339353561402
2179,-294.2553405761719,75.66378784179688,134.3465576171875,-5.497653007507324
2180,-304.4203796386719,58.52382278442383,117.3823699951172,-20.857421875
2181,-288.4846496582031,80.55557250976562,127.9849853515625,-10.228626251220703
2182,-294.6854248046875,95.99761962890624,135.65177917480472,-1.260346293449402
2183,-293.08099365234375,88.68611907958984,139.27574157714844,-5.318137645721436
2184,-299.7978515625,74.53807830810547,121.37284088134766,-20.33383560180664
2185,-306.90740966796875,95.51517486572266,126.7209014892578,-8.657868385314941
2186,-291.3830871582031,108.40660858154295,146.49000549316406,4.629996299743652
2187,-307.1467590332031,87.81098175048828,132.274658203125,-5.852943420410156
2188,-318.8376770019531,73.46846771240234,118.39588165283205,-16.485479354858402
2189,-311.933837890625,87.16771697998047,120.42665100097656,-10.643754959106444
2190,-285.6610412597656,91.15818786621094,140.42762756347656,3.5304656028747563
2191,-294.5993957519531,76.27339172363281,125.0117645263672,-10.049111366271973
2192,-303.92669677734375,61.62420272827149,114.64102172851562,-16.683692932128903
2193,-296.2449645996094,74.00701141357422,118.10417175292969,-7.2217469215393075
2194,-296.6974792480469,84.56100463867188,131.96798706054688,6.19327449798584
2195,-299.8203125,79.1231918334961,129.04338073730472,2.6777684688568115
2196,-317.07244873046875,51.78826522827149,104.86866760253906,-13.100869178771973
2197,-306.4212341308594,67.52950286865234,118.32108306884766,-8.55315113067627
2198,-290.1414489746094,79.22042846679688,126.07389831542969,0.3291111886501312
2199,-296.47308349609375,85.05093383789062,122.36017608642578,-7.442400932312013
2200,-293.6531982421875,61.02581787109375,112.8047332763672,-24.522523880004886
2201,-301.3013000488281,74.66897583007812,114.79061889648438,-21.377267837524414
2202,-293.6158142089844,92.2091064453125,133.16848754882812,-6.152135372161865
2203,-289.43084716796875,88.03163146972656,127.18464660644531,-6.144655704498291
2204,-309.36077880859375,73.47968292236328,115.89015197753906,-19.49983787536621
2205,-287.5721130371094,90.17086029052734,131.20504760742188,-8.313797950744629
2206,-291.51397705078125,101.22600555419922,137.88076782226562,5.172281742095947
2207,-289.2475891113281,95.95648193359376,137.60026550292972,-6.447587490081787
2208,-307.5245056152344,79.66921997070312,122.57334899902344,-15.860916137695312
2209,-301.6940002441406,71.00761413574219,133.16848754882812,-18.3928279876709
2210,-282.0669860839844,103.07725524902344,147.75784301757812,1.1070103645324707
2211,-291.6467590332031,88.80766296386719,139.96014404296878,-3.4051790237426762
2212,-299.0330505371094,57.85999298095703,121.01380920410156,-22.02988052368164
2213,-308.0125427246094,76.70160675048828,130.18405151367188,-12.62029266357422
2214,-290.3677062988281,84.89946746826172,138.37068176269528,-1.0266025066375732
2215,-297.3800048828125,77.20275115966797,125.30722045898438,-11.042054176330566
2216,-313.1025695800781,58.3349609375,115.41144561767578,-15.98994255065918
2217,-312.7322998046875,63.42870330810547,115.7966537475586,-14.695937156677244
2218,-284.82891845703125,89.91841125488281,134.70932006835938,2.631019592285156
2219,-296.46746826171875,81.24932861328125,124.8509521484375,-2.537522077560425
2220,-318.1850891113281,71.27501678466797,111.13299560546876,-15.170904159545898
2221,-312.3283996582031,78.8931884765625,114.12491607666016,-6.419538497924805
2222,-289.9750061035156,90.42330169677734,138.23979187011722,3.6220932006835938
2223,-298.5543518066406,86.25704956054688,132.76832580566406,-6.026848793029785
2224,-305.3796691894531,77.11673736572266,117.41603088378906,-19.363332748413086
2225,-305.03558349609375,85.00792694091797,131.95675659179688,-9.493736267089844
2226,-280.33355712890625,93.43018341064452,151.16114807128906,-2.3879261016845703
2227,-283.00384521484375,83.3062744140625,144.6873779296875,-7.649965286254883
2228,-290.9024963378906,68.05121612548828,123.74019622802734,-25.5640869140625
2229,-296.3365783691406,80.460205078125,135.75276184082028,-11.868572235107422
2230,-285.7526550292969,95.27769470214844,142.33497619628906,5.263909339904785
2231,-291.2016906738281,81.36900329589844,138.65118408203122,2.462724208831787
2232,-303.9061279296875,65.58662414550781,118.23133087158205,-14.64357852935791
2233,-300.9815368652344,70.05580902099611,126.63114166259766,-11.303847312927244
2234,-288.6922302246094,96.3547821044922,134.99356079101562,4.53088903427124
2235,-308.95501708984375,79.70475006103516,120.26209259033205,-5.52196216583252
2236,-321.0348815917969,70.42979431152344,111.04698181152344,-8.065093994140625
2237,-305.46942138671875,79.95906066894531,114.02394104003906,-10.787741661071776
2238,-301.8791198730469,90.48313903808594,129.76144409179688,8.940230369567871
2239,-306.916748046875,79.58132934570312,117.63294219970705,-5.20033073425293
2240,-313.3419189453125,74.66709899902344,111.01705932617188,-4.407472133636475
2241,-312.526611328125,78.98294830322266,107.9129409790039,-8.547541618347168
2242,-284.6456604003906,98.12749481201172,134.55972290039062,5.394805908203125
2243,-292.1142272949219,87.6445541381836,122.91741943359376,-5.967010498046875
2244,-307.3019714355469,68.07366180419922,109.3565444946289,-20.212289810180664
2245,-300.16998291015625,80.93891143798828,111.51446533203124,-17.474681854248047
2246,-285.3263244628906,102.18154907226562,133.15353393554688,-3.872666358947754
2247,-287.24114990234375,80.15727233886719,128.52352905273438,-15.66831111907959
2248,-304.2651672363281,71.50688934326172,116.5633316040039,-26.88801002502441
2249,-296.3627624511719,76.5856704711914,119.9367218017578,-26.64117813110352
2250,-283.9275817871094,92.19227600097656,141.46359252929688,-12.171504020690918
2251,-296.4712219238281,86.69461822509766,130.53559875488278,-13.600146293640135
2252,-306.3632507324219,79.614990234375,111.31251525878906,-23.06209373474121
2253,-296.6918640136719,72.42316436767578,115.99486541748048,-16.816459655761722
2254,-292.3460998535156,95.06451416015624,141.90863037109375,3.8464870452880864
2255,-300.7795715332031,85.78956604003906,125.84576416015624,-8.816814422607422
2256,-305.7835693359375,61.89160537719727,108.8329620361328,-17.463462829589847
2257,-298.07562255859375,72.77845001220703,114.98509216308594,-6.988003253936768
2258,-286.7998352050781,90.89078521728516,131.10406494140622,4.5084495544433585
2259,-301.2283630371094,74.62222290039062,119.15882110595705,-6.793528079986572
2260,-311.39715576171875,62.12347793579102,99.02693939208984,-17.448503494262695
2261,-296.0598449707031,71.61908721923828,111.00958251953124,-10.817660331726074
2262,-285.0271301269531,97.20748138427734,125.84202575683594,6.281161785125732
2263,-296.400146484375,75.3963851928711,120.30696868896484,-5.880992889404298
2264,-303.700439453125,60.28718566894531,109.40890502929688,-17.938430786132812
2265,-296.2991943359375,72.59893798828125,118.953125,-13.697383880615234
2266,-286.8260192871094,88.73286437988281,129.98957824707028,-0.009349750354886057
2267,-281.01046752929693,77.40470886230469,128.21311950683594,-7.672404766082764
2268,-317.18280029296875,60.13011169433594,113.62003326416016,-22.35525131225586
2269,-310.0844421386719,76.79884338378906,117.60676574707031,-18.443317413330078
2270,-288.29205322265625,92.5849609375,137.63766479492188,-2.5524816513061523
2271,-293.9654846191406,88.45611572265625,130.16908264160156,-6.565394401550293
2272,-307.2608337402344,71.75372314453125,120.4416046142578,-19.752281188964844
2273,-307.8218078613281,78.16017150878906,121.9001693725586,-8.801854133605957
2274,-293.2586364746094,92.6223602294922,144.25355529785156,3.8614466190338135
2275,-290.472412109375,95.9396514892578,136.81863403320312,0.21130435168743134
2276,-295.061279296875,60.70231628417969,116.87374114990234,-18.641530990600586
2277,-303.2366943359375,72.24364471435547,116.58576965332031,-5.065694332122803
2278,-286.9606628417969,84.29734802246094,133.00393676757812,1.4454712867736816
2279,-293.2549133300781,80.91273498535156,129.34257507324222,2.810534715652466
2280,-306.3744812011719,65.62776184082031,110.6804656982422,-14.77821445465088
2281,-302.92254638671875,67.31072235107422,113.65743255615234,-9.766748428344727
2282,-278.76278686523443,84.48808288574219,139.94145202636722,4.5084495544433585
2283,-290.56591796875,77.6066665649414,127.99246978759766,-3.670711755752564
2284,-299.5379333496094,63.09959030151367,116.85130310058594,-20.466602325439453
2285,-303.0085754394531,74.68206024169922,120.32941436767578,-12.354759216308596
2286,-276.50390625,90.30736541748048,133.26947021484378,-7.563947677612305
2287,-301.35552978515625,83.93831634521484,122.3676528930664,-14.916590690612793
2288,-312.2498474121094,69.01237487792969,110.9422607421875,-20.941570281982425
2289,-310.9296875,82.65552520751953,121.67577362060548,-14.815613746643065
2290,-286.0256652832031,96.85592651367188,141.34390258789062,-4.227956771850587
2291,-297.761474609375,95.32257080078124,132.20359802246094,-15.148465156555176
2292,-325.89300537109375,88.429931640625,116.34642028808594,-26.35320472717285
2293,-310.9147033691406,84.34596252441406,129.14060974121094,-19.587726593017575
2294,-298.4234619140625,98.2060317993164,135.62185668945312,-5.020815849304199
2295,-296.4599914550781,103.57653045654295,137.439453125,-1.5053097009658811
2296,-316.505859375,73.1487045288086,112.49806213378906,-13.278514862060547
2297,-289.4177551269531,78.84457397460938,123.10441589355469,-0.2861023545265198
2298,-289.8553466796875,101.20169067382812,136.66156005859378,6.513035774230957
2299,-293.0604248046875,84.23750305175781,130.42713928222656,-1.4492112398147583
2300,-315.81024169921875,73.85554504394531,105.98689270019531,-15.974982261657715
2301,-299.98297119140625,65.70256042480469,117.6479034423828,-15.98994255065918
2302,-278.48977661132807,93.183349609375,136.46333312988278,-1.247256636619568
2303,-291.1156921386719,92.5475616455078,127.17716979980469,-6.086687088012695
2304,-304.58306884765625,74.52872467041016,108.38790893554688,-25.48554801940918
2305,-310.06201171875,79.30458068847656,110.44485473632812,-23.144371032714844
2306,-280.41207885742193,99.44767761230469,128.94987487792972,-3.7604694366455083
2307,-291.2241516113281,93.53489685058594,122.81270599365234,-13.304694175720215
2308,-316.3824462890625,81.95990753173828,109.98484802246094,-25.55660629272461
2309,-300.6823425292969,91.71356964111328,123.04084014892578,-16.969795227050778
2310,-286.1603088378906,118.87271881103516,143.04930114746094,-0.3833397328853607
2311,-295.741943359375,98.92035675048828,131.90814208984378,-16.244255065917972
2312,-309.7516174316406,83.36237335205078,119.18125915527344,-18.58917236328125
2313,-310.7314453125,95.49834442138672,119.13264465332031,-10.185617446899414
2314,-290.39013671875,108.15790557861328,136.22024536132812,3.2069642543792725
2315,-300.4916076660156,100.86510467529295,127.95507049560548,-3.5959138870239262
2316,-315.1258544921875,78.88197326660156,110.04468536376952,-15.152204513549805
2317,-300.80950927734375,87.89138793945312,116.22673797607422,-8.71209716796875
2318,-281.26852416992193,94.79150390625,133.45271301269528,7.541508197784424
2319,-304.0295715332031,86.27574920654297,115.62461853027344,-3.738029956817627
2320,-302.79913330078125,75.28044891357422,108.58612823486328,-11.229049682617188
2321,-300.88055419921875,79.77206420898438,115.22818756103516,-11.610519409179688
2322,-286.0481262207031,97.89936065673828,128.11962890625,-4.717883586883545
2323,-281.7734069824219,88.67676544189453,123.93841552734376,-6.804748058319093
2324,-297.85125732421875,77.243896484375,114.46150970458984,-21.93638229370117
2325,-300.07647705078125,84.9742660522461,114.68964385986328,-19.329673767089844
2326,-286.8858642578125,91.24234008789062,131.8931884765625,-10.757822036743164
2327,-288.8866882324219,94.52223205566406,132.67108154296878,-12.47443675994873
2328,-309.2205505371094,66.34208679199219,118.7511749267578,-23.686656951904297
2329,-301.6322937011719,78.4705810546875,131.7174072265625,-13.962916374206545
2330,-288.18359375,93.75181579589844,141.94602966308594,-8.83177375793457
2331,-293.9131164550781,100.92494201660156,139.55998229980472,-4.6991844177246085
2332,-302.1932678222656,69.83141326904297,120.7968978881836,-22.01492118835449
2333,-305.5142822265625,84.74987030029297,126.47032928466795,-9.018768310546877
2334,-289.7842712402344,99.41402435302734,133.284423828125,-3.943724393844605
2335,-287.8320617675781,94.16693878173828,134.23809814453122,-11.157991409301758
2336,-306.5577392578125,73.50025177001953,114.92899322509766,-19.40821075439453
2337,-287.9068603515625,85.66989135742188,122.83140563964844,-10.462369918823242
2338,-303.85003662109375,99.39532470703124,128.33279418945312,4.5084495544433585
2339,-290.70428466796875,89.75759887695312,122.89124298095705,-5.432204723358153
2340,-307.2907409667969,68.32049560546875,110.71038818359376,-13.603885650634766
2341,-303.3114929199219,78.46310424804688,119.05410766601562,-10.088379859924316
2342,-278.76278686523443,92.15113830566406,140.7530059814453,2.3318276405334477
2343,-293.1539306640625,87.25186920166016,125.9355239868164,-1.6062870025634766
2344,-304.9271240234375,69.20310974121094,113.37693786621094,-18.252582550048828
2345,-300.495361328125,83.47830963134766,116.13323974609376,-11.348726272583008
2346,-281.27975463867193,103.61766815185548,144.53404235839844,7.657444953918457
2347,-293.4007568359375,88.45611572265625,131.27983093261722,-11.909711837768555
2348,-303.5807800292969,72.42316436767578,112.47562408447266,-19.438129425048828
2349,-307.9153137207031,83.8934326171875,120.88665771484376,-12.98680305480957
2350,-292.61163330078125,99.0886459350586,131.48927307128906,-0.7311504483222961
2351,-294.391845703125,93.9462890625,117.46839141845705,-5.750096321105957
2352,-316.434814453125,65.61280822753906,99.1391372680664,-18.78738784790039
2353,-304.052001953125,77.93203735351562,103.3951416015625,-9.119746208190918
2354,-288.2471923828125,98.41546630859376,126.27584838867188,5.477083683013916
2355,-291.2540588378906,92.47650909423828,119.00548553466795,-1.086440920829773
2356,-300.21112060546875,72.79341125488281,110.7590103149414,-10.79896068572998
2357,-301.2882080078125,62.71438217163086,110.97966003417969,-14.52390193939209
2358,-286.3809814453125,86.24583435058594,129.91851806640622,6.632712364196777
2359,-291.2428283691406,83.07814025878906,125.56900787353516,-4.059661388397217
2360,-294.50030517578125,61.92900466918945,111.3050308227539,-13.832019805908205
2361,-302.0324401855469,68.41773223876953,116.02852630615234,-15.817907333374025
2362,-279.89224243164057,95.1093978881836,140.61088562011722,6.213843822479247
2363,-288.92034912109375,81.66445922851562,133.448974609375,0.8620469570159912
2364,-303.90240478515625,63.03975296020508,116.61569213867188,-15.481315612792967
2365,-293.2025451660156,70.87858581542969,122.08716583251952,-12.429557800292967
2366,-275.56890869140625,97.3009796142578,141.32521057128906,4.583247184753418
2367,-280.72622680664057,86.83300018310547,135.68170166015622,-9.09730625152588
2368,-312.71734619140625,68.53740692138672,113.52653503417969,-26.663616180419922
2369,-307.1000061035156,80.96883392333984,115.66949462890624,-17.923471450805664
2370,-284.62322998046875,97.45431518554688,134.73550415039062,-2.8853328227996826
2371,-294.48907470703125,86.57868194580078,123.35872650146484,-10.626925468444824
2372,-301.5500183105469,69.08717346191406,108.02140045166016,-21.6259708404541
2373,-305.050537109375,68.66082000732422,110.1194839477539,-18.28624153137207
2374,-288.2284851074219,88.1082992553711,124.14036560058594,3.1807849407196045
2375,-287.7647399902344,83.12301635742188,123.43727111816406,0.31602153182029724
2376,-311.0418701171875,63.52593994140625,107.89798736572266,-15.20456314086914
2377,-301.23211669921875,70.69906616210938,111.39105224609376,-13.540307998657227
2378,-278.24667358398443,88.8301010131836,132.47286987304688,-0.3908195495605469
2379,-288.6361389160156,71.3647689819336,122.53221130371094,-6.995482921600343
2380,-296.3365783691406,56.17703628540039,113.4891357421875,-18.56673240661621
2381,-298.9544982910156,76.1219253540039,114.56622314453124,-20.380584716796875
2382,-279.52947998046875,92.85423278808594,134.15208435058594,-1.4641708135604858
2383,-288.4491271972656,81.87763214111328,126.93033599853516,-7.02166223526001
2384,-311.18023681640625,74.94385528564453,109.30044555664062,-13.409411430358887
2385,-296.1832580566406,83.73262023925781,122.4050521850586,-11.745155334472654
2386,-282.1286926269531,95.06077575683594,140.573486328125,1.4566910266876218
2387,-289.9076843261719,90.77859497070312,131.66879272460938,-6.733689785003662
2388,-313.8430480957031,70.79256439208984,113.46295166015624,-12.680130958557127
2389,-303.11328125,73.76578521728516,119.30841827392578,-12.829727172851562
2390,-284.28289794921875,89.69776153564453,131.05169677734378,-2.9788303375244136
2391,-292.338623046875,95.28517150878906,128.01864624023438,-9.052428245544434
2392,-307.3318786621094,57.6131591796875,105.8634796142578,-24.322439193725586
2393,-291.740234375,66.386962890625,114.0127182006836,-18.85096549987793
2394,-268.76229858398443,99.61223602294922,135.04217529296878,-2.2046709060668945
2395,-284.896240234375,85.83818054199219,124.70883178710938,-9.445116996765137
2396,-314.0973815917969,67.80438995361328,108.05506134033205,-22.51606750488281
2397,-299.8558349609375,76.55575561523438,117.9657974243164,-9.119746208190918
2398,-283.22076416015625,92.7794418334961,132.01286315917972,2.9713504314422607
2399,-282.1922912597656,81.60087585449219,130.22892761230472,-4.9759368896484375
2400,-296.7966003417969,71.82477569580078,116.12950134277344,-18.3984375
2401,-300.8057556152344,81.49241638183594,119.56647491455078,-13.970396041870115
2402,-286.751220703125,88.72538757324219,141.05967712402344,-3.8464870452880864
2403,-285.4497375488281,79.64116668701172,126.7994384765625,-4.340153694152832
2404,-305.7835693359375,75.20565032958984,111.2227554321289,-14.983909606933596
2405,-301.0899963378906,80.13109588623047,115.67323303222656,-12.048088073730467
2406,-285.8162536621094,100.54347229003906,135.39372253417972,9.501215934753418
2407,-293.7186584472656,83.74009704589844,127.74188995361328,-1.3444939851760864
2408,-312.9454650878906,64.33375549316406,101.64861297607422,-12.616552352905273
2409,-297.67547607421875,80.12735748291016,116.93732452392578,-7.904278755187987
2410,-283.47882080078125,101.37372589111328,139.5225830078125,1.0004231929779053
2411,-286.3173828125,86.26079559326172,133.81922912597656,-9.471296310424805
2412,-299.3415832519531,62.86023712158203,118.33604431152344,-26.50467109680176
2413,-296.7386169433594,70.03336334228516,117.54318237304688,-23.101362228393555
2414,-280.39898681640625,86.7170639038086,132.72343444824222,-11.17108154296875
2415,-285.9041442871094,97.11398315429688,131.07040405273438,-15.337329864501953
2416,-300.11199951171875,59.58408737182617,113.31336212158205,-28.9917049407959
2417,-293.5335388183594,70.71402740478516,122.62944793701172,-14.047063827514648
2418,-283.5068664550781,96.58291625976562,137.51051330566406,2.4047555923461914
2419,-292.4900817871094,81.34282684326172,123.47467041015624,0.8639168739318848
2420,-299.2854919433594,66.51412200927734,121.63837432861328,-4.43178129196167
2421,-310.924072265625,64.16546630859375,112.4905776977539,-7.7640323638916025
2422,-283.70880126953125,89.69027709960938,135.52836608886722,9.7686185836792
2423,-293.3203430175781,79.90296173095703,126.94903564453124,-0.6432628035545349
2424,-304.2408752441406,58.14796447753906,112.77481079101562,-7.105809688568115
2425,-305.654541015625,72.03421020507812,119.78338623046876,-4.457960605621338
2426,-288.8623962402344,91.7621841430664,132.25968933105472,7.5396385192871085
2427,-294.19549560546875,83.01081848144531,118.68759155273438,-1.0770912170410156
2428,-313.6728820800781,71.22639465332031,99.8422393798828,-17.510211944580078
2429,-298.9040222167969,78.8296127319336,112.4681396484375,-9.215113639831543
2430,-289.034423828125,103.2436752319336,129.88859558105472,2.614190101623535
2431,-287.4337463378906,90.24378967285156,127.10237121582031,-0.4637475907802582
2432,-314.9930725097656,70.45597839355469,104.7527313232422,-24.95261192321777
2433,-305.0187683105469,81.57469940185547,123.59434509277344,-8.538191795349121
2434,-283.4881591796875,94.8924789428711,137.94059753417972,2.651589155197144
2435,-284.0154724121094,82.58821105957031,133.71076965332028,-1.918568730354309
2436,-306.1407165527344,67.29576110839844,112.53546142578124,-20.049604415893555
2437,-306.44366455078125,67.60990905761719,114.17727661132812,-16.672473907470707
2438,-289.4196472167969,96.66145324707031,131.24618530273438,6.862716197967528
2439,-290.24615478515625,89.40605163574219,132.3980712890625,2.3037784099578857
2440,-303.6200256347656,68.03251647949219,116.35763549804688,-5.830503940582275
2441,-302.8421325683594,66.67867279052734,117.4646453857422,-4.218606948852538
2442,-273.53253173828125,93.6695327758789,140.32292175292972,10.52781867980957
2443,-305.2020263671875,84.56661987304688,123.46344757080078,3.15647554397583
2444,-311.5,74.49132537841797,111.46958923339844,-7.790211677551269
2445,-306.32025146484375,65.00320434570311,119.211181640625,-8.414774894714355
2446,-289.2550964355469,83.61668395996094,134.39891052246094,5.598630428314209
2447,-298.18597412109375,84.94060516357422,129.43232727050778,-7.090850353240968
2448,-304.19598388671875,65.45198822021484,109.50614166259766,-20.019683837890625
2449,-301.1217956542969,74.73068237304688,120.98763275146484,-18.078676223754886
2450,-272.16372680664057,96.45950317382812,135.47225952148438,-5.112443447113037
2451,-284.2510986328125,92.00154113769531,129.06956481933594,-8.80372428894043
2452,-296.7797546386719,74.7605972290039,119.05410766601562,-15.490665435791016
2453,-293.6831359863281,74.30432891845703,123.42230987548828,-10.404401779174805
2454,-280.63836669921875,97.3608169555664,140.09478759765622,-0.968634068965912
2455,-289.2588195800781,87.27804565429688,130.73007202148438,0.044878799468278885
2456,-303.294677734375,68.53740692138672,115.62461853027344,-23.37063407897949
2457,-297.8568420410156,79.30084228515625,121.23820495605469,-7.9547672271728525
2458,-282.34375,91.90055847167969,139.3056640625,2.0793843269348145
2459,-296.2486877441406,96.50437927246094,125.3745346069336,-1.4847402572631836
2460,-315.6363220214844,75.22434997558594,103.49237823486328,-14.757645606994627
2461,-310.4154357910156,78.24618530273438,109.52857971191406,-11.144902229309082
2462,-285.0476989746094,97.8619613647461,128.201904296875,4.158768653869629
2463,-299.375244140625,87.35284423828125,123.22035217285156,-8.306317329406737
2464,-307.767578125,74.62596130371094,115.83031463623048,-12.06491756439209
2465,-309.6263122558594,86.6983642578125,117.90595245361328,-7.262885570526122
2466,-290.2611083984375,105.80551147460938,133.48263549804688,4.188687801361084
2467,-300.5121765136719,89.0058822631836,124.98558807373048,-4.6038169860839835
2468,-300.29901123046875,82.74528503417969,115.59469604492188,-15.572943687438965
2469,-302.6962890625,86.94145202636719,121.33918762207031,-15.288710594177244
2470,-286.2856140136719,102.56301879882812,134.53355407714844,-11.414175033569336
2471,-287.1869201660156,104.98273468017578,134.21565246582028,-9.357229232788086
2472,-296.3945617675781,74.47262573242188,113.96410369873048,-28.486818313598636
2473,-306.4511413574219,81.64575958251953,117.7900161743164,-20.43107414245605
2474,-275.26412963867193,95.12061309814452,138.47540283203122,-5.3667564392089835
2475,-301.3985290527344,87.78292846679688,127.5623779296875,-6.76547908782959
2476,-309.87689208984375,81.8439712524414,115.23192596435548,-15.112936019897461
2477,-297.9541015625,80.10118103027344,119.02044677734376,-9.192673683166504
2478,-288.47344970703125,93.688232421875,137.71994018554688,4.495359897613525
2479,-289.5281066894531,97.69740295410156,136.29130554199222,5.867903232574463
2480,-306.9859619140625,65.84468078613281,113.0702667236328,-10.280984878540039
2481,-304.4989013671875,78.73985290527344,124.03565216064452,-5.5574913024902335
2482,-284.8270263671875,95.63671875,132.76083374023438,4.641215801239014
2483,-276.65908813476557,88.28034210205078,126.0327606201172,4.94414758682251
2484,-307.2215576171875,65.75865936279297,110.4972152709961,-12.913874626159668
2485,-315.7859191894531,74.67084503173828,112.28114318847656,-10.67367458343506
2486,-292.16473388671875,97.0578842163086,131.0367431640625,4.450480937957764
2487,-294.7639465332031,89.07693481445312,130.41966247558594,4.18120813369751
2488,-307.13555908203125,76.93722534179688,107.25846099853516,-16.889389038085938
2489,-309.8133239746094,78.05171203613281,112.29610443115234,-20.296436309814453
2490,-297.88677978515625,89.66783905029297,129.23785400390622,-5.183501243591309
2491,-292.8005065917969,94.24547576904295,128.23930358886722,-7.883708953857423
2492,-306.5296936035156,67.86048126220703,114.4166259765625,-19.46617889404297
2493,-303.46295166015625,73.9939193725586,119.48419189453124,-12.738099098205565
2494,-281.6294250488281,96.42210388183594,135.05339050292972,-1.4286417961120603
2495,-291.42047119140625,87.07234954833984,131.31723022460938,-4.151288986206056
2496,-307.7264404296875,71.16655731201172,114.09500122070312,-14.817483901977539
2497,-304.8168029785156,77.6253662109375,116.4773178100586,-16.642555236816403
2498,-285.3431396484375,91.56771087646484,136.71391296386722,-5.011466026306152
2499,-290.02923583984375,84.56288146972656,125.79340362548828,-5.826764106750487
2500,-304.8728942871094,65.65020751953125,112.6476593017578,-22.480539321899414
2501,-300.20550537109375,67.97642517089844,112.85334777832031,-9.776098251342773
2502,-283.1553039550781,83.92335510253906,127.99994659423828,-1.6156368255615234
2503,-292.0375671386719,84.10661315917969,126.59374237060548,0.5011466145515442
2504,-312.02734375,63.76155471801758,106.17388916015624,-12.210773468017578
2505,-300.9647216796875,68.94131469726561,113.72848510742188,-6.25311279296875
2506,-274.7592163085937,83.8747329711914,128.70304870605472,6.529865264892577
2507,-296.8919677734375,87.37528228759766,123.0894546508789,-6.204493999481201
2508,-311.33544921875,68.06617736816406,112.33724212646484,-27.649080276489254
2509,-297.10888671875,80.36296844482422,116.22673797607422,-15.70009994506836
2510,-284.77093505859375,93.55733489990234,134.34281921386722,-3.4556674957275386
2511,-293.1296081542969,86.3393325805664,133.23580932617188,-8.3511962890625
2512,-298.8479309082031,71.27501678466797,120.93901824951172,-18.288110733032227
2513,-301.23773193359375,72.90560913085938,120.94649505615234,-14.993258476257324
2514,-285.6311340332031,89.12555694580078,138.95037841796878,-1.009773015975952
2515,-296.58154296875,92.83553314208984,135.42738342285156,-2.457114219665528
2516,-305.8078918457031,70.97582244873047,118.3846664428711,-15.621562004089355
2517,-300.901123046875,83.03325653076172,116.61195373535156,-11.833043098449707
2518,-286.2893371582031,93.10106658935548,129.45477294921878,1.6941746473312378
2519,-289.86468505859375,87.64081573486328,132.21481323242188,-1.522139310836792
2520,-314.3498229980469,64.06074523925781,101.82064819335938,-25.79783058166504
2521,-308.5379943847656,71.51436614990234,113.69483184814452,-16.193767547607422
2522,-283.8771057128906,95.9957504272461,135.10575866699222,3.818437814712525
2523,-294.52459716796875,96.2986831665039,128.37019348144528,-2.3785762786865234
2524,-306.26416015625,81.61209869384766,119.72728729248048,-14.136821746826172
2525,-299.47998046875,75.84516906738281,122.73416900634766,-16.403202056884766
2526,-286.12103271484375,97.71610260009766,136.336181640625,1.41742205619812
2527,-288.8399658203125,90.50931549072266,132.51400756835938,1.922308564186096
2528,-307.344970703125,72.72235107421875,113.09644317626952,-19.09218978881836
2529,-292.79302978515625,88.53465270996094,123.21661376953124,-10.497899055480957
2530,-296.5927734375,101.47096252441406,140.9699249267578,-2.31125807762146
2531,-285.6834716796875,86.55250549316406,140.37153625488278,-7.124509334564209
2532,-301.1105651855469,72.23242950439453,115.95746612548828,-22.92184638977051
2533,-302.8945007324219,70.12686157226561,121.4588623046875,-16.51165771484375
2534,-283.1029357910156,89.9745101928711,138.45297241210938,-1.922308564186096
2535,-283.8284912109375,89.4284896850586,135.83877563476562,-4.0129127502441415
2536,-293.2530212402344,70.5831298828125,119.5739517211914,-11.264578819274902
2537,-289.9282531738281,81.48867797851562,120.93527221679688,-8.396075248718263
2538,-273.95889282226557,101.03713989257812,138.58760070800778,1.8400307893753047
2539,-294.34881591796875,76.5220947265625,123.0071792602539,-7.042231559753418
2540,-309.37200927734375,67.40047454833984,109.76793670654295,-14.593090057373047
2541,-308.2762145996094,82.53585052490234,114.60736083984376,-11.81434440612793
2542,-282.3736572265625,99.67955017089844,133.93142700195312,1.4735206365585327
2543,-286.97747802734375,93.76303100585938,119.37947845458984,-7.842570304870605
2544,-302.3335266113281,76.6455078125,103.74669647216795,-26.097021102905273
2545,-304.91778564453125,85.79704284667969,114.633544921875,-18.336729049682614
2546,-281.5359191894531,104.6648406982422,142.45840454101562,0.938714861869812
2547,-298.99005126953125,101.18672943115234,131.44439697265622,-6.462547302246094
2548,-306.6306457519531,81.14834594726562,117.50204467773438,-20.30765724182129
2549,-291.0726623535156,88.51595306396484,131.44065856933594,-11.889142036437988
2550,-274.53109741210943,105.91770935058594,146.8153839111328,-2.475813865661621
2551,-283.5105895996094,95.30387115478516,140.31918334960938,-6.858976364135742
2552,-306.26416015625,71.46200561523438,120.2546157836914,-15.516844749450685
2553,-305.1907958984375,79.1699447631836,126.42170715332031,-7.4124817848205575
2554,-292.8902587890625,104.62370300292969,138.44174194335938,4.8843092918396
2555,-294.5283508300781,86.94145202636719,129.86614990234378,-5.258299350738525
2556,-314.2750244140625,83.27635192871094,107.18366241455078,-14.66414737701416
2557,-307.4833679199219,86.49266815185547,114.98509216308594,-7.195567607879639
2558,-283.622802734375,96.00697326660156,134.87014770507812,4.446741104125977
2559,-280.6832275390625,89.62296295166016,128.93865966796878,-2.1579222679138184
2560,-307.6927795410156,73.2309799194336,113.20490264892578,-17.270858764648438
2561,-293.5185546875,75.78907012939453,120.71088409423828,-20.00098419189453
2562,-274.09725952148443,83.72139739990234,139.15232849121094,-4.996506214141847
2563,-286.3977966308594,76.17802429199219,125.77096557617188,-12.573543548583984
2564,-299.5173645019531,73.171142578125,107.5688705444336,-27.794937133789066
2565,-301.5406494140625,74.30807495117188,111.20779418945312,-20.79010391235352
2566,-282.6953125,94.65686798095705,132.74214172363278,-5.172281742095947
2567,-283.54052734375,94.17816162109376,126.70967864990234,-15.70009994506836
2568,-301.2601623535156,74.06497955322266,116.48479461669922,-27.615421295166016
2569,-293.4886474609375,87.9848861694336,131.56781005859378,-13.882508277893065
2570,-282.4970703125,100.86510467529295,147.4773406982422,-4.81325101852417
2571,-278.42807006835943,90.96558380126952,144.75843811035156,-2.468333959579468
2572,-304.9664001464844,70.65792846679688,123.11563873291016,-14.776344299316404
2573,-298.1784973144531,77.12047576904297,127.95507049560548,-12.251912117004395
2574,-292.602294921875,89.45840454101562,141.61317443847656,0.4151288866996765
2575,-291.3307189941406,87.31918334960938,135.150634765625,2.662808656692505
2576,-300.067138671875,71.23013305664062,114.92151641845705,-15.812296867370605
2577,-306.5221862792969,66.29346466064453,112.71123504638672,-12.281831741333008
2578,-283.622802734375,81.50737762451172,134.8514404296875,2.1803617477416988
2579,-293.9224853515625,81.26802825927734,126.9041519165039,-1.0135128498077393
2580,-309.5028991699219,64.37863922119139,106.4655990600586,-16.837030410766598
2581,-291.0427551269531,69.24798583984375,114.84297943115234,-12.75679874420166
2582,-287.4711608886719,95.74891662597656,132.24473571777344,-0.13089649379253387
2583,-288.6155700683594,91.56023406982422,122.44619750976562,-9.200154304504396
2584,-310.6996765136719,73.70594787597656,104.89110565185548,-27.065656661987305
2585,-295.6353454589844,80.57240295410156,113.97905731201172,-25.33782196044922
2586,-284.445556640625,88.47481536865234,123.51206970214844,-8.164201736450195
2587,-278.58889770507807,82.75650787353516,124.64899444580078,-11.395475387573242
2588,-301.1629333496094,69.71173858642578,113.41807556152344,-18.29932975769043
2589,-297.7297058105469,78.59025573730469,124.03565216064452,-8.343716621398926
2590,-277.69879150390625,91.0142059326172,142.98947143554688,9.39836883544922
2591,-281.6929931640625,83.96075439453125,141.0858612060547,4.155028820037842
2592,-307.6665954589844,62.57600784301758,119.98534393310548,-12.74557876586914
2593,-298.2757263183594,79.7159652709961,127.19213104248048,-5.026425361633301
2594,-286.076171875,89.11807250976562,139.02517700195312,2.075644493103028
2595,-287.332763671875,76.64176940917969,128.5721435546875,-5.722046852111816
2596,-302.3933410644531,70.20914459228516,111.64910125732422,-26.99833869934082
2597,-295.7849426269531,69.25547027587889,114.46150970458984,-24.94887351989746
2598,-286.55487060546875,80.98753356933594,125.09030151367188,-14.72024631500244
2599,-284.38946533203125,78.14147186279297,128.29539489746094,-7.008572578430176
2600,-301.83984375,70.74768829345703,108.05506134033205,-17.816883087158203
2601,-299.90631103515625,67.14616394042969,113.272216796875,-15.161554336547852
2602,-292.3255310058594,89.37612915039062,128.83393859863278,-2.63288950920105
2603,-297.1836853027344,85.60256958007812,124.77989196777344,-3.7099807262420654
2604,-310.5799865722656,76.51087188720703,100.81835174560548,-14.047063827514648
2605,-307.1841735839844,70.83744812011719,108.04757690429688,-12.360369682312012
2606,-288.09197998046875,88.87498474121094,129.15931701660156,0.5310658216476439
2607,-279.89410400390625,85.49411010742188,129.53330993652344,-1.7278337478637695
2608,-312.9959716796875,74.5736083984375,113.26100158691406,-11.668487548828125
2609,-302.9057312011719,73.37310028076172,121.1222686767578,-9.413328170776367
2610,-283.2338562011719,100.53973388671876,138.46792602539062,8.164201736450195
2611,-289.04937744140625,93.81165313720705,132.24099731445312,-2.9171218872070312
2612,-311.3803405761719,73.20106506347656,116.7017059326172,-16.107749938964847
2613,-304.24835205078125,83.47456359863281,128.38516235351562,-12.738099098205565
2614,-283.3984069824219,96.25006866455078,138.53898620605472,-2.520692586898804
2615,-288.5594482421875,88.68051147460938,132.94035339355472,-12.049957275390625
2616,-300.6243896484375,74.87279510498047,117.3636703491211,-24.95261192321777
2617,-282.7252197265625,82.71162414550781,126.8031768798828,-13.250465393066404
2618,-292.0263366699219,92.93651580810548,131.90066528320312,-5.381716251373291
2619,-280.48126220703125,85.63249206542969,133.17596435546878,-4.94414758682251
2620,-305.3179626464844,71.53680419921875,115.00005340576172,-16.6612548828125
2621,-296.8882141113281,73.73960876464844,120.15363311767578,-12.715660095214846
2622,-293.8514099121094,80.3592300415039,125.89437866210938,3.893235921859741
2623,-291.2185363769531,81.42510223388672,127.85408782958984,7.5396385192871085
2624,-311.30926513671875,70.73646545410156,107.0265884399414,-7.442400932312013
2625,-305.2431640625,70.78508758544922,106.21502685546876,-8.811203956604004
2626,-272.69479370117193,97.85822296142578,137.40205383300778,7.472320079803468
2627,-295.6353454589844,83.24269104003906,127.61100006103516,2.161662101745605
2628,-299.375244140625,66.67119598388672,107.26968383789062,-16.44808006286621
2629,-306.9635009765625,78.11903381347656,114.54004669189452,-11.496452331542967
2630,-281.9136657714844,90.13533020019531,140.14714050292972,-1.1032705307006836
2631,-288.0657958984375,95.1692352294922,136.35113525390622,-5.112443447113037
2632,-303.3058776855469,75.54972076416016,113.39937591552734,-27.14419364929199
2633,-305.4825134277344,79.7159652709961,118.58287811279295,-16.212467193603516
2634,-279.39669799804693,98.99515533447266,143.81224060058594,-6.5672645568847665
2635,-288.7763671875,88.74408721923828,136.63163757324222,-7.401261806488037
2636,-297.69976806640625,75.89379119873047,124.5517578125,-20.65920829772949
2637,-292.88653564453125,76.08826446533203,123.74019622802734,-17.027765274047848
2638,-273.14358520507807,92.9065933227539,141.0334930419922,-0.8863562941551208
2639,-291.9178771972656,83.39977264404297,133.22457885742188,-1.469780683517456
2640,-304.65972900390625,68.91887664794922,112.22130584716795,-12.753058433532715
2641,-304.1473693847656,73.08138275146484,115.5011978149414,-9.645201683044434
2642,-288.013427734375,93.66205596923828,140.29673767089844,11.167341232299805
2643,-283.0356140136719,84.98922729492188,139.67218017578122,8.444694519042969
2644,-308.5080871582031,62.90885543823242,116.14446258544922,-7.345163345336914
2645,-301.1666564941406,69.19562530517578,120.56128692626952,-3.0031397342681885
2646,-287.695556640625,92.37552642822266,136.31373596191406,15.673920631408693
2647,-294.0758056640625,79.99272155761719,127.78677368164062,5.0413851737976065
2648,-312.5546569824219,68.24569702148439,112.29610443115234,-16.762231826782227
2649,-304.1473693847656,70.22409820556639,121.57479858398438,-17.139961242675778
2650,-281.9510498046875,86.61234283447266,145.30445861816406,-4.3607234954833975
2651,-291.6000061035156,89.74263763427734,140.73056030273438,-7.270365715026855
2652,-291.4578857421875,71.50688934326172,127.60725402832031,-22.24118423461914
2653,-304.40167236328125,78.18260955810547,129.12191772460938,-19.66813468933105
2654,-280.07736206054693,89.94085693359375,148.7601318359375,-7.696713924407959
2655,-288.4958801269531,77.39723205566406,136.10430908203122,-12.431427001953125
2656,-295.9644775390625,70.5008544921875,125.6924285888672,-21.089296340942386
2657,-299.3341064453125,72.60641479492188,120.41168975830078,-11.21969985961914
2658,-289.8833923339844,91.88560485839844,131.42942810058594,8.564371109008789
2659,-288.79132080078125,88.48603057861328,126.41049194335938,8.227780342102049
2660,-302.7561340332031,62.32543182373047,104.28897857666016,-8.900961875915527
2661,-314.57421875,71.7051010131836,109.62581634521484,-2.57305121421814
2662,-290.2648620605469,92.83179473876952,130.0980224609375,12.289311408996582
2663,-281.37136840820307,82.81260681152344,126.57504272460938,4.992766380310059
2664,-298.96759033203125,71.3236312866211,115.85275268554688,-5.77814531326294
2665,-305.4488525390625,76.563232421875,112.98050689697266,-8.358675956726074
2666,-280.29428100585943,87.36405944824219,133.00767517089844,5.437814712524414
2667,-287.3103332519531,93.23196411132812,131.60894775390622,2.142962694168091
2668,-313.6654052734375,65.51182556152344,110.12322235107422,-19.342761993408203
2669,-311.4476623535156,78.5528564453125,122.8052215576172,-18.647140502929688
2670,-286.9176330566406,95.81623840332031,146.75180053710938,-7.917368412017822
2671,-288.3350524902344,96.2126693725586,140.0274658203125,-11.440354347229006
2672,-307.861083984375,68.62716674804689,119.82452392578124,-20.947179794311523
2673,-293.716796875,71.22639465332031,129.5931396484375,-18.003877639770508
2674,-282.5531921386719,95.67037963867188,141.1681365966797,-2.7002077102661133
2675,-289.03070068359375,82.58073425292969,133.0263671875,-8.197860717773438
2676,-309.99658203125,67.64730834960939,116.0958480834961,-13.628195762634276
2677,-294.9808654785156,67.46405792236328,121.99740600585938,-4.2223472595214835
2678,-291.1773986816406,78.7510757446289,131.30601501464844,9.129096031188963
2679,-291.17364501953125,71.64900207519531,123.77759552001952,1.8101115226745603
2680,-308.85589599609375,59.83465957641602,104.14312744140624,-7.098330020904541
2681,-301.33868408203125,71.21891784667969,110.7964096069336,2.83484411239624
2682,-299.43133544921875,83.55684661865234,124.54053497314452,11.881662368774414
2683,-300.34014892578125,77.05316162109375,122.3676528930664,8.878522872924805
2684,-302.6214904785156,67.16112518310547,108.68710327148438,-11.384255409240724
2685,-305.79290771484375,67.67723083496094,112.18765258789062,-6.761739253997803
2686,-286.00885009765625,89.16295623779297,133.23954772949222,4.330804347991943
2687,-278.4916381835937,92.38674926757812,134.04362487792972,-4.188687801361084
2688,-303.4966125488281,68.75431823730469,113.8107681274414,-21.545562744140625
2689,-288.06951904296875,77.81983947753906,122.83514404296876,-19.45121955871582
2690,-281.9921875,104.29459381103516,138.60630798339844,-9.046817779541016
2691,-287.27667236328125,98.38555145263672,132.7384033203125,-8.381115913391112
2692,-299.5211181640625,81.7803955078125,118.9119873046875,-19.039831161499023
2693,-306.41375732421875,86.26827239990234,121.9600067138672,-15.344809532165527
2694,-285.5002136230469,92.74951934814452,131.56033325195312,-1.3538438081741333
2695,-291.570068359375,102.05065155029295,131.56781005859378,-5.434074401855469
2696,-307.767578125,70.6429672241211,110.8637237548828,-16.89312744140625
2697,-309.42437744140625,74.5549087524414,114.6559829711914,-12.371588706970215
2698,-281.7004699707031,100.44248962402344,137.36839294433594,13.998445510864258
2699,-292.5835876464844,90.40086364746094,130.27006530761722,-0.7105810046195984
2700,-304.97015380859375,57.95722961425781,109.88387298583984,-8.381115913391112
2701,-306.9747314453125,69.50604248046875,110.7590103149414,-9.813497543334961
2702,-279.46029663085943,87.93252563476562,136.36610412597656,11.698407173156738
2703,-284.6549987792969,77.20275115966797,129.716552734375,-1.6268564462661743
2704,-300.1419372558594,57.231689453125,120.86795806884766,-11.926541328430176
2705,-300.923583984375,74.2519760131836,128.51979064941406,-10.408141136169434
2706,-276.7750244140625,94.48109436035156,145.6298370361328,3.687541246414185
2707,-295.6877136230469,85.47167205810547,138.8419189453125,-5.471473693847656
2708,-299.6258239746094,81.1595687866211,123.62425994873048,-20.326356887817386
2709,-297.344482421875,77.83480072021484,127.68205261230469,-15.606602668762207
2710,-281.38632202148443,98.31075286865234,142.42848205566406,-3.4668872356414795
2711,-293.6008605957031,94.4923095703125,135.16558837890622,-9.110396385192873
2712,-296.8769836425781,80.3554916381836,132.54393005371094,-20.95465850830078
2713,-301.9819641113281,82.25910186767578,132.46163940429688,-12.68574047088623
2714,-285.6947021484375,99.451416015625,141.98342895507812,-3.736160039901733
2715,-294.5956726074219,87.41641998291016,134.64949035644528,-3.777298927307129
2716,-309.9516906738281,70.75516510009766,119.86940002441406,-14.626749038696287
2717,-293.7467041015625,72.0042953491211,126.41796875,-8.130542755126951
2718,-287.12335205078125,87.05364990234375,140.17706298828122,1.4062024354934692
2719,-287.19439697265625,78.7510757446289,135.80885314941406,-1.9073489904403689
2720,-301.6341552734375,60.2647476196289,114.92151641845705,-16.156368255615234
2721,-298.97882080078125,62.04119873046875,121.00259399414062,-11.548810958862305
2722,-289.27752685546875,86.48892974853516,136.20903015136722,0.15333589911460874
2723,-292.0525207519531,83.84855651855469,135.33389282226562,-2.875982999801636
2724,-302.6214904785156,53.52544784545898,118.85962677001952,-14.409834861755373
2725,-299.0237121582031,70.01466369628906,122.95481872558594,-14.237798690795898
2726,-290.7697448730469,94.79524230957031,133.448974609375,-0.6769219040870667
2727,-279.4864501953125,80.22459411621094,134.32037353515622,-7.105809688568115
2728,-310.3069763183594,77.05690002441406,114.633544921875,-17.15492057800293
2729,-309.0877685546875,78.60521697998047,112.46066284179688,-22.544116973876953
2730,-281.9735107421875,94.38011169433594,138.03410339355472,-2.2738592624664307
2731,-286.7044677734375,97.19252014160156,137.79100036621094,-9.072997093200684
2732,-299.7193298339844,75.26174926757812,116.16690063476562,-23.58754920959473
2733,-298.0289001464844,86.1598129272461,126.9602508544922,-19.04357147216797
2734,-276.6217041015625,98.02278137207031,141.86001586914062,-2.1018238067626958
2735,-280.71688842773443,91.43307495117188,136.85603332519528,-7.992166042327881
2736,-297.4155578613281,65.93069458007811,120.55006408691406,-15.18399429321289
2737,-294.30767822265625,69.86507415771484,129.53704833984378,-9.641462326049805
2738,-277.66513061523443,95.1093978881836,144.25355529785156,3.451927661895752
2739,-282.15673828125,88.49351501464844,136.99440002441406,0.23561370372772214
2740,-307.7264404296875,75.38890075683594,117.41229248046876,-18.28437042236328
2741,-300.747802734375,69.56587982177734,116.46609497070312,-14.432273864746096
2742,-276.37112426757807,87.62211608886719,137.5740966796875,2.04946517944336
2743,-274.02993774414057,78.94928741455078,134.67941284179688,-6.70564079284668
2744,-304.7232971191406,66.54403686523439,108.08123779296876,-23.572589874267575
2745,-306.77276611328125,79.77580261230469,113.91921997070312,-16.227426528930664
2746,-288.1405944824219,99.6720733642578,135.92105102539062,1.847510576248169
2747,-291.8206481933594,92.06885528564452,117.344970703125,-8.272658348083496
2748,-311.14471435546875,70.04832458496094,103.2492904663086,-21.97565269470215
2749,-306.2304992675781,75.05231475830078,108.92271423339844,-14.245279312133787
2750,-278.70855712890625,90.5130615234375,131.94927978515622,0.77415931224823
2751,-288.3126220703125,85.9354248046875,123.62800598144531,-2.3785762786865234
2752,-296.3982849121094,66.046630859375,109.96240997314452,-13.261685371398926
2753,-303.8481750488281,73.04024505615234,114.60362243652344,-7.083370685577393
2754,-280.60470581054693,85.28467559814453,130.32991027832028,1.4922200441360474
2755,-291.4765930175781,82.2254409790039,131.12275695800778,-6.058638095855713
2756,-294.71533203125,71.05809783935547,116.02852630615234,-15.68887996673584
2757,-295.1416931152344,71.97811126708984,121.06243133544922,-20.389934539794922
2758,-279.12368774414057,92.43162536621094,143.9618377685547,-2.879723072052002
2759,-282.53448486328125,83.79994201660156,140.60714721679688,1.1182301044464111
2760,-304.8055725097656,67.02275085449219,120.32941436767578,-21.863454818725586
2761,-297.9391174316406,71.73127746582031,130.00079345703122,-9.630242347717283
2762,-285.23468017578125,85.96160125732422,142.04701232910156,1.5370988845825195
2763,-288.9446716308594,83.4483871459961,137.3983154296875,-4.629996299743652
2764,-307.4609069824219,79.0914077758789,119.63752746582031,-15.352289199829102
2765,-290.6837158203125,59.89449691772461,119.06906127929688,-14.978299140930176
2766,-296.1065673828125,86.42908477783203,136.34365844726562,-2.7338669300079346
2767,-298.0849914550781,91.63128662109376,126.48528289794922,-3.5229856967926025
2768,-304.7232971191406,73.22350311279297,117.2813949584961,-14.60430908203125
2769,-305.5946960449219,76.20793914794922,118.0069351196289,-7.752812385559082
2770,-281.405029296875,100.89875793457031,135.31144714355472,5.033905506134033
2771,-289.8459777832031,88.20179748535156,131.51171875,-3.923155069351196
2772,-306.87750244140625,61.20346450805664,111.08063507080078,-17.914121627807614
2773,-296.087890625,70.47093200683594,124.02069091796876,-13.871289253234865
2774,-280.75430297851557,95.00841522216795,138.69606018066406,-3.0928971767425537
2775,-283.7013244628906,92.55878448486328,138.44174194335938,-8.788764953613281
2776,-302.8009948730469,76.80258178710938,122.9884796142578,-19.802770614624023
2777,-298.634765625,67.13494110107422,131.65008544921878,-14.069503784179688
2778,-286.334228515625,85.16126251220703,146.5909881591797,6.290511608123778
2779,-282.4671630859375,95.02711486816406,142.2714080810547,2.5917506217956543
2780,-312.4088134765625,69.52848052978516,116.87374114990234,-14.480892181396484
2781,-306.5072326660156,76.3238754272461,123.35872650146484,-8.272658348083496
2782,-289.13916015625,95.12061309814452,139.04386901855472,10.07903003692627
2783,-294.8050842285156,84.9144287109375,135.89112854003906,10.89806842803955
2784,-315.00054931640625,66.73477172851561,111.79496002197266,-8.16046142578125
2785,-299.5098876953125,73.94904327392578,120.13119506835938,3.4743671417236333
2786,-287.9423828125,86.25331115722656,130.8609619140625,6.447587490081787
2787,-293.88507080078125,84.28986358642578,128.89378356933594,9.690080642700195
2788,-294.4460754394531,65.13409423828125,105.36981201171876,-13.964786529541016
2789,-299.880126953125,68.60472106933594,111.77626037597656,-10.868148803710938
2790,-279.385498046875,89.25645446777344,127.15473175048828,1.2491265535354614
2791,-278.03164672851557,92.1025161743164,130.45332336425778,-5.239599704742432
2792,-297.6249694824219,62.68820190429688,118.19393157958984,-17.41671371459961
2793,-294.2628173828125,74.2145767211914,123.10441589355469,-14.810004234313965
2794,-275.17062377929693,91.1189193725586,143.10914611816406,0.4151288866996765
2795,-284.5016784667969,95.42728424072266,138.68484497070312,0.03739900141954422
2796,-299.44256591796875,65.78858184814453,122.89498138427734,-23.209819793701172
2797,-292.8940124511719,68.06243896484375,128.60206604003906,-16.82954978942871
2798,-280.88143920898443,86.21965026855469,140.84649658203125,-4.686094760894775
2799,-276.662841796875,78.63513946533203,133.80801391601562,-3.0592381954193115
2800,-297.8418884277344,60.56393814086914,123.8523941040039,-16.24986457824707
2801,-298.16351318359375,75.23556518554688,117.81246185302734,-11.073843955993652
2802,-277.55294799804693,86.65348052978516,134.02491760253906,0.17203539609909058
2803,-296.29730224609375,89.07319641113281,127.22953033447266,-3.5491650104522705
2804,-307.7862854003906,59.03805923461914,112.25122833251952,-16.866949081420902
2805,-300.6243896484375,72.75975036621094,114.52508544921876,-14.836183547973633
2806,-294.21044921875,98.52766418457031,130.96568298339844,4.1475491523742685
2807,-290.9193420410156,91.24234008789062,125.86446380615234,0.5834243893623352
2808,-309.7796630859375,70.84866333007812,108.70206451416016,-13.19810676574707
2809,-301.2863464355469,72.79341125488281,117.53196716308594,-10.886848449707033
2810,-278.18124389648443,86.05509948730469,136.51570129394528,-0.2094343900680542
2811,-289.9132995605469,83.94953155517578,132.70100402832028,-3.762339353561402
2812,-299.8689270019531,62.02624130249024,115.66575622558594,-18.288110733032227
2813,-297.2098388671875,72.62511444091797,125.46803283691406,-11.10376262664795
2814,-283.1852111816406,84.12718200683594,139.43095397949222,4.882439613342285
2815,-288.2939147949219,83.33432006835938,143.4139404296875,-2.69833779335022
2816,-296.4169921875,70.08011627197266,132.88986206054688,-14.520161628723145
2817,-296.71990966796875,67.42478942871094,133.49198913574222,-10.623186111450195
2818,-278.11764526367193,88.19245147705078,153.36581420898438,6.445717811584473
2819,-283.50311279296875,88.33082580566406,145.3250274658203,-1.5202692747116089
2820,-295.3436279296875,72.48487091064453,126.1056900024414,-22.12337875366211
2821,-304.8504638671875,71.2357406616211,121.55796813964844,-11.801254272460938
2822,-287.4300231933594,93.25253295898438,137.78913879394528,-1.303355097770691
2823,-283.2637634277344,94.8195571899414,132.55326843261722,-3.996083021163941
2824,-300.5196533203125,71.4339599609375,111.3891830444336,-18.162824630737305
2825,-301.7351379394531,71.29558563232422,111.16104888916016,-12.85590648651123
2826,-288.8997802734375,91.39754486083984,132.1456298828125,8.166071891784668
2827,-277.94561767578125,90.86273956298828,136.91773986816406,1.2360368967056274
2828,-310.2621154785156,68.15406799316406,108.29254150390624,-15.600992202758787
2829,-305.7704772949219,81.38209533691406,109.54167175292969,-11.87979221343994
2830,-280.30923461914057,97.01487731933594,137.32913208007812,9.396498680114746
2831,-292.5948181152344,87.0106430053711,125.48486328125,-2.1410927772521973
2832,-304.8691711425781,81.15769958496094,109.44068908691406,-16.36393165588379
2833,-302.8384094238281,95.30947875976562,124.16468048095705,-8.966409683227539
2834,-289.7562255859375,108.72450256347656,138.26409912109378,-3.0162293910980225
2835,-289.77117919921875,105.16785430908205,140.20510864257812,-5.559361457824707
2836,-303.5078430175781,89.44532012939453,127.72132110595705,-16.15823745727539
2837,-302.57659912109375,91.6331558227539,130.26071166992188,-9.763009071350098
2838,-292.62847900390625,103.54100036621094,144.18435668945312,2.4814236164093018
2839,-279.867919921875,105.77745819091795,142.17977905273438,5.0806541442871085
2840,-322.285888671875,83.42034149169922,117.51139831542969,-18.020708084106445
2841,-293.4774169921875,92.38861846923828,135.07771301269528,-5.701477527618407
2842,-291.3681335449219,98.74270629882812,148.23468017578125,9.557313919067383
2843,-288.3126220703125,93.94441986083984,136.79806518554688,3.872666358947754
2844,-301.4621276855469,85.64183807373047,124.8228988647461,-6.400838851928711
2845,-310.26959228515625,87.00690460205078,124.37411499023438,-6.50929594039917
2846,-282.4297790527344,93.4956283569336,142.3218994140625,5.091873645782472
2847,-290.0778503417969,96.59974670410156,130.93763732910156,-0.9106656312942504
2848,-297.5651550292969,66.96477508544922,116.33706665039062,-17.64297866821289
2849,-310.3630676269531,79.23912811279297,117.91156768798828,-11.434743881225586
2850,-286.5286865234375,95.7657470703125,134.07167053222656,6.70003080368042
2851,-288.64923095703125,96.98495483398438,133.70516967773438,6.584094047546388
2852,-307.7713317871094,76.12379455566406,116.84195709228516,-15.600992202758787
2853,-301.9258728027344,78.52107238769531,121.47195434570312,-6.887025833129883
2854,-288.1181640625,101.39804077148438,136.50260925292972,-0.17390534281730652
2855,-286.5810546875,97.80773162841795,146.26748657226562,0.2561831474304199
2856,-304.30816650390625,82.84065246582031,124.14224243164062,-14.434144020080565
2857,-304.6372985839844,87.94935607910156,126.38243865966795,-9.40397834777832
2858,-295.2015380859375,107.11634826660156,144.34518432617188,-0.626433253288269
2859,-291.30828857421875,99.8422393798828,144.41622924804688,1.0640015602111816
2860,-317.685791015625,78.12464141845703,124.37411499023438,-12.34354019165039
2861,-310.9053649902344,94.04165649414062,127.20521545410156,-4.119499683380127
2862,-286.4538879394531,115.57225799560548,151.26025390625,12.39215850830078
2863,-300.5907287597656,96.67454528808594,141.65992736816406,6.827187538146973
2864,-308.4407653808594,85.97843170166016,121.80106353759766,-9.018768310546877
2865,-299.5098876953125,90.72810363769531,122.96043395996094,-1.9129588603973389
2866,-284.1912536621094,97.1457748413086,135.09266662597656,3.3789997100830083
2867,-296.21502685546875,95.48151397705078,135.578857421875,5.346187114715576
2868,-309.5403137207031,81.77851867675781,118.41645050048828,-11.812474250793455
2869,-307.3786315917969,80.42467498779297,115.85462188720705,-8.248349189758299
2870,-286.0986022949219,87.84089660644531,139.36363220214844,5.076914310455322
2871,-291.4129943847656,104.91354370117188,138.30523681640622,1.4791303873062134
2872,-305.00006103515625,85.97469329833984,119.7665557861328,-17.58687973022461
2873,-309.98907470703125,74.92328643798828,111.61731719970705,-22.190696716308594
2874,-292.1871643066406,102.24699401855469,134.82339477539062,-0.6713120341300964
2875,-283.6826171875,105.62786102294922,136.90277099609378,-4.785202026367188
2876,-306.1482238769531,80.31248474121094,120.12932586669922,-13.308433532714846
2877,-314.1927490234375,84.09352111816406,118.07986450195312,-18.245101928710934
2878,-293.3053894042969,113.95661926269531,134.84957885742188,-1.797021985054016
2879,-298.9937744140625,101.1025848388672,131.50984191894528,-11.266448974609375
2880,-320.1167297363281,83.41285705566406,115.21884155273438,-18.14412498474121
2881,-318.9573669433594,82.13007354736328,116.72602081298828,-20.317007064819336
2882,-298.55621337890625,106.74609375,137.1458740234375,-1.4230319261550903
2883,-289.8572082519531,103.68311309814452,134.02679443359378,4.2990150451660165
2884,-321.5304260253906,82.60130310058594,113.35636901855469,-14.2022705078125
2885,-307.4422302246094,81.18387603759766,113.95475006103516,-10.604486465454102
2886,-297.10137939453125,101.9477996826172,128.20750427246094,1.4791303873062134
2887,-297.1163635253906,97.79651641845705,126.17300415039062,-4.882439613342285
2888,-313.0744934082031,77.1335678100586,109.71744537353516,-13.424370765686035
2889,-314.18524169921875,78.20317840576172,108.21026611328124,-10.234235763549805
2890,-286.2108154296875,100.07037353515624,131.94740295410156,2.859153509140014
2891,-297.860595703125,98.49961853027344,122.45928192138672,-7.515328884124756
2892,-314.8696594238281,80.1479263305664,108.31124114990234,-19.266094207763672
2893,-312.5920715332031,79.0446548461914,102.58545684814452,-20.922870635986328
2894,-295.9345397949219,108.8927993774414,125.11835479736328,2.724517107009888
2895,-289.87591552734375,99.56922912597656,125.64942169189452,1.7409234046936035
2896,-310.2807922363281,73.3188705444336,110.16997528076172,-15.320500373840332
2897,-309.211181640625,86.53193664550781,111.18722534179688,-9.433897972106934
2898,-296.89569091796875,103.14083099365234,133.0731201171875,7.406871795654298
2899,-285.8143615722656,99.34483337402344,136.17349243164062,3.2742824554443364
2900,-298.6871032714844,86.07566833496094,124.28435516357422,-8.386725425720215
2901,-304.2333679199219,85.93729400634766,118.02750396728516,-21.82418632507324
2902,-289.78240966796875,85.970947265625,135.67982482910156,-5.548141479492188
2903,-284.1501159667969,95.33566284179688,137.85270690917972,-2.167272090911865
2904,-308.30987548828125,76.39680480957031,114.97200775146484,-20.163671493530273
2905,-317.9251403808594,74.71759033203125,111.6135711669922,-20.395544052124023
2906,-295.11175537109375,102.27691650390624,127.8933563232422,1.5539283752441406
2907,-291.3943176269531,105.08557891845705,137.29173278808594,3.498676300048828
2908,-311.19708251953125,65.99988555908203,117.30944061279295,-10.410011291503906
2909,-307.11309814453125,81.05672454833984,117.17854309082031,-5.679038047790527
2910,-288.4771728515625,95.60867309570312,132.08578491210938,8.760715484619139
2911,-293.2530212402344,90.61216735839844,129.6810302734375,2.8479337692260738
2912,-305.56103515625,63.78586196899414,113.82759857177734,-9.02250862121582
2913,-313.3250732421875,80.87720489501953,108.45336151123048,-10.163178443908693
2914,-287.5122985839844,102.5274887084961,133.59671020507812,1.509049654006958
2915,-296.4955139160156,96.95503997802734,135.6199951171875,0.37585994601249695
2916,-299.5098876953125,77.84414672851562,120.04705047607422,-9.598453521728516
2917,-301.9856872558594,74.17530822753906,115.13655853271484,-14.022754669189453
2918,-293.86639404296875,83.44651794433594,139.93583679199222,2.9638707637786865
2919,-292.2095947265625,88.18497467041016,138.95597839355472,3.4051790237426762
2920,-313.02215576171875,73.35253143310547,121.14657592773438,-8.311927795410156
2921,-306.006103515625,82.47040557861328,124.2806167602539,-7.376952648162843
2922,-285.23095703125,86.99568176269531,141.91798400878906,5.204070568084717
2923,-287.5272521972656,90.8253402709961,147.11643981933594,4.979676723480225
2924,-302.23626708984375,78.72676086425781,128.74606323242188,-6.973043441772461
2925,-307.34124755859375,59.34660339355469,121.50186920166016,-7.605086326599121
2926,-286.1883544921875,78.341552734375,142.2657928466797,4.953497409820557
2927,-295.13421630859375,84.99483489990234,137.65449523925778,-1.0976606607437134
2928,-301.94830322265625,66.41875457763672,115.14029693603516,-8.517621994018555
2929,-310.1311950683594,64.55254364013672,117.67221069335938,-7.941677570343018
2930,-292.5274963378906,94.96914672851562,128.56280517578122,5.776275634765625
2931,-301.0395202636719,84.445068359375,120.9259262084961,-2.485163450241089
2932,-309.551513671875,65.54361724853516,112.52236938476562,-6.89076566696167
2933,-303.8518981933594,64.78067779541016,113.45360565185548,-4.6991844177246085
2934,-286.74560546875,93.45075225830078,131.19195556640622,4.837560653686523
2935,-277.29489135742193,77.18218231201172,130.93763732910156,4.706664085388184
2936,-308.2350769042969,55.84231567382813,107.98960876464844,-16.487348556518555
2937,-302.2250671386719,73.24781036376953,114.72891235351562,-12.175244331359865
2938,-278.08773803710943,83.1585464477539,133.24140930175778,-2.275729179382324
2939,-286.7530822753906,87.18641662597656,132.81880187988278,-2.8180146217346187
2940,-307.4908447265625,70.86175537109375,120.6042938232422,-15.593512535095215
2941,-304.8055725097656,83.2370834350586,119.19061279296876,-17.77761459350586
2942,-294.2628173828125,94.96540832519531,135.5264892578125,-4.7029242515563965
2943,-292.5723876953125,92.17918395996094,130.66836547851562,-4.534628868103027
2944,-313.94964599609375,75.94427490234375,122.85945129394531,-13.850719451904295
2945,-304.1623229980469,80.3087387084961,123.12498474121094,-11.917191505432127
2946,-294.7901306152344,95.302001953125,133.60044860839844,3.86518669128418
2947,-295.478271484375,91.65185546875,133.31620788574222,7.8294806480407715
2948,-306.45489501953125,75.51792907714844,108.91710662841795,-6.584094047546388
2949,-303.4816589355469,71.92388916015625,118.09856414794922,-3.5285956859588623
2950,-293.1034240722656,79.81133270263672,126.07576751708984,6.12782621383667
2951,-278.682373046875,82.5564193725586,125.95235443115234,-1.0976606607437134
2952,-308.61279296875,71.25070190429688,107.3164291381836,-11.778815269470215
2953,-304.2633056640625,73.06829833984375,108.64783477783205,-14.355606079101562
2954,-285.23468017578125,88.1587905883789,127.33985137939452,1.1874182224273682
2955,-286.4538879394531,80.64159393310547,124.88648223876952,1.6025471687316897
2956,-303.7397155761719,62.914466857910156,106.71056365966795,-11.550681114196776
2957,-306.2753601074219,71.67330932617188,115.80599975585938,-8.670958518981934
2958,-295.29876708984375,84.280517578125,129.06394958496094,-1.2285571098327637
2959,-292.19464111328125,80.2302017211914,126.62179565429688,-4.927318096160889
2960,-315.68121337890625,76.16867065429688,106.56471252441406,-17.732736587524414
2961,-313.76263427734375,76.00037384033203,113.7453155517578,-9.029988288879396
2962,-302.18017578125,95.91160583496094,130.156005859375,-4.7552828788757315
2963,-293.294189453125,99.42337036132812,135.04405212402344,-1.86434018611908
2964,-314.2675476074219,84.28799438476562,123.19230651855469,-11.184170722961426
2965,-302.18017578125,86.47957611083984,129.18736267089844,-8.95145034790039
2966,-289.62158203125,109.70809173583984,138.44735717773438,5.14049243927002
2967,-288.79132080078125,101.73088836669922,134.56907653808594,-0.7049711346626282
2968,-311.1260070800781,76.63616180419922,115.71998596191406,-10.279114723205566
2969,-310.9203186035156,82.30210876464844,116.3520278930664,-8.932750701904297
2970,-289.1241760253906,98.91848754882812,136.21089172363278,7.52280855178833
2971,-283.9593811035156,86.04574584960938,136.50634765625,7.178738117218018
2972,-304.9664001464844,71.09736633300781,113.89117431640624,-13.525348663330078
2973,-300.1307067871094,75.48052978515625,118.75678253173828,-10.518468856811523
2974,-293.32781982421875,90.51119232177734,125.63446044921876,2.859153509140014
2975,-293.2305908203125,96.25193786621094,125.63819885253906,2.9115121364593506
2976,-304.4203796386719,76.53144073486328,114.8635482788086,-12.811027526855467
2977,-305.9574890136719,76.78575897216797,116.38568878173828,-4.654305458068848
2978,-282.755126953125,95.02899169921876,129.66233825683594,3.3752596378326416
2979,-287.2430114746094,92.41854095458984,129.83810424804688,-2.249549865722656
2980,-305.66949462890625,69.01424407958984,112.00252532958984,-19.59894561767578
2981,-302.68505859375,66.47111511230469,112.76920318603516,-11.827433586120605
2982,-296.6675720214844,97.14202880859376,127.21643829345705,-3.498676300048828
2983,-294.8574523925781,93.8583984375,127.86344146728516,-3.3976991176605225
2984,-315.3894958496094,75.36833190917969,113.07213592529295,-10.361392974853516
2985,-308.2201232910156,81.12030029296875,112.3578109741211,-10.985956192016602
2986,-294.09075927734375,93.1365966796875,135.2796630859375,6.0343284606933585
2987,-292.3517150878906,98.7165298461914,135.75462341308594,3.9100654125213614
2988,-303.14508056640625,70.4316635131836,119.80021667480469,-11.14303207397461
2989,-306.3838195800781,76.50526428222656,116.68487548828124,-11.730195999145508
2990,-285.5525817871094,89.95394134521484,131.36024475097656,3.1994843482971187
2991,-287.22430419921875,89.11994934082031,128.88816833496094,1.318314790725708
2992,-299.68939208984375,71.99120330810547,114.99070739746094,-12.175244331359865
2993,-302.59906005859375,79.0857925415039,116.0490951538086,-11.341246604919435
2994,-285.8630065917969,88.09521484375,132.71409606933594,4.1269798278808585
2995,-292.7743225097656,95.49647521972656,133.39849853515622,1.509049654006958
2996,-307.03082275390625,74.76246643066406,117.33936309814452,-12.79980754852295
2997,-307.1617126464844,85.806396484375,120.40233612060548,-10.054720878601074
2998,-285.3207092285156,103.36896514892578,134.71493530273438,2.354267120361328
2999,-286.39031982421875,95.75453186035156,134.44192504882812,0.5441554188728333
3000,-310.21722412109375,80.82110595703125,117.68717193603516,-15.481315612792967
3001,-308.1565246582031,81.37834930419922,115.31607818603516,-10.832620620727539
3002,-293.26800537109375,100.65380096435548,135.50779724121094,-0.5254559516906738
3003,-292.1273193359375,95.2795639038086,130.24201965332028,5.013335704803467
3004,-310.0900573730469,78.51732635498047,114.88224792480469,-12.018168449401855
3005,-318.0747375488281,79.42986297607422,117.2757797241211,-9.101046562194824
3006,-299.6931457519531,93.8957977294922,133.8360595703125,4.411211967468262
3007,-284.1351623535156,88.09895324707031,134.052978515625,2.3318276405334477
3008,-320.29998779296875,71.38159942626953,111.27698516845705,-11.812474250793455
3009,-307.685302734375,73.40862274169922,118.2369384765625,-3.35282039642334
3010,-290.80340576171875,87.97927856445312,136.75692749023438,8.311927795410156
3011,-290.47802734375,88.36822509765625,135.40681457519528,10.948556900024414
3012,-310.0040588378906,65.98118591308594,115.566650390625,-10.346433639526367
3013,-311.18212890625,71.12355041503906,117.40293884277344,-6.303601264953612
3014,-285.91534423828125,91.6331558227539,138.59321594238278,10.36887264251709
3015,-292.8790588378906,89.4041748046875,135.84439086914062,7.6518354415893555
3016,-312.8426208496094,66.87502288818361,119.50850677490234,-13.736652374267578
3017,-310.6622619628906,73.40862274169922,117.9153060913086,-11.02896499633789
3018,-288.4696960449219,95.32817840576172,136.24081420898438,2.9993996620178223
3019,-296.7124328613281,93.18521881103516,128.16636657714844,-3.0293190479278564
3020,-307.33001708984375,77.41031646728516,116.15007019042969,-19.036090850830078
3021,-302.0791931152344,80.8472900390625,126.83496856689452,-16.911827087402347
3022,-295.2501525878906,93.776123046875,145.81121826171875,-5.224640369415283
3023,-292.6546630859375,91.6331558227539,140.77357482910156,-7.1880879402160645
3024,-302.7374267578125,66.19435882568361,122.95294952392578,-23.385595321655273
3025,-299.1620788574219,66.61696624755861,125.1632308959961,-17.824363708496094
3026,-277.62774658203125,91.8463363647461,144.5994873046875,2.135482788085937
3027,-295.0257568359375,86.04574584960938,141.17373657226562,1.8325510025024412
3028,-299.98858642578125,67.97080993652344,123.32320404052734,-16.515398025512695
3029,-312.0796813964844,70.70468139648438,122.06659698486328,-12.69696044921875
3030,-301.4097595214844,91.4873046875,135.39559936523438,3.8558368682861333
3031,-300.8412780761719,90.41769409179688,124.041259765625,-4.375682830810547
3032,-317.2669372558594,76.42298889160156,114.1006088256836,-10.812050819396973
3033,-307.8161926269531,72.98601531982422,110.91047668457031,-15.572943687438965
3034,-296.5478820800781,92.82244873046876,124.57606506347656,9.248772621154783
3035,-293.1707458496094,95.982666015625,129.83436584472656,3.9530742168426514
3036,-323.70703125,73.37870788574219,110.67859649658205,-8.238999366760254
3037,-313.28021240234375,82.88553619384766,116.2884521484375,-7.988426208496094
3038,-284.8045959472656,92.60179138183594,139.12428283691406,5.400415420532227
3039,-295.77374267578125,93.69384002685548,130.79177856445312,0.5834243893623352
3040,-307.87603759765625,69.15635681152344,111.29942321777344,-17.068902969360348
3041,-303.6462097167969,67.91471099853516,117.03643035888672,-16.530357360839847
3042,-289.3223876953125,91.85755157470705,133.75752258300778,-5.733266830444336
3043,-295.1716003417969,79.7627182006836,133.98565673828122,-3.062978029251098
3044,-307.872314453125,67.33129119873047,122.10025024414062,-12.225732803344727
3045,-317.39410400390625,67.91471099853516,125.1669692993164,-10.711073875427246
3046,-292.37042236328125,88.12512969970703,134.82713317871094,1.3688033819198608
3047,-297.0079040527344,79.73279571533203,131.53602600097656,3.1153366565704346
3048,-317.34173583984375,66.66932678222656,114.27638244628906,-13.385102272033693
3049,-312.04229736328125,82.71723937988281,119.68801879882812,-0.6582223773002625
3050,-302.6888122558594,91.31526947021484,129.0938720703125,5.957660675048827
3051,-309.0877685546875,89.26580047607422,125.99349212646484,3.062978029251098
3052,-319.20794677734375,79.19051361083984,112.2381362915039,-11.331896781921387
3053,-314.3684997558594,79.47848510742188,114.5830535888672,-4.487879753112793
3054,-293.70556640625,96.35291290283205,131.7117919921875,5.392935752868652
3055,-288.5781555175781,94.1575927734375,141.39065551757812,2.2663793563842773
3056,-314.66021728515625,80.76875305175781,120.74640655517578,-9.622762680053713
3057,-309.0989990234375,83.95140075683594,124.92761993408205,-3.9081954956054688
3058,-296.5703125,90.7468032836914,141.79457092285156,7.008572578430176
3059,-287.673095703125,96.75682067871094,136.41285705566406,0.3552905023097992
3060,-308.377197265625,67.57437896728516,120.5481948852539,-16.27230453491211
3061,-300.6767272949219,71.31428527832031,122.14513397216795,-13.676814079284668
3062,-288.1817321777344,93.0356216430664,142.2657928466797,2.7114274501800537
3063,-287.71051025390625,86.42347717285156,136.248291015625,-0.34407079219818115
3064,-311.2008056640625,68.24382781982422,115.54046630859376,-13.35144329071045
3065,-317.49505615234375,62.54047775268555,114.74012756347656,-9.402108192443848
3066,-299.1583251953125,84.43759155273438,131.9287109375,6.926294803619385
3067,-292.8565979003906,89.34808349609375,135.22731018066406,10.180007934570312
3068,-322.69354248046875,73.01593780517578,113.99214935302734,-12.62590217590332
3069,-313.0333557128906,72.4773941040039,121.75992584228516,-12.44638729095459
3070,-295.63909912109375,88.45050048828125,134.05671691894528,1.791412115097046
3071,-290.99786376953125,100.2424087524414,137.66571044921878,5.505132675170898
3072,-305.8639831542969,67.94463348388672,115.59282684326172,-13.171927452087402
3073,-311.14471435546875,73.6629409790039,119.20931243896484,-15.793597221374512
3074,-286.5324401855469,95.41046142578124,138.77647399902344,-2.2402000427246094
3075,-287.8563537597656,89.55377197265625,133.21524047851562,-8.67282772064209
3076,-301.15545654296875,79.4859619140625,121.02316284179688,-17.652328491210938
3077,-298.85540771484375,77.39910125732422,118.52117156982422,-18.684539794921875
3078,-288.98956298828125,90.27931213378906,138.11076354980472,-1.5595382452011108
3079,-285.137451171875,91.01981353759766,143.02499389648438,1.873689889907837
3080,-313.2502746582031,72.40633392333984,124.07118225097656,-11.892881393432615
3081,-311.66082763671875,77.36917877197266,120.8473892211914,-7.8163909912109375
3082,-291.6112060546875,93.8135223388672,144.7715301513672,7.577037334442139
3083,-299.6145935058594,88.1550521850586,141.02415466308594,2.5917506217956543
3084,-308.7362060546875,70.13621520996094,123.45409393310548,-12.236952781677244
3085,-315.41943359375,70.4541015625,118.45384979248048,-13.164447784423828
3086,-303.3021545410156,91.69300079345705,133.25263977050778,2.0793843269348145
3087,-299.7754211425781,94.18376922607422,132.44856262207028,6.686941146850586
3088,-315.90936279296875,80.86224365234375,113.95848846435548,-10.045371055603027
3089,-318.6731262207031,76.50526428222656,109.9867172241211,-12.098576545715332
3090,-305.84527587890625,99.0531234741211,126.8873291015625,5.190980911254883
3091,-302.9356384277344,98.3911590576172,124.2619171142578,2.015805959701538
3092,-313.3288269042969,80.46955871582031,112.9150619506836,-12.988672256469727
3093,-308.4370422363281,74.74002838134766,117.72083282470705,-10.01919174194336
3094,-277.13406372070307,98.858642578125,148.7096405029297,8.063223838806152
3095,-285.80316162109375,82.66487884521484,139.02330017089844,-4.379422664642334
3096,-297.7483825683594,73.4834213256836,126.61431121826172,-10.273505210876463
3097,-295.72137451171875,70.27458953857422,127.8148193359375,-15.703840255737305
3098,-286.6334228515625,94.08653259277344,143.22320556640625,-1.6792150735855105
3099,-295.6129150390625,91.72291564941406,139.37858581542972,-1.0621316432952879
3100,-312.85009765625,71.84534454345703,123.8393096923828,-10.621315956115724
3101,-302.427001953125,70.12499237060547,129.78948974609378,-7.513459205627441
3102,-295.3324279785156,89.81930541992188,140.75112915039062,9.308610916137695
3103,-287.0672302246094,90.90387725830078,144.40501403808594,10.20992660522461
3104,-310.6884460449219,65.47629547119139,119.0858917236328,-7.532158374786378
3105,-320.6066589355469,72.41007232666016,119.81891632080078,-11.503931999206545
3106,-294.1580810546875,100.79965209960938,144.3900604248047,11.455313682556152
3107,-288.7838439941406,98.66790771484376,135.72845458984378,-0.6357830166816711
3108,-317.1846618652344,79.04839324951172,117.72457122802734,-13.295344352722168
3109,-325.677978515625,74.47449493408203,107.42488861083984,-17.90290069580078
3110,-294.4984130859375,100.81461334228516,136.32682800292972,-6.3204307556152335
3111,-291.5289306640625,96.76055908203124,131.4649658203125,-15.666440963745115
3112,-304.5176086425781,82.28714752197266,115.75364685058594,-30.00895690917969
3113,-303.29840087890625,91.62194061279295,121.59536743164062,-28.92438697814941
3114,-275.78768920898443,99.90581512451172,142.7295379638672,-11.975159645080565
3115,-281.63690185546875,106.91812896728516,146.23008728027344,-3.833397388458252
3116,-288.7352294921875,79.75897979736328,137.41888427734378,-14.144301414489744
3117,-289.9245300292969,80.207763671875,134.75607299804688,-13.553397178649902
3118,-280.18582153320307,93.9182357788086,145.8785400390625,4.5028395652771
3119,-290.23492431640625,97.59455871582031,142.96514892578125,0.48244708776474
3120,-308.7362060546875,78.74920654296875,119.0634536743164,-7.2441864013671875
3121,-297.4080505371094,76.07891845703125,123.70841217041016,-7.292804718017577
3122,-294.5806884765625,89.3031997680664,140.18266296386722,13.605755805969238
3123,-288.32757568359375,87.55667114257812,135.05526733398438,6.915074825286865
3124,-310.8193359375,78.63327026367188,113.96971130371094,-12.865256309509276
3125,-303.9865417480469,73.59935760498047,122.5340805053711,-9.55170440673828
3126,-294.14312744140625,98.55945587158205,139.88722229003906,2.83484411239624
3127,-290.7996520996094,92.13056182861328,128.89190673828122,-0.8489573001861572
3128,-314.8696594238281,77.32056427001953,115.41331481933594,-13.886248588562012
3129,-310.6024169921875,85.32769012451172,113.82759857177734,-12.43516731262207
3130,-295.5680236816406,94.45677947998048,123.86548614501952,-5.056344509124756
3131,-293.2904357910156,98.75019073486328,130.42527770996094,-4.155028820037842
3132,-303.5190734863281,80.75005340576172,115.02810668945312,-17.626148223876953
3133,-299.19573974609375,79.35132598876953,113.97344970703124,-23.54266929626465
3134,-282.94586181640625,99.41214752197266,131.22561645507812,-14.050804138183596
3135,-285.91162109375,107.9690399169922,139.02330017089844,-13.314043998718262
3136,-310.2658386230469,90.94127655029295,118.58474731445312,-15.610342025756836
3137,-296.78350830078125,85.87371063232422,124.4414291381836,-23.07892227172852
3138,-288.96337890625,109.44256591796876,152.68515014648438,1.3388842344284058
3139,-293.37646484375,97.98350524902344,144.3115234375,-0.9424548149108888
3140,-305.2730712890625,88.33456420898438,126.74520874023438,-12.94753360748291
3141,-311.9039306640625,87.11161804199219,125.17445373535156,-10.737253189086914
3142,-297.0116271972656,100.71363830566406,142.8230438232422,4.831950664520264
3143,-300.1718444824219,102.70326232910156,132.44482421875,7.476059913635254
3144,-309.7759094238281,88.9404296875,119.06719207763672,-10.995306015014648
3145,-323.789306640625,86.30006408691406,111.50138092041016,-12.68574047088623
3146,-294.5470275878906,97.6095199584961,139.16168212890622,12.2332124710083
3147,-292.9912414550781,93.9032745361328,129.46037292480472,2.4271950721740723
3148,-326.7662658691406,74.22018432617188,100.472412109375,-16.72483253479004
3149,-315.4455871582031,77.11112976074219,111.68836975097656,-18.3928279876709
3150,-298.9189758300781,107.54269409179688,127.22017669677734,-5.707087516784668
3151,-297.44171142578125,101.31575775146484,125.5260009765625,-7.913628101348878
3152,-312.89874267578125,79.33636474609375,113.62564086914062,-17.61492919921875
3153,-318.0411071777344,75.20003509521484,112.62709045410156,-21.306209564208984
3154,-292.5835876464844,107.1313018798828,133.83979797363278,0.063578300178051
3155,-297.45294189453125,100.7061538696289,137.1458740234375,-5.845463752746582
3156,-318.7703857421875,78.76416015625,112.43260955810548,-21.25385093688965
3157,-307.0644836425781,95.6872100830078,120.43973541259766,-20.28521728515625
3158,-298.1148986816406,107.03032684326172,146.33480834960938,2.1055636405944824
3159,-284.95794677734375,103.34652709960938,150.38137817382812,1.1107503175735474
3160,-305.47503662109375,84.26555633544922,132.66546630859378,-15.404647827148438
3161,-312.2517395019531,91.6892547607422,129.44168090820312,-13.168188095092773
3162,-294.03094482421875,103.92994689941406,147.8270263671875,1.7876721620559692
3163,-294.9322509765625,94.45677947998048,142.12741088867188,1.8362908363342283
3164,-301.9819641113281,77.50755310058594,119.26914978027344,-16.526617050170902
3165,-306.4810485839844,69.72856140136719,117.00650787353516,-14.42479419708252
3166,-294.0047607421875,91.80519104003906,125.36892700195312,-0.20569449663162231
3167,-296.0990905761719,93.89205932617188,123.54385375976562,-3.8520970344543457
3168,-313.388671875,73.3226089477539,108.89093017578124,-20.778884887695312
3169,-309.7796630859375,72.01737976074219,109.10784149169922,-19.110889434814453
3170,-291.0278015136719,94.39320373535156,124.53118896484376,-4.345763683319092
3171,-301.6154479980469,95.15988159179688,123.1511688232422,-4.7945518493652335
3172,-312.0909118652344,73.81253814697266,103.91311645507812,-19.088449478149414
3173,-320.0718688964844,70.33816528320311,102.09178924560548,-18.90145492553711
3174,-296.8096923828125,105.10427856445312,137.2281494140625,0.6021239161491394
3175,-292.2544860839844,97.75537872314452,134.69248962402344,4.506579399108887
3176,-311.33544921875,79.3812484741211,123.700927734375,-12.012558937072756
3177,-309.0167236328125,88.32334899902344,132.32139587402344,-9.712520599365234
3178,-292.2133483886719,106.97048950195312,145.44845581054688,0.1869949996471405
3179,-296.9630126953125,93.33106994628906,145.14552307128906,-1.125709891319275
3180,-306.1220397949219,75.74980163574219,126.57691192626952,-13.78153133392334
3181,-302.6364440917969,79.7440185546875,130.06623840332028,-13.085909843444824
3182,-292.74066162109375,95.10004425048828,141.09519958496094,0.987333595752716
3183,-292.9388732910156,94.14636993408205,141.32333374023438,-5.149842262268066
3184,-309.87689208984375,75.74232482910156,118.34913635253906,-20.199199676513672
3185,-314.6789245605469,78.37147521972656,116.8756103515625,-12.902654647827148
3186,-299.18450927734375,89.19100189208984,130.21957397460938,3.6576220989227295
3187,-290.8407897949219,95.11500549316406,132.61685180664062,3.6015236377716064
3188,-313.44476318359375,76.62867736816406,115.6938018798828,-15.165294647216795
3189,-315.6625061035156,72.44373321533203,113.20303344726562,-10.370742797851562
3190,-291.2185363769531,78.76416015625,133.19279479980472,1.0135128498077393
3191,-293.9150085449219,87.41828918457031,130.85162353515622,-3.0854175090789795
3192,-307.2664489746094,68.37097930908203,111.29568481445312,-21.298730850219727
3193,-312.6743469238281,81.16517639160156,111.28820037841795,-18.51998519897461
3194,-295.9233093261719,94.65499877929688,128.81336975097656,-9.076737403869627
3195,-299.4388427734375,100.82583618164062,128.3720703125,-12.229473114013672
3196,-316.18609619140625,78.88009643554688,121.03812408447266,-18.347949981689453
3197,-312.04229736328125,81.2511978149414,124.97998046875,-12.330450057983398
3198,-295.2950134277344,106.83585357666016,144.03102111816406,3.84835696220398
3199,-293.1296081542969,106.86203002929688,138.46604919433594,-0.2804924845695496
3200,-318.8750915527344,73.61805725097656,117.6198501586914,-17.39427375793457
3201,-303.5639343261719,83.940185546875,119.07467651367188,-14.33877658843994
3202,-286.56982421875,103.42880249023438,136.22959899902344,-2.25141978263855
3203,-276.3075561523437,97.38512420654295,139.74884033203122,-1.323924541473389
3204,-316.182373046875,61.50826644897461,108.72637176513672,-24.926433563232425
3205,-308.470703125,76.7969741821289,115.04306030273438,-17.252159118652347
3206,-296.44317626953125,96.73438262939452,128.83955383300778,-3.754859447479248
3207,-290.8669738769531,87.50057220458984,128.11775207519528,-1.73905348777771
3208,-305.4151916503906,68.18024444580078,113.0571746826172,-14.929680824279785
3209,-305.2356872558594,80.46207427978516,113.27783203125,-13.800230979919435
3210,-287.08221435546875,94.21369171142578,133.14418029785156,-1.3538438081741333
3211,-285.32818603515625,91.6069793701172,139.06817626953122,4.0129127502441415
3212,-298.82550048828125,84.13465881347656,121.40463256835938,-14.56691074371338
3213,-315.0791015625,79.8262939453125,115.08794403076172,-9.192673683166504
3214,-288.9184875488281,91.85755157470705,143.9150848388672,5.516352653503418
3215,-300.1905517578125,97.78155517578124,138.30149841308594,6.9188151359558105
3216,-320.31683349609375,80.93330383300781,116.44552612304688,-10.825139999389648
3217,-321.0423583984375,84.41515350341797,112.08106231689452,-6.341000556945801
3218,-305.9555969238281,97.99846649169922,129.17988586425778,6.464416980743407
3219,-302.361572265625,91.0871353149414,130.6197509765625,0.31602153182029724
3220,-317.84100341796875,80.79492950439453,117.70960998535156,-11.468402862548828
3221,-310.3799133300781,71.12728881835938,116.98406982421876,-13.861939430236815
3222,-306.0303955078125,93.79108428955078,133.43214416503906,-0.6451327204704285
3223,-292.6191101074219,89.1797866821289,133.92207336425778,-2.511342763900757
3224,-300.8955078125,64.38798522949219,114.9869613647461,-19.47178840637207
3225,-313.5849914550781,71.19834899902344,117.32814025878906,-13.585186958312988
3226,-289.7842712402344,90.07736206054688,130.7020263671875,-4.788941860198975
3227,-290.7528991699219,88.3757095336914,138.69793701171878,-3.696891069412232
3228,-308.6932067871094,75.38703155517578,121.40089416503906,-13.731042861938475
3229,-301.9239807128906,71.69200897216797,117.76570892333984,-15.462615966796875
3230,-295.7344665527344,82.93415069580078,138.94850158691406,-1.2734359502792358
3231,-291.3213806152344,102.68082427978516,143.0885772705078,0.0205694492906332
3232,-303.6593017578125,81.90193939208984,122.3695297241211,-16.92117691040039
3233,-318.7460632324219,73.72651672363281,118.88394165039062,-16.962316513061527
3234,-297.3463439941406,96.83535766601562,134.75233459472656,2.5524816513061523
3235,-299.10784912109375,95.4441146850586,133.81736755371094,4.287795066833496
3236,-315.6082763671875,79.63182067871094,113.06465911865234,-9.665771484375
3237,-314.19085693359375,77.29064178466797,108.61791229248048,-15.058707237243652
3238,-303.08709716796875,95.0626449584961,128.01676940917972,-1.0789611339569092
3239,-299.309814453125,91.04973602294922,128.959228515625,-0.7909888625144958
3240,-319.0078430175781,68.99928283691406,108.19156646728516,-22.54972648620605
3241,-310.5556945800781,68.86838531494139,115.17769622802734,-13.424370765686035
3242,-290.6070556640625,90.38029479980469,132.88986206054688,-5.245209693908691
3243,-291.8823547363281,88.55522155761719,137.25807189941406,-2.9900500774383545
3244,-305.5704040527344,82.88179016113281,118.15091705322266,-21.21084213256836
3245,-303.95849609375,77.24202728271484,116.82325744628906,-21.057506561279297
3246,-284.0098876953125,92.26520538330078,142.68092346191406,-5.10309362411499
3247,-289.0101318359375,90.8664779663086,130.9189453125,-10.802700996398926
3248,-305.5329895019531,78.05731964111328,115.43575286865234,-24.2551212310791
3249,-313.63360595703125,80.8659896850586,111.05632781982422,-22.96111488342285
3250,-294.709716796875,100.09654998779295,129.68476867675778,0.5965140461921692
3251,-300.75714111328125,94.28474426269531,133.94078063964844,-1.7110042572021484
3252,-305.0655212402344,83.18098449707031,115.40209197998048,-11.546940803527832
3253,-308.37158203125,80.42467498779297,115.5890884399414,-10.765301704406738
3254,-303.2254638671875,99.79736328125,132.57571411132812,5.3574066162109375
3255,-289.7132263183594,108.47393035888672,138.06214904785156,6.658891677856445
3256,-311.0456237792969,75.86573791503906,110.91421508789062,-16.135797500610348
3257,-326.3006591796875,81.74860382080078,112.5373306274414,-10.970996856689453
3258,-294.12255859375,96.90267944335938,132.19798278808594,0.948064625263214
3259,-291.2652893066406,95.64607238769531,133.84353637695312,-5.93709135055542
3260,-314.134765625,75.6114273071289,128.03547668457028,-16.932397842407227
3261,-307.7021484375,76.0340347290039,128.45808410644528,-13.308433532714846
3262,-281.03665161132807,98.51457214355469,145.4559326171875,-3.666971921920776
3263,-292.3012390136719,96.7830047607422,140.23876953125,-7.848180294036865
3264,-312.9828796386719,72.71300506591797,121.83097839355469,-23.54080009460449
3265,-309.92364501953125,84.71808624267578,123.9963836669922,-16.812719345092773
3266,-295.60357666015625,96.83161926269531,139.82363891601562,-10.125779151916504
3267,-284.051025390625,99.55052947998048,142.12367248535156,-10.948556900024414
3268,-305.2712097167969,80.6528091430664,126.03462982177734,-22.89753723144531
3269,-298.53564453125,85.29402923583984,131.82025146484378,-14.00405502319336
3270,-291.0932312011719,94.80085754394531,147.88311767578125,-3.9512042999267583
3271,-299.70623779296875,96.61470794677734,138.56329345703122,-4.4897499084472665
3272,-316.1580505371094,74.45579528808594,121.32235717773438,-20.0589542388916
3273,-314.4638671875,79.17555236816406,118.16961669921876,-17.39614486694336
3274,-303.9510192871094,96.19583892822266,130.5262451171875,-1.1649788618087769
3275,-298.7749938964844,105.5829849243164,130.59730529785156,-0.7386302351951599
3276,-306.8382263183594,90.71688079833984,116.20616912841795,-14.351865768432615
3277,-319.3182678222656,74.38848114013672,116.01543426513672,-12.257521629333494
3278,-301.8005676269531,94.18750762939452,133.61166381835938,1.9204386472702024
3279,-287.925537109375,101.73462677001952,143.9150848388672,4.706664085388184
3280,-317.50067138671875,72.43251037597656,118.24441528320312,-12.339799880981445
3281,-311.76739501953125,84.37026977539062,114.65411376953124,-13.865678787231445
3282,-300.63372802734375,107.8680648803711,136.17349243164062,2.537522077560425
3283,-298.9283447265625,98.86238861083984,135.14501953125,-1.5576683282852173
3284,-320.7655944824219,82.08519744873047,113.7191390991211,-18.577953338623047
3285,-314.4526672363281,83.68212890625,113.50970458984376,-20.388065338134766
3286,-294.7134704589844,95.73583221435548,134.3409423828125,-4.17559814453125
3287,-289.5075378417969,103.09969329833984,131.47244262695312,-8.596159934997559
3288,-319.9390869140625,77.57861328125,113.92857360839844,-20.01781463623047
3289,-314.1946105957031,73.04959869384766,118.3005142211914,-18.54803466796875
3290,-291.31390380859375,109.96988677978516,140.56413269042972,5.809934616088867
3291,-288.8866882324219,94.85694885253906,137.37400817871094,4.8899192810058585
3292,-312.6500244140625,71.5760726928711,123.62239074707031,-12.938183784484865
3293,-303.8126525878906,73.09073638916016,126.1842269897461,-13.147618293762207
3294,-292.08056640625,94.20620727539062,139.95079040527344,1.374413251876831
3295,-301.04510498046875,86.88348388671875,142.58367919921875,-5.757575988769531
3296,-304.7401428222656,74.69515228271484,123.56629180908205,-18.821046829223636
3297,-311.2251281738281,64.15611267089844,120.56315612792969,-14.602438926696776
3298,-295.2594909667969,85.94477081298828,143.4588165283203,3.92502498626709
3299,-278.64312744140625,83.95140075683594,144.36013793945312,6.0343284606933585
3300,-321.16204833984375,66.93486022949219,119.67679595947266,-4.695444583892822
3301,-312.9566955566406,63.89432144165039,122.67620086669922,-9.763009071350098
3302,-303.3114929199219,85.97843170166016,140.69503784179688,2.4814236164093018
3303,-293.0940856933594,85.75403594970703,141.4654541015625,-1.6810849905014038
3304,-310.78009033203125,77.87406921386719,114.8261489868164,-20.75457572937012
3305,-303.042236328125,67.91471099853516,116.16503143310548,-18.27128028869629
3306,-287.00927734375,85.57452392578125,136.36422729492188,-1.7484031915664673
3307,-289.3092956542969,87.9942398071289,135.67982482910156,-0.5067564249038696
3308,-301.6397705078125,70.6298828125,122.8145751953125,-16.502307891845707
3309,-301.6995849609375,67.51454162597656,120.15176391601562,-15.26440143585205
3310,-286.822265625,93.3722152709961,141.7646484375,2.4515044689178467
3311,-285.29638671875,90.0025634765625,142.7819061279297,-2.3879261016845703
3312,-308.0761413574219,80.51069641113281,122.80709838867188,-17.12687110900879
3313,-300.1138916015625,70.8131332397461,120.00591278076172,-14.826833724975586
3314,-293.77850341796875,92.7962646484375,140.17144775390622,-3.954944133758545
3315,-292.267578125,99.55426788330078,141.2186279296875,-0.3422008454799652
3316,-300.7197570800781,66.72542572021484,123.20352172851562,-16.760360717773438
3317,-312.3695373535156,77.86658477783203,121.7150421142578,-12.541754722595215
3318,-290.53973388671875,96.4464111328125,137.74050903320312,4.063401222229004
3319,-295.06500244140625,91.9921875,129.77827453613278,4.463570594787598
3320,-303.1656494140625,83.7232666015625,116.34080505371094,-11.128072738647461
3321,-306.9765930175781,90.1671142578125,117.64229583740234,-12.97558307647705
3322,-289.20086669921875,88.18871307373047,135.03657531738278,2.982570171356201
3323,-293.711181640625,96.75682067871094,139.99942016601562,4.407472133636475
3324,-306.2660217285156,75.78346252441406,119.18687438964844,-10.469849586486816
3325,-306.34454345703125,76.69973754882812,117.70587158203124,-6.64019250869751
3326,-289.7019958496094,86.87600708007812,132.4859619140625,2.623539924621582
3327,-288.3892822265625,86.9321060180664,133.93704223632812,0.9779838323593141
3328,-304.73638916015625,72.07722473144531,121.75244140625,-9.834067344665527
3329,-298.3224792480469,64.91531372070311,123.33068084716795,-12.564193725585938
3330,-272.97341918945307,87.38463592529297,148.73208618164062,7.40313196182251
3331,-285.4235534667969,85.68297576904297,148.85549926757812,4.751543045043945
3332,-299.0816650390625,67.58934020996094,130.01388549804688,-9.074867248535156
3333,-300.6262512207031,74.78865051269531,125.7616195678711,-7.657444953918457
3334,-282.51763916015625,86.03079223632812,143.8365478515625,1.5053097009658811
3335,-287.8918762207031,90.1633758544922,143.04368591308594,3.8951058387756343
3336,-314.06744384765625,76.62867736816406,125.79153442382812,-8.005255699157715
3337,-307.6161193847656,68.79358673095703,128.67500305175778,-1.9802770614624023
3338,-297.0509033203125,96.99991607666016,139.78250122070312,3.453797578811645
3339,-293.546630859375,91.6331558227539,140.10787963867188,3.8277876377105713
3340,-309.0896301269531,74.4034423828125,120.87356567382812,-12.171504020690918
3341,-313.8841857910156,81.18761444091797,118.77174377441406,-8.955190658569336
3342,-295.7943115234375,97.8900146484375,135.65739440917972,3.812828063964844
3343,-295.8877868652344,96.61470794677734,134.31477355957028,2.3131282329559326
3344,-308.4613342285156,65.45011901855469,113.38628387451172,-15.4551362991333
3345,-304.052001953125,68.73748779296875,118.70442199707031,-11.505802154541016
3346,-280.7823486328125,94.06035614013672,138.44735717773438,-0.626433253288269
3347,-295.42779541015625,87.7960205078125,131.67813110351562,-5.488303184509277
3348,-298.87969970703125,69.76596069335939,122.82953643798828,-10.155698776245117
3349,-300.56640625,61.66160202026367,120.51079559326172,-16.924917221069336
3350,-290.6556701660156,73.77887725830078,133.35734558105472,-0.3945594429969788
3351,-284.5147705078125,90.60842895507812,137.58343505859378,6.43823766708374
3352,-314.0749206542969,61.63916015625,112.23065948486328,-13.13265895843506
3353,-310.8735656738281,56.25370407104492,121.88333892822266,-6.546694755554199
3354,-285.4646911621094,84.0411605834961,139.32623291015622,3.5024163722991943
3355,-285.9808044433594,84.3216552734375,134.32972717285156,1.1313197612762451
3356,-309.50103759765625,64.55628204345703,111.9352035522461,-12.85590648651123
3357,-312.11895751953125,56.429481506347656,118.34539794921876,-9.497475624084473
3358,-292.8921203613281,83.094970703125,136.17723083496094,6.082947254180907
3359,-291.7851257324219,81.86454010009766,140.30609130859378,6.647672176361084
3360,-313.9365539550781,64.81807708740234,116.69983673095705,-13.203717231750488
3361,-312.26483154296875,69.20497894287111,124.47135162353516,-11.90597152709961
3362,-282.0501708984375,91.65185546875,139.90591430664062,4.639346122741699
3363,-291.38494873046875,95.44037628173828,143.15963745117188,2.6609387397766118
3364,-302.9300231933594,69.34709167480469,126.09072875976562,-7.597606658935548
3365,-307.2458801269531,76.51274108886719,122.62384033203124,-14.63235855102539
3366,-290.33404541015625,90.21199798583984,138.17060852050778,-2.077514410018921
3367,-298.0718994140625,82.29837036132812,145.4110565185547,4.022262573242188
3368,-304.0482482910156,71.14225006103516,126.81626892089844,-8.472743034362793
3369,-311.1241455078125,71.94258880615234,129.31826782226562,-2.5936205387115483
3370,-290.2779541015625,95.89290618896484,148.19728088378906,12.515575408935547
3371,-285.53948974609375,83.67465209960938,146.36097717285156,13.49916934967041
3372,-296.4974060058594,77.6010513305664,130.76934814453122,-3.8614466190338135
3373,-307.2084655761719,67.21160888671875,121.94691467285156,-10.675544738769533
3374,-289.0101318359375,83.98506164550781,144.12826538085938,3.868926525115967
3375,-290.74542236328125,89.1386489868164,136.82423400878906,-3.8053481578826895
3376,-300.75341796875,74.25758361816406,119.27662658691406,-13.723563194274902
3377,-302.20074462890625,73.14683532714844,119.96102905273438,-13.48794937133789
3378,-285.31884765625,79.85621643066406,131.9287109375,-3.5547749996185303
3379,-287.2149658203125,85.71289825439453,134.07540893554688,2.728256940841675
3380,-301.22088623046875,77.11112976074219,118.07238006591795,-10.54838752746582
3381,-311.1727600097656,76.32574462890625,120.8660888671875,-12.91574478149414
3382,-293.6401062011719,91.2479476928711,142.55377197265625,-3.607133388519287
3383,-287.3608093261719,104.22914123535156,146.41708374023438,-3.128426313400269
3384,-312.6949157714844,79.42986297607422,129.58004760742188,-18.877145767211914
3385,-297.95220947265625,75.47305297851562,129.15744018554688,-17.093212127685547
3386,-291.9347229003906,92.23528289794922,146.0879669189453,-7.952897071838379
3387,-288.2845764160156,91.40502166748048,144.3563995361328,-9.576013565063477
3388,-309.70672607421875,71.98746490478516,130.40657043457028,-21.637191772460934
3389,-309.5384216308594,65.25564575195311,128.72735595703122,-23.454782485961914
3390,-289.69451904296875,93.8209991455078,146.91448974609375,-0.626433253288269
3391,-284.2267761230469,89.60987091064453,149.30429077148438,6.370919704437256
3392,-305.237548828125,60.29279708862305,124.77428436279295,-14.980169296264648
3393,-299.40704345703125,62.91820526123047,122.38074493408205,-9.037467956542967
3394,-280.02313232421875,79.362548828125,140.8745574951172,3.5285956859588623
3395,-278.80020141601557,79.27278900146484,139.44964599609378,5.899692058563232
3396,-316.7938232421875,58.79309844970703,112.43635559082031,-14.826833724975586
3397,-312.010498046875,63.97285842895508,115.24127960205078,-9.489995956420898
3398,-288.09759521484375,79.26905059814453,127.88214111328124,5.147972106933594
3399,-291.2540588378906,83.16602325439453,126.06829071044922,4.830080986022949
3400,-311.763671875,72.3390121459961,110.8506317138672,-10.473589897155762
3401,-307.2907409667969,75.22248077392578,121.2886962890625,-12.90452480316162
3402,-292.5218811035156,85.86249542236328,137.6507568359375,0.1963447481393814
3403,-289.0213317871094,98.28269958496094,143.18954467773438,1.3856329917907717
3404,-312.1825256347656,76.63990020751953,124.95753479003906,-13.865678787231445
3405,-306.72601318359375,74.83726501464844,123.77572631835938,-12.949403762817385
3406,-293.83831787109375,92.36618041992188,142.4901885986328,6.486856460571289
3407,-291.35504150390625,94.12393188476562,145.46714782714844,3.087287425994873
3408,-310.40234375,76.90543365478516,120.15176391601562,-13.49168872833252
3409,-317.36602783203125,81.14647674560547,123.71215057373048,-10.836359977722168
3410,-300.66363525390625,87.50057220458984,131.330322265625,0.6339130401611328
3411,-293.2137756347656,91.67803955078124,136.57740783691406,2.0064563751220703
3412,-310.7950439453125,81.43070983886719,119.23175048828124,-11.015874862670898
3413,-310.5295104980469,68.68513488769531,116.8569107055664,-14.235929489135742
3414,-300.9478759765625,95.59371185302734,132.73652648925778,5.477083683013916
3415,-301.0712890625,94.5166244506836,129.35940551757812,7.459230422973633
3416,-313.6111755371094,70.22222900390625,119.21305084228516,-7.971596717834473
3417,-319.5856628417969,68.16716003417969,114.46150970458984,-9.656421661376953
3418,-294.3937072753906,97.97042083740234,138.22857666015622,10.490419387817383
3419,-290.2124938964844,91.18997955322266,138.48287963867188,10.243585586547852
3420,-302.3447265625,69.12457275390625,119.56647491455078,-11.107502937316896
3421,-304.52508544921875,81.32038116455078,122.3227767944336,-9.39836883544922
3422,-299.1396484375,97.63008880615234,137.07669067382812,2.363616704940796
3423,-292.7369384765625,98.63986206054688,146.10105895996094,6.63458251953125
3424,-310.924072265625,84.6563720703125,123.82247924804688,-12.207033157348633
3425,-315.5951843261719,69.42002105712889,123.9309310913086,-18.66209983825684
3426,-280.9412841796875,94.6680908203125,144.38818359375,-1.682955026626587
3427,-302.23626708984375,97.92928314208984,138.78955078125,-2.3785762786865234
3428,-310.2920227050781,82.57698822021484,121.33918762207031,-14.783824920654295
3429,-312.5621337890625,82.86870574951172,117.47212982177734,-18.755598068237305
3430,-296.4805603027344,104.37313079833984,137.49180603027344,3.6651020050048833
3431,-284.95794677734375,91.32835388183594,142.00587463378906,1.9858869314193728
3432,-310.32940673828125,77.51316833496094,123.56068420410156,-12.524925231933596
3433,-301.11431884765625,83.31375122070312,119.94046020507812,-7.502239227294923
3434,-293.85516357421875,92.6223602294922,138.43800354003906,7.270365715026855
3435,-298.3243408203125,97.47675323486328,127.8241729736328,7.180607795715332
3436,-318.5833740234375,76.37623596191406,106.75357055664062,-13.2691650390625
3437,-318.4524841308594,74.0350570678711,106.7049560546875,-14.753905296325685
3438,-305.160888671875,101.9758529663086,125.4156723022461,1.5931973457336426
3439,-300.91607666015625,89.27889251708984,125.40819549560548,-2.086864233016968
3440,-314.4919128417969,74.61474609375,110.38501739501952,-22.854528427124023
3441,-309.0877685546875,79.68605041503906,112.89823150634766,-17.49525260925293
3442,-289.03070068359375,102.80985260009766,135.42738342285156,0.04861870035529137
3443,-291.1100769042969,88.8301010131836,134.20817565917972,-6.223193645477295
3444,-306.1070861816406,71.85843658447266,116.76902770996094,-15.576683044433596
3445,-313.7252502441406,69.11334991455078,114.19971466064452,-16.840768814086914
3446,-292.2170715332031,93.4077377319336,139.16354370117188,4.37194299697876
3447,-289.4196472167969,102.95196533203124,141.23545837402344,1.963447451591492
3448,-307.6778259277344,79.14002227783203,122.34147644042969,-7.5732975006103525
3449,-315.2810363769531,68.62342071533203,116.03600311279295,-17.74956512451172
3450,-289.29248046875,96.69137573242188,135.7789306640625,-0.3104116916656494
3451,-291.6261901855469,94.44369506835938,134.06980895996094,-3.0255789756774902
3452,-311.5299377441406,67.12372589111328,109.55475616455078,-19.851388931274414
3453,-306.686767578125,81.66445922851562,114.3530502319336,-13.265424728393555
3454,-281.5583801269531,91.92300415039062,138.6661376953125,1.017252802848816
3455,-289.9656677246094,82.04218292236328,135.65177917480472,6.331650733947754
3456,-317.708251953125,64.75637054443361,112.15025329589844,-12.498745918273926
3457,-311.1933288574219,66.85445404052734,110.61688995361328,-12.603463172912598
3458,-289.9768981933594,87.65203857421875,124.91826629638672,-1.7315737009048462
3459,-297.1500244140625,93.13846588134766,129.86614990234378,5.688387870788574
3460,-313.59808349609375,70.5831298828125,115.0112762451172,-7.26662540435791
3461,-313.0558166503906,71.92201232910156,112.49806213378906,-12.457606315612793
3462,-293.4138488769531,86.94893646240234,133.72573852539062,10.520339012145996
3463,-298.3019104003906,92.33438873291016,136.16415405273438,6.870196342468263
3464,-306.0809020996094,78.38082122802734,118.23506927490234,-15.169034004211426
3465,-311.36163330078125,74.08367919921875,118.50434112548828,-23.00412368774414
3466,-293.84393310546875,90.79354858398438,136.16415405273438,-9.970573425292967
3467,-284.53533935546875,97.25984191894531,140.10226440429688,-6.103516578674316
3468,-301.2115478515625,75.02987670898438,121.47382354736328,-20.44977378845215
3469,-305.2356872558594,74.72694396972656,126.16739654541016,-22.68249320983887
3470,-297.5501708984375,97.85448455810548,144.41062927246094,-3.0667178630828857
3471,-286.4464111328125,101.41486358642578,141.35887145996094,-0.1869949996471405
3472,-314.27874755859375,73.90415954589844,112.13529205322266,-16.597675323486328
3473,-313.8935546875,75.95736694335938,114.16605377197266,-12.999892234802244
3474,-300.7702331542969,93.5685577392578,138.09393310546878,6.361569881439209
3475,-288.7427062988281,92.87293243408205,133.95013427734378,7.255405902862549
3476,-316.5600891113281,64.92465972900389,110.15314483642578,-8.949580192565918
3477,-311.5224609375,58.51073455810547,108.79556274414062,-13.112089157104492
3478,-290.65380859375,96.58665466308594,132.74961853027344,1.4660407304763794
3479,-292.12359619140625,79.55889129638672,131.52293395996094,-8.684047698974611
3480,-310.1274719238281,72.46430206298828,116.35763549804688,-17.813142776489258
3481,-309.1924743652344,73.17861938476562,118.78108978271484,-18.482585906982425
3482,-287.92742919921875,87.50244140625,138.25848388671878,-1.6418161392211914
3483,-291.63739013671875,85.66989135742188,129.0059814453125,-6.4588069915771475
3484,-306.49603271484375,74.6371841430664,115.25811004638672,-21.511903762817386
3485,-316.41796875,68.68700408935547,116.1781234741211,-20.38245391845703
3486,-289.13165283203125,89.61548614501953,141.22048950195312,-8.964540481567383
3487,-285.0738830566406,90.29240417480469,146.5909881591797,-3.833397388458252
3488,-314.22265625,83.41847229003906,121.1783676147461,-26.747764587402344
3489,-300.7777099609375,76.70160675048828,122.27790069580078,-22.51793670654297
3490,-293.4437561035156,92.06511688232422,136.7587890625,-9.274951934814453
3491,-289.6777038574219,94.44743347167969,141.53463745117188,-2.57305121421814
3492,-305.4563293457031,70.9458999633789,121.7393569946289,-17.199800491333008
3493,-320.0905456542969,68.39529418945311,115.20574951171876,-18.415267944335934
3494,-294.6854248046875,83.4895248413086,133.61354064941406,2.4346749782562256
3495,-290.6725158691406,91.76966857910156,135.6143798828125,8.740146636962889
3496,-309.97412109375,56.92875671386719,105.50818634033205,-12.263132095336914
3497,-307.40106201171875,62.45632934570313,109.46126556396484,-15.038137435913086
3498,-294.7489929199219,83.4483871459961,137.02058410644528,3.231273651123047
3499,-295.62786865234375,82.33763885498047,137.05050659179688,0.11219699680805206
3500,-303.0777587890625,62.852760314941406,117.2215576171875,-16.219945907592773
3501,-307.8386535644531,67.95772552490234,108.98255157470705,-20.30765724182129
3502,-294.4236145019531,85.92794036865234,138.49037170410156,-3.451927661895752
3503,-291.0128479003906,100.48737335205078,143.26248168945312,2.745086669921875
3504,-305.66949462890625,74.88401794433594,127.3005828857422,-15.733758926391602
3505,-310.1910400390625,82.17308044433594,122.69676971435548,-15.617822647094727
