,T7,F8,Cz,P4
2000,-316.9939270019531,53.398292541503906,109.47434997558594,17.426063537597653
2001,-327.9967041015625,35.96661758422852,99.01759338378906,6.3073410987854
2002,-308.44451904296875,51.74899673461914,111.34056091308594,21.46141624450684
2003,-296.4581298828125,61.94770431518555,124.77054595947266,29.102031707763672
2004,-302.7074890136719,47.51543045043945,111.8566665649414,22.3477725982666
2005,-322.0689697265625,29.91546058654785,93.47879791259766,14.6921968460083
2006,-311.06243896484375,42.86299514770508,106.83772277832031,25.137737274169922
2007,-305.4600830078125,58.29008102416992,115.7087631225586,41.49605941772461
2008,-315.9766540527344,51.27402877807617,101.72901916503906,32.10517120361328
2009,-324.0660705566406,44.25797653198242,92.85797882080078,26.80199241638184
2010,-315.8999938964844,58.60236358642578,108.45523071289062,36.64353942871094
2011,-301.4190979003906,73.7863540649414,125.85324096679688,45.81751251220703
2012,-309.7142028808594,60.09832382202149,120.4341278076172,38.22925567626953
2013,-323.18157958984375,50.67003631591797,111.49950408935548,31.022470474243164
2014,-310.7351989746094,66.42623138427734,124.32362365722656,39.01837539672852
2015,-299.0816650390625,84.89759826660156,139.21965026855472,43.46885681152344
2016,-303.94354248046875,69.6500244140625,132.6561279296875,34.84090805053711
2017,-303.76776123046875,61.69152069091797,124.25630950927734,29.590087890625
2018,-303.711669921875,57.270957946777344,130.913330078125,30.74197769165039
2019,-285.99200439453125,82.42926788330078,150.49169921875,49.32928085327149
2020,-294.66485595703125,68.07553100585939,130.03445434570312,37.75802993774414
2021,-311.19146728515625,53.3066635131836,119.86940002441406,28.340961456298828
2022,-302.85150146484375,60.1544189453125,128.90126037597656,40.24506378173828
2023,-300.89178466796875,76.9166488647461,132.67481994628906,49.65839004516602
2024,-305.7760925292969,67.96707153320311,119.60761260986328,38.86878204345703
2025,-319.8755187988281,50.15018844604492,103.74669647216795,33.03827667236328
2026,-315.2417907714844,63.89432144165039,115.48998260498048,43.24072265625
2027,-302.2044982910156,83.84668731689453,123.12311553955078,54.21733093261719
2028,-312.6687316894531,70.11003112792969,114.0725555419922,45.40238571166992
2029,-320.3616943359375,56.05548858642578,98.42855834960938,40.6003532409668
2030,-311.23260498046875,65.71565246582031,117.16171264648438,46.03068923950195
2031,-300.5177917480469,80.2713394165039,131.19007873535156,52.39599990844727
2032,-310.0433044433594,64.27953338623047,118.69881439208984,35.55522918701172
2033,-317.0556335449219,56.13776779174805,105.1977767944336,22.9704647064209
2034,-301.72576904296875,72.60828399658203,119.42435455322266,31.119707107543945
2035,-290.4088439941406,77.04754638671875,138.26223754882812,38.08340072631836
2036,-298.31500244140625,74.86344909667969,129.75395202636722,31.53483581542969
2037,-311.0531005859375,61.92713165283203,117.31130981445312,22.44688034057617
2038,-296.20941162109375,71.0711898803711,134.49615478515622,34.60529327392578
2039,-286.4407958984375,73.77139282226562,142.98947143554688,46.34484100341797
2040,-296.8003234863281,71.97998809814453,128.25799560546878,38.16941833496094
2041,-313.7570495605469,52.83169555664063,108.39539337158205,29.354475021362305
2042,-304.37738037109375,59.54855728149414,119.35704040527344,38.259178161621094
2043,-293.2549133300781,77.4738998413086,128.97232055664062,50.11091995239258
2044,-307.597412109375,60.5246696472168,110.81884765625,33.053234100341804
2045,-317.2388916015625,52.60730361938477,98.53701782226562,31.41515922546387
2046,-311.7449645996094,61.76257705688477,111.08063507080078,44.7142448425293
2047,-303.3900451660156,75.93679809570312,120.22469329833984,46.83476638793945
2048,-312.6687316894531,63.8756217956543,111.06568145751952,36.733299255371094
2049,-321.8052978515625,57.47665405273438,103.5746612548828,26.27279663085937
2050,-316.6479797363281,64.26457214355469,119.5328140258789,27.959491729736328
2051,-299.95306396484375,81.3746109008789,128.41506958007812,36.20971298217773
2052,-297.5071716308594,69.99409484863281,117.09066009521484,35.9815788269043
2053,-315.56341552734375,59.04367065429688,108.7170181274414,15.442047119140625
2054,-308.7455749511719,72.14453887939453,118.38092041015624,24.36918830871582
2055,-297.3052062988281,79.27278900146484,129.26029968261722,35.98905563354492
2056,-305.7798156738281,72.56714630126953,117.81246185302734,30.85043525695801
2057,-313.8655090332031,64.81433868408203,113.49661254882812,24.15601348876953
2058,-309.4449462890625,71.99494171142578,120.63233947753906,30.28944969177246
2059,-295.4389953613281,96.13225555419922,132.24473571777344,41.40817260742188
2060,-310.25274658203125,67.29763031005861,122.61448669433594,35.68986511230469
2061,-323.57427978515625,55.5880012512207,112.58033752441406,33.92837142944336
2062,-309.7852783203125,67.16299438476561,124.21516418457031,40.13286590576172
2063,-303.95849609375,82.1786880493164,123.89727783203124,46.69639205932617
2064,-314.3890686035156,67.28640747070311,110.11200714111328,35.959136962890625
2065,-321.1321105957031,52.1024169921875,102.11609649658205,32.22671890258789
2066,-306.02667236328125,71.23948669433594,115.76673126220705,43.03876876831055
2067,-303.4835205078125,77.90398406982422,122.2031021118164,42.11127471923828
2068,-315.7466735839844,59.6607551574707,108.98629760742188,32.955997467041016
2069,-313.4167175292969,51.11134338378906,102.59854888916016,28.65885353088379
2070,-309.1943664550781,63.905540466308594,109.96988677978516,32.93729782104492
2071,-293.5578308105469,67.95584869384766,122.76408386230469,37.26062393188477
2072,-306.9504089355469,49.40594863891602,110.9609603881836,22.12898826599121
2073,-319.5576171875,51.058982849121094,110.82632446289062,20.60310935974121
2074,-303.8687438964844,66.65062713623047,119.87688446044922,35.5814094543457
2075,-303.5845031738281,69.08530426025389,123.07450103759766,39.71025848388672
2076,-306.3782043457031,66.01858520507811,119.68614959716795,35.79084396362305
2077,-322.4747314453125,51.15622329711914,107.37065887451172,28.550395965576172
2078,-318.5777587890625,59.78791046142578,116.50349426269531,34.44447708129883
2079,-303.4947509765625,72.82520294189453,124.36102294921876,43.24446487426758
2080,-315.08843994140625,64.79937744140625,121.04373168945312,37.83656692504883
2081,-319.57257080078125,58.84171676635742,109.57720184326172,28.83836936950684
2082,-309.4710998535156,67.72771453857422,124.27500915527344,36.89785385131836
2083,-302.51116943359375,73.94343566894531,131.08161926269528,41.924278259277344
2084,-310.1854248046875,58.09747695922852,121.56732177734376,36.22093200683594
2085,-320.5449523925781,59.27180480957031,113.02538299560548,30.33806800842285
2086,-311.7187805175781,65.34914398193361,117.06822204589844,31.029949188232425
2087,-297.5670166015625,70.73833465576172,127.04253387451172,39.0557746887207
2088,-311.6178283691406,61.36614990234375,110.47103118896484,23.68478584289551
2089,-318.1327209472656,51.48159408569336,101.18112182617188,23.071443557739254
2090,-308.1584167480469,62.36470031738281,109.93622589111328,32.230457305908196
2091,-302.5896911621094,72.54470825195312,116.16690063476562,39.30260848999024
2092,-310.07696533203125,67.08071899414061,109.6931381225586,33.939590454101555
2093,-320.30560302734375,58.47520446777344,97.80025482177734,27.578022003173828
2094,-308.3678283691406,68.53553771972656,111.13673400878906,32.07712173461914
2095,-305.67138671875,76.17240905761719,120.93153381347656,41.07158279418945
2096,-322.4523010253906,55.07189559936523,104.18800354003906,30.943931579589844
2097,-328.7652587890625,52.25575256347656,97.43748474121094,21.418407440185547
2098,-315.9598388671875,68.16154479980469,110.04842376708984,34.69879150390625
2099,-301.3106384277344,76.135009765625,123.63922119140624,41.456790924072266
2100,-312.9006042480469,67.50706481933594,109.61085510253906,29.059022903442386
2101,-318.9405517578125,52.9476318359375,105.95697784423828,22.51793670654297
2102,-310.1480407714844,66.18313598632811,115.32168579101562,28.18388557434082
2103,-298.33367919921875,76.72217559814453,123.57190704345705,35.42059326171875
2104,-309.9872131347656,61.9682731628418,113.3096160888672,28.27738380432129
2105,-317.70635986328125,54.33887481689453,104.46475219726562,25.79409027099609
2106,-307.0140075683594,67.08445739746094,113.16002655029295,36.89785385131836
2107,-301.10870361328125,64.59741973876953,122.80896759033205,34.18268585205078
2108,-312.40692138671875,58.50138473510742,105.79615783691406,29.937898635864254
2109,-318.69744873046875,52.80925750732422,104.17304229736328,25.749210357666016
2110,-303.9996337890625,61.08191680908203,114.5924072265625,33.247711181640625
2111,-305.32354736328125,66.81892395019531,116.65309143066406,38.88000106811523
2112,-311.8983154296875,53.86391067504883,104.06084442138672,28.71495246887207
2113,-310.88104248046875,40.54612350463867,98.55945587158205,25.102209091186523
2114,-309.2392272949219,52.97755432128906,102.22455596923828,33.483325958251946
2115,-301.5948791503906,65.88021087646484,116.5371551513672,32.911121368408196
2116,-315.5484619140625,57.31957626342773,105.41468811035156,22.233705520629886
2117,-323.3797912597656,45.69222640991211,92.1118621826172,18.344209671020508
2118,-315.9486083984375,68.12788391113281,109.30044555664062,27.09931564331055
2119,-306.4866638183594,83.6222915649414,114.08003997802734,32.447372436523445
2120,-318.7311096191406,60.21426010131836,100.3396453857422,22.237445831298828
2121,-324.78973388671875,45.2583999633789,99.86467742919922,25.49115753173828
2122,-318.1476745605469,59.08106994628906,113.07774353027344,30.300668716430664
2123,-309.1008605957031,65.53987884521484,118.48190307617188,33.45714569091797
2124,-318.1962890625,62.69007110595703,112.31480407714844,30.47644424438477
2125,-326.5474853515625,50.11652755737305,103.78409576416016,27.854774475097656
2126,-313.8168640136719,61.22403335571289,116.49227142333984,33.22153091430664
2127,-305.7499084472656,68.56545257568361,118.70255279541016,38.36763381958008
2128,-314.1048583984375,56.39956283569336,108.6534423828125,33.98821258544922
2129,-322.92352294921875,46.97875213623047,98.60807037353516,28.722431182861328
2130,-310.75762939453125,56.38833999633789,116.73910522460938,39.12309265136719
2131,-295.1360778808594,70.65979766845703,118.8334503173828,37.309242248535156
2132,-307.3431091308594,56.88948822021485,107.35943603515624,28.550395965576172
2133,-313.5849914550781,45.82312393188477,96.7643051147461,21.949472427368164
2134,-308.4987487792969,67.16673278808594,111.7276382446289,25.064809799194336
2135,-296.2169189453125,82.25723266601562,117.3075714111328,27.43590545654297
2136,-312.2461242675781,63.5352897644043,102.4863510131836,16.444339752197266
2137,-317.55303955078125,60.45735168457031,103.47742462158205,18.2170524597168
2138,-312.55279541015625,65.66329193115234,115.68445587158205,25.78287124633789
2139,-305.5890808105469,72.6195068359375,124.47322082519531,38.43121337890625
2140,-320.4776306152344,65.23694610595703,109.97362518310548,32.05094146728516
2141,-325.79949951171875,54.11448287963867,105.29127502441406,26.732805252075195
2142,-312.34710693359375,67.30510711669922,118.3884048461914,41.47922897338867
2143,-302.5448303222656,78.56968688964844,122.61074829101562,45.21538925170898
2144,-311.000732421875,60.33393478393555,115.32542419433594,32.23793792724609
2145,-317.7550048828125,53.77415084838867,109.8389892578125,31.224424362182614
2146,-304.7962341308594,66.4337158203125,123.0034408569336,38.96975708007813
2147,-297.8662109375,65.88394927978516,121.9861831665039,43.31925964355469
2148,-313.1025695800781,59.83279037475586,110.72161102294922,36.348087310791016
2149,-317.0818176269531,45.639869689941406,103.0361099243164,28.18762588500977
2150,-303.0534362792969,59.38400268554688,116.2229995727539,39.82245635986328
2151,-296.7704162597656,60.1245002746582,125.89437866210938,43.30804061889648
2152,-308.3304443359375,52.8653564453125,116.87374114990234,32.103302001953125
2153,-318.9779357910156,56.6800537109375,101.97398376464844,28.07916831970215
2154,-309.2355041503906,71.85282897949219,119.5328140258789,33.15421295166016
2155,-302.5859680175781,71.86030578613281,125.30722045898438,40.19270324707031
2156,-317.0743408203125,56.321022033691406,111.16665649414062,28.965524673461914
2157,-326.8167724609375,61.45216751098633,104.08328247070312,27.024517059326172
2158,-311.96563720703125,75.89192199707031,120.2546157836914,35.147579193115234
2159,-311.5505065917969,70.15491485595703,123.8486557006836,38.59950637817383
2160,-321.7342529296875,52.45022583007813,108.58612823486328,30.902793884277344
2161,-321.1283874511719,50.95052719116211,102.94261932373048,32.518428802490234
2162,-304.06695556640625,64.75450134277344,117.24773406982422,37.14094543457031
2163,-300.7945556640625,64.3094482421875,120.04143524169922,39.42228698730469
2164,-311.3223571777344,47.27794647216797,115.36656188964844,34.08544921875
2165,-319.13128662109375,39.52887344360352,100.45184326171876,29.38813400268555
2166,-302.701904296875,64.61238098144531,115.8415298461914,39.71773910522461
2167,-304.4708557128906,58.42658615112305,112.95059204101562,43.5922737121582
2168,-311.352294921875,46.62720108032226,100.16387176513672,31.32914161682129
2169,-318.4206848144531,47.83893203735352,105.54558563232422,40.05059051513672
2170,-309.45989990234375,66.81892395019531,114.4128875732422,43.90642547607422
2171,-303.3189697265625,81.18761444091797,121.5373992919922,47.67998504638672
2172,-311.75244140625,71.04875183105469,120.94649505615234,39.60927963256836
2173,-308.3117370605469,71.8154296875,121.04373168945312,39.83367538452149
2174,-301.6098327636719,81.82714080810547,134.15208435058594,47.00680160522461
2175,-294.45916748046875,84.08604431152344,141.70294189453125,49.43025588989258
2176,-306.7559509277344,71.21330261230469,125.42315673828124,41.70736312866211
2177,-318.4244384765625,62.52177810668945,119.32711791992188,36.20971298217773
2178,-305.90325927734375,80.32743835449219,125.94300079345705,35.16627883911133
2179,-299.968017578125,80.38353729248047,132.25968933105472,43.83910751342773
2180,-309.3028259277344,62.58161544799805,118.0031967163086,33.92837142944336
2181,-310.9259338378906,58.13113403320313,110.11200714111328,31.18702507019043
2182,-302.2156982421875,58.69211959838867,117.03829956054688,41.23613739013672
2183,-295.44647216796875,75.24118041992188,120.77072143554688,40.66393280029297
2184,-300.1774597167969,53.54601669311523,110.08208465576172,32.84754180908203
2185,-310.1106262207031,53.09722900390625,104.70037078857422,32.2603759765625
2186,-300.3532409667969,74.53433990478516,117.4646453857422,42.500221252441406
2187,-299.0068664550781,74.27254486083984,115.68071746826172,42.67599868774414
2188,-313.7720031738281,59.22318649291992,103.11465454101562,35.62628555297852
2189,-320.1073913574219,56.19760513305664,99.46450805664062,32.57452774047852
2190,-315.3539733886719,79.11571502685547,108.26449584960938,43.86528778076172
2191,-309.40753173828125,82.74341583251953,113.52653503417969,45.75767517089844
2192,-320.68707275390625,70.24467468261719,103.32034301757812,36.778175354003906
2193,-315.3203125,62.873329162597656,107.66985321044922,35.96661758422852
2194,-307.97515869140625,71.9388427734375,131.80342102050778,39.95335006713867
2195,-305.2599792480469,83.03138732910156,135.73779296875,36.07881546020508
2196,-303.031005859375,63.07902145385742,124.2338638305664,24.39910697937012
2197,-305.9705505371094,55.93207550048828,123.4858856201172,18.445186614990234
2198,-298.1654052734375,77.56739807128906,126.9228515625,28.21380615234375
2199,-289.3467102050781,62.94064712524414,135.54705810546878,28.83462905883789
2200,-304.94207763671875,38.335845947265625,116.36511993408205,22.936805725097656
2201,-313.3381652832031,39.79066467285156,105.01451873779295,17.214759826660153
2202,-309.02606201171875,51.47037124633789,108.04010009765624,30.38294792175293
2203,-304.5045166015625,55.03449630737305,112.37838745117188,38.56584930419922
2204,-318.641357421875,45.105064392089844,94.10523223876952,30.936452865600586
2205,-327.33660888671875,30.231481552124023,88.87311553955078,30.18473243713379
2206,-318.91436767578125,50.76727294921875,94.3408432006836,38.18811798095703
2207,-314.97625732421875,58.97261428833008,101.90666198730469,37.78421020507813
2208,-329.2252502441406,46.31679153442383,87.60154724121094,26.05962371826172
2209,-339.6147155761719,47.89128875732422,81.07916259765625,23.093881607055664
2210,-324.75982666015625,54.11822128295898,97.75163269042969,34.534236907958984
2211,-319.3500671386719,71.34980773925781,109.31727600097656,36.43784713745117
2212,-331.50848388671875,67.50893402099611,98.83807373046876,29.777084350585934
2213,-330.244384765625,49.39659881591797,99.13726806640624,27.024517059326172
2214,-319.8699035644531,68.42147064208984,114.97200775146484,35.08026123046875
2215,-305.9911193847656,67.24713897705078,123.71588897705078,41.367034912109375
2216,-312.8127136230469,60.07775115966797,115.33477783203124,30.278230667114254
2217,-324.53729248046875,51.77143478393555,110.33827209472656,31.83028793334961
2218,-308.05181884765625,68.05870056152344,123.16238403320312,39.52326202392578
2219,-305.1010437011719,74.16969299316406,130.67584228515622,46.80858612060547
2220,-319.03216552734375,48.48406219482422,113.20303344726562,34.94936370849609
2221,-321.4369201660156,44.88628005981445,112.64579010009766,30.81677627563477
2222,-312.25921630859375,60.38816452026367,121.11292266845705,42.82559585571289
2223,-303.10394287109375,64.15798187255861,119.07467651367188,44.91993713378906
2224,-319.87738037109375,54.76709365844727,104.54141998291016,34.874568939208984
2225,-320.1092529296875,43.2519416809082,97.5029296875,25.962385177612305
2226,-317.8092041015625,57.92731094360352,107.94473266601562,40.36473846435547
2227,-312.92864990234375,59.95059585571289,107.88863372802734,36.546302795410156
2228,-326.2726135253906,55.6871109008789,91.45177459716795,23.77454376220703
2229,-329.223388671875,45.98580932617188,88.63188934326172,22.420700073242188
2230,-312.4050598144531,58.46211624145508,108.25140380859376,30.42782592773437
2231,-303.3844299316406,64.66287231445311,113.85003662109376,31.12344741821289
2232,-308.28369140625,53.289833068847656,106.57966613769531,20.576929092407227
2233,-306.5596008300781,37.8590087890625,108.49076080322266,14.978299140930176
2234,-300.05218505859375,45.74271774291992,114.99818420410156,23.871782302856445
2235,-293.1595458984375,59.82344055175781,118.81288146972656,29.33951568603516
2236,-307.6217346191406,44.942378997802734,109.11531829833984,25.861408233642575
2237,-322.1587219238281,49.64717102050781,100.8576202392578,17.626148223876953
2238,-313.3325500488281,62.93877792358398,115.84339904785156,25.921247482299805
2239,-308.09295654296875,70.54946899414062,117.37676239013672,42.417945861816406
2240,-325.5246276855469,57.13071060180664,105.49884033203124,32.350135803222656
2241,-328.75592041015625,47.12273788452149,103.26985931396484,29.10016250610352
2242,-323.0974426269531,68.28309631347656,107.00228118896484,37.23070526123047
2243,-317.9625549316406,71.87339782714844,113.93231201171876,41.19873809814453
2244,-333.9992370605469,54.71099472045898,95.8723373413086,30.248310089111328
2245,-333.24005126953125,51.95843124389648,88.2242431640625,30.596120834350586
2246,-324.2455749511719,64.70027160644531,102.3573226928711,38.90991973876953
2247,-317.9363708496094,60.91175079345703,104.27589416503906,41.24361801147461
2248,-329.27947998046875,60.29092788696289,96.24258422851562,26.280277252197266
2249,-333.3148498535156,54.84563446044922,92.6036605834961,26.11572074890137
2250,-319.06207275390625,63.24918746948242,102.76496887207031,34.541717529296875
2251,-303.69482421875,70.17174530029297,114.85232543945312,43.03503036499024
2252,-311.0998229980469,51.82379531860352,104.29084777832031,30.92523193359375
2253,-315.90185546875,42.90413284301758,103.62889099121094,21.0219783782959
2254,-300.4859924316406,61.31565856933594,113.0796127319336,28.479337692260746
2255,-304.4465637207031,74.39035034179688,119.73663330078124,30.248310089111328
2256,-321.5079650878906,61.38297653198242,107.9746551513672,21.560523986816406
2257,-319.058349609375,62.781700134277344,106.93122100830078,21.62784194946289
2258,-312.7304382324219,69.85758972167969,118.47254943847656,29.833181381225586
2259,-311.9749755859375,75.02239227294922,122.57896423339844,38.30779647827149
2260,-325.9547119140625,71.76493835449219,106.72552490234376,29.71724510192871
2261,-330.4164123535156,65.04060363769531,107.2378921508789,30.50262451171875
2262,-315.32965087890625,75.68061828613281,117.77693176269531,42.028995513916016
2263,-313.02215576171875,74.73442077636719,120.06201171875,48.46536254882813
2264,-321.9044189453125,60.40312576293945,105.28192138671876,38.88747787475586
2265,-323.02264404296875,54.84189224243164,100.12086486816406,37.24940490722656
2266,-308.4519958496094,72.37454223632812,115.45819091796876,45.4584846496582
2267,-301.2115478515625,77.4495849609375,113.39002990722656,41.505409240722656
2268,-310.51641845703125,62.21697616577149,105.6933135986328,33.81991577148437
2269,-309.7460021972656,51.28524780273438,102.93326568603516,27.578022003173828
2270,-296.2449645996094,61.11744689941406,116.95415496826172,32.215499877929695
2271,-290.3471374511719,61.446556091308594,117.75823211669922,37.346641540527344
2272,-301.593017578125,55.66093063354492,103.64759063720705,24.92269325256348
2273,-311.6944885253906,53.7872428894043,95.0308609008789,14.656667709350586
2274,-299.1209411621094,73.43667602539062,119.03353881835938,28.36714172363281
2275,-302.00067138671875,76.41737365722656,119.88997650146484,29.743423461914066
2276,-316.7171630859375,68.42520904541016,109.1826400756836,27.6827392578125
2277,-318.5235290527344,67.86422729492189,108.4645767211914,25.723031997680664
2278,-307.3935852050781,81.39517974853516,119.37386322021484,34.45943832397461
2279,-306.41748046875,83.77749633789062,123.18482208251952,37.922584533691406
2280,-320.0868225097656,69.79401397705078,109.88200378417969,31.205724716186523
2281,-327.181396484375,69.68929290771484,109.2424774169922,35.297176361083984
2282,-311.6234130859375,78.8296127319336,128.05043029785156,46.1989860534668
2283,-301.8585510253906,82.35633850097656,134.8046875,54.811973571777344
2284,-313.8374328613281,51.86119079589844,117.66473388671876,44.43375015258789
2285,-312.2517395019531,49.40407943725586,113.28530883789062,42.417945861816406
2286,-295.3062438964844,65.09295654296875,125.5895767211914,49.68083190917969
2287,-287.6394348144531,60.88931274414063,127.7138442993164,42.85551452636719
2288,-299.41265869140625,51.77517318725586,110.82445526123048,30.416606903076172
2289,-305.4301452636719,55.82548522949219,103.11652374267578,29.16748046875
2290,-302.6214904785156,56.89883804321289,113.18433380126952,37.39525985717773
2291,-300.1830749511719,61.66720962524414,116.7110595703125,33.07193374633789
2292,-310.5949401855469,51.1992301940918,99.35417938232422,23.901700973510746
2293,-317.28564453125,56.01622009277344,100.79778289794922,23.70722579956055
2294,-305.00006103515625,64.31131744384766,109.8670425415039,31.05612945556641
2295,-307.943359375,78.67253875732422,115.53672790527344,33.56186294555664
2296,-324.5709533691406,67.56503295898439,103.1651382446289,22.58525657653809
2297,-328.3706970214844,69.30782318115234,103.8271026611328,24.76935768127441
2298,-317.85784912109375,86.28323364257812,120.79876708984376,36.65850067138672
2299,-310.138671875,75.97232818603516,119.43370819091795,39.8486328125
2300,-319.8175354003906,74.04254150390625,107.14813232421876,29.68358612060547
2301,-316.94903564453125,69.63319396972656,113.64807891845705,35.49913024902344
2302,-298.52630615234375,82.89488220214844,131.16950988769528,45.24530792236328
2303,-290.87445068359375,79.6785659790039,137.49368286132812,44.54968643188477
2304,-296.8022155761719,65.67638397216797,126.2926788330078,38.04226303100586
2305,-305.9200744628906,59.58782577514648,118.8989028930664,32.769004821777344
2306,-289.2513427734375,63.806434631347656,133.58174133300778,42.818115234375
2307,-288.43231201171875,70.66541290283203,133.64532470703122,49.2918815612793
2308,-303.1787414550781,61.95892333984375,123.30450439453124,39.66164016723633
2309,-312.17694091796875,59.71124267578125,106.10469818115234,32.563308715820305
2310,-301.5406494140625,71.78363800048828,122.96043395996094,43.68577194213867
2311,-297.8007507324219,68.11853790283203,122.16009521484376,43.49877548217773
2312,-310.5238952636719,65.99427795410156,107.52960205078124,31.29548263549805
2313,-318.65069580078125,62.893898010253906,101.5981216430664,34.60155487060547
2314,-308.5118408203125,70.19044494628906,112.92253875732422,41.86817932128906
2315,-305.7069091796875,82.67422485351562,115.1627426147461,45.62303924560547
2316,-324.50738525390625,66.70859527587889,107.56326293945312,32.058422088623054
2317,-329.2046813964844,64.22904205322266,101.71031951904295,33.10933303833008
2318,-317.4988098144531,77.89837646484375,115.85836029052734,40.14408493041992
2319,-311.64959716796875,76.46973419189453,119.66558074951172,39.34000778198242
2320,-319.1630554199219,60.38068389892578,107.04341888427734,31.564756393432614
2321,-320.9993591308594,59.4494514465332,110.73469543457031,34.590335845947266
2322,-300.478515625,78.05171203613281,134.37086486816406,46.84972763061523
2323,-294.1356506347656,76.75022888183594,138.38003540039062,48.1175537109375
2324,-313.6766357421875,57.2429084777832,120.2452621459961,32.185577392578125
2325,-308.717529296875,41.63256454467773,112.3204116821289,31.80036926269531
2326,-302.0642395019531,73.511474609375,122.7921371459961,41.47549057006836
2327,-305.4002380371094,62.9836540222168,123.86548614501952,41.81208038330078
2328,-323.9127502441406,51.62931823730469,107.26033020019531,40.32360076904297
2329,-324.0361633300781,43.603492736816406,107.27155303955078,37.13346481323242
2330,-318.34027099609375,79.3157958984375,117.60115051269531,43.158447265625
2331,-309.386962890625,77.8123550415039,120.91096496582031,41.16133880615234
2332,-317.603515625,58.27886199951172,104.42174530029295,28.681293487548828
2333,-325.1132507324219,51.59939956665039,99.39906311035156,23.632427215576172
2334,-312.45367431640625,71.85469818115234,114.90094757080078,29.86310195922852
2335,-306.6792907714844,76.95592498779297,125.15575408935548,36.28824996948242
2336,-313.7663879394531,57.71787643432617,108.47206115722656,23.18363952636719
2337,-310.98016357421875,53.77602005004883,107.46976470947266,22.33468246459961
2338,-299.9811096191406,69.01985168457031,123.71588897705078,33.726417541503906
2339,-296.4656066894531,68.66456604003906,130.31307983398438,39.99822998046875
2340,-312.6219787597656,54.26594924926758,109.09661865234376,24.28317070007324
2341,-314.7761535644531,53.4805679321289,112.7392807006836,36.51638412475586
2342,-305.43389892578125,62.65828323364258,126.80504608154295,42.97145080566406
2343,-301.29754638671875,63.85131072998047,125.93365478515624,47.85950088500977
2344,-316.3282165527344,58.61171340942383,111.92398834228516,40.263763427734375
2345,-316.6124572753906,53.54788589477539,109.12654113769531,37.41395950317383
2346,-306.61944580078125,71.19647216796875,120.66413116455078,51.1094741821289
2347,-306.0809020996094,77.47950744628906,122.59766387939452,51.96965026855469
2348,-318.17572021484375,58.60797119140625,114.59053802490234,35.41311264038086
2349,-323.81549072265625,55.50011444091797,109.11906433105469,35.88059997558594
2350,-314.5816955566406,66.36826324462889,117.1299285888672,40.5704345703125
2351,-308.9568786621094,77.10177612304688,117.0700912475586,40.52555465698242
2352,-319.4697265625,66.53656005859375,99.3093032836914,27.58924102783203
2353,-328.8344421386719,53.62268447875977,92.45032501220705,18.280630111694336
2354,-306.3052978515625,69.50230407714844,114.19036865234376,33.053234100341804
2355,-297.4753723144531,68.38407135009766,117.5787124633789,35.73100280761719
2356,-303.6050720214844,61.98884201049805,108.11676788330078,25.285463333129886
2357,-312.4013366699219,54.46790313720703,105.91770935058594,23.48283195495605
2358,-302.12408447265625,61.34183883666992,117.41041564941406,40.63775253295898
2359,-294.479736328125,67.72959136962889,128.58897399902344,47.16013717651367
2360,-312.790283203125,57.100791931152344,110.59632110595705,34.64269256591797
2361,-324.2306213378906,54.20610809326172,104.61248016357422,33.07193374633789
2362,-308.7586669921875,61.28573989868164,120.13680267333984,42.95648956298828
2363,-309.5028991699219,68.33919525146484,119.4224853515625,39.22032928466797
2364,-325.4386291503906,62.1309585571289,105.6671371459961,30.29693031311035
2365,-332.21905517578125,56.06483840942383,99.05873107910156,28.217544555664066
2366,-309.3383483886719,65.59784698486328,120.47713470458984,43.22576522827149
2367,-306.0547180175781,73.73960876464844,115.27493286132812,42.52640151977539
2368,-320.5505676269531,59.71498107910156,102.92205047607422,34.837169647216804
2369,-322.7159729003906,55.86288452148438,101.71031951904295,31.81532859802246
2370,-306.69049072265625,60.5938606262207,118.6782455444336,42.4665641784668
2371,-300.0260009765625,72.13519287109375,123.16612243652344,44.35147476196289
2372,-310.58746337890625,56.63704681396485,109.9904556274414,33.17291259765625
2373,-318.4412536621094,50.52978897094727,103.34465789794922,28.894466400146484
2374,-301.2003173828125,68.81790161132811,117.9826202392578,38.405033111572266
2375,-298.6160583496094,66.8095703125,117.8966064453125,36.06759643554688
2376,-311.253173828125,48.80569458007813,101.77015686035156,25.34530258178711
2377,-313.6429748535156,51.79761505126953,103.34091186523438,30.60360145568848
2378,-302.9356384277344,61.77566909790039,121.94317626953124,41.3034553527832
2379,-292.4863586425781,68.40277099609375,123.97394561767578,41.367034912109375
2380,-304.56622314453125,54.67733764648438,115.89202117919922,32.78396224975586
2381,-309.80584716796875,49.78180694580078,115.8882827758789,32.065902709960945
2382,-296.77227783203125,72.14266967773438,137.0523681640625,48.34568786621094
2383,-302.44195556640625,66.64501953125,134.86827087402344,42.26086807250977
2384,-315.7148742675781,61.0650863647461,122.30968475341795,44.81148147583008
2385,-315.09405517578125,75.31036376953125,118.79418182373048,43.2182846069336
2386,-307.2253112792969,78.2125244140625,133.82858276367188,47.23493576049805
2387,-300.9759216308594,91.05160522460938,135.52275085449222,46.90956497192383
2388,-311.7804870605469,69.50604248046875,122.56774139404295,35.6225471496582
2389,-317.83538818359375,60.2123908996582,121.49064636230469,30.775636672973636
2390,-296.1065673828125,67.72959136962889,133.85476684570312,42.840553283691406
2391,-287.45245361328125,72.7709732055664,137.93124389648438,38.60698699951172
2392,-304.128662109375,46.53557586669922,116.494140625,32.959739685058594
2393,-301.64910888671875,44.91619873046875,114.5867919921875,32.144439697265625
2394,-290.055419921875,55.56369400024414,126.69659423828124,37.48127746582031
2395,-292.2993469238281,54.31456756591797,125.8887710571289,39.57562255859375
2396,-304.820556640625,49.46765518188477,107.0172348022461,34.074230194091804
2397,-310.5799865722656,45.320106506347656,102.57423400878906,34.250003814697266
2398,-301.8024597167969,57.10827255249024,121.0306396484375,39.066993713378906
2399,-301.8174133300781,65.6651611328125,122.20497131347656,44.52724838256836
2400,-315.73358154296875,57.29900741577149,106.84519958496094,32.780223846435554
2401,-319.6006164550781,48.45040512084961,102.75749206542969,31.25808334350586
2402,-305.7031555175781,62.08234024047852,119.7590789794922,38.31527328491211
2403,-307.2215576171875,74.77555847167969,120.05452728271484,35.592628479003906
2404,-318.0971984863281,63.79895401000977,115.01314544677734,29.81074333190918
2405,-326.5755310058594,62.2506332397461,105.7082748413086,25.397661209106445
2406,-312.9211730957031,79.1736831665039,124.84908294677734,39.3549690246582
2407,-307.2664489746094,84.52922058105469,122.39944458007812,44.938636779785156
2408,-319.67169189453125,62.86771774291992,106.9573974609375,30.248310089111328
2409,-309.8843688964844,51.55451965332031,110.6112823486328,30.86539459228516
2410,-301.7874755859375,64.39360046386719,121.01568603515624,38.50600814819336
2411,-301.61920166015625,74.11359405517578,123.79442596435548,39.61302185058594
2412,-313.0763854980469,65.03685760498047,109.2424774169922,29.485370635986328
2413,-314.5985107421875,60.16003036499024,107.48846435546876,30.05009651184082
2414,-302.87017822265625,72.0454330444336,125.3838882446289,43.12478637695313
2415,-304.5157470703125,72.8532485961914,122.32090759277344,45.1368522644043
2416,-316.9883117675781,65.36222839355469,108.30750274658205,37.9599838256836
2417,-321.2069091796875,62.06364059448242,103.35961151123048,32.23419952392578
2418,-312.197509765625,73.83684539794922,121.76366424560548,41.72232437133789
2419,-304.7027282714844,86.92649841308594,122.51164245605469,47.36957168579102
2420,-328.2940368652344,68.99367523193361,106.30291748046876,29.94911956787109
2421,-321.80157470703125,66.95169067382811,106.40389251708984,35.65994644165039
2422,-303.9697265625,81.32412719726562,125.8700714111328,40.04684829711914
2423,-304.82989501953125,81.45502471923828,123.4989776611328,35.30839538574219
2424,-315.8551330566406,61.46525573730469,104.9303741455078,24.36918830871582
2425,-319.1686706542969,66.91055297851561,97.38699340820312,23.41925430297852
2426,-307.5749816894531,74.18839263916016,114.66159057617188,35.83946228027344
2427,-305.64520263671875,75.16451263427734,119.18687438964844,37.38404083251953
2428,-318.1439514160156,62.93877792358398,102.58171844482422,28.965524673461914
2429,-320.5187683105469,58.70895004272461,105.53997802734376,28.703731536865234
2430,-312.94921875,71.98185729980469,114.46337890625,43.86902618408203
2431,-306.1014709472656,78.71741485595703,122.79961395263672,48.55512237548828
2432,-320.40283203125,54.34074783325195,105.4913558959961,39.7364387512207
2433,-322.702880859375,60.75841522216797,107.99335479736328,39.05203628540039
2434,-308.09857177734375,74.14725494384766,125.0024185180664,50.32409286499024
2435,-306.2959289550781,76.89608001708984,123.86174774169922,56.35281372070313
2436,-323.8659973144531,64.80498504638672,104.2459716796875,37.20078659057617
2437,-321.82025146484375,60.61629867553711,105.70079040527344,33.94333267211914
2438,-312.8033752441406,77.23267364501953,121.39715576171876,40.9818229675293
2439,-309.6693115234375,69.42375946044922,115.54046630859376,41.56898880004883
2440,-320.93017578125,68.60846710205078,101.43730926513672,30.95889091491699
2441,-321.60333251953125,66.34208679199219,104.71345520019531,30.824254989624023
2442,-312.85198974609375,76.33509826660156,118.88768005371094,43.5698356628418
2443,-310.5594177246094,75.31410217285156,119.04849243164062,35.439292907714844
2444,-318.630126953125,67.81934356689453,105.54745483398438,31.04864883422852
2445,-316.4572448730469,66.32712554931639,104.66110229492188,27.87721443176269
2446,-305.1141357421875,77.97317504882812,118.10230255126952,41.86444091796875
2447,-300.7085266113281,81.9449462890625,123.9178466796875,34.14154815673828
2448,-312.0553894042969,58.435935974121094,104.80321502685548,27.447126388549805
2449,-311.42333984375,61.02020645141602,108.31124114990234,26.691665649414066
2450,-306.2510681152344,79.53271484375,119.96476745605469,41.640045166015625
2451,-307.8330383300781,73.90042114257812,121.38593292236328,45.357505798339844
2452,-321.4425354003906,63.02853393554688,103.4605941772461,39.24277114868164
2453,-329.1654357910156,64.06448364257811,103.50920867919922,37.18582534790039
2454,-310.0919494628906,63.72041702270508,119.6992416381836,51.27029037475586
2455,-316.47967529296875,75.85639190673828,120.9259262084961,50.02864074707031
2456,-323.32745361328125,64.00090789794922,107.88863372802734,37.20452499389648
2457,-318.9255676269531,57.64681625366211,109.03304290771484,38.65560531616211
2458,-307.06634521484375,78.26488494873047,118.51368713378906,37.75429153442383
2459,-310.03582763671875,75.46743774414062,112.2792739868164,39.8374137878418
2460,-321.4275817871094,67.73706817626953,99.74313354492188,21.33238983154297
2461,-314.8939514160156,64.31131744384766,98.31822967529295,25.012451171875
2462,-301.7295227050781,80.56492614746094,115.51428985595705,31.29922294616699
2463,-302.3054504394531,72.37080383300781,112.70562744140624,30.824254989624023
2464,-316.36749267578125,54.32204818725586,99.70947265625,24.204631805419922
2465,-315.3539733886719,54.71473693847656,97.49545288085938,31.063608169555664
2466,-303.2815856933594,60.85939025878906,113.7191390991211,47.65754699707031
2467,-308.53240966796875,76.23786163330078,110.64119720458984,50.68312454223633
2468,-323.4620666503906,64.30384063720703,97.16259765625,40.08798599243164
2469,-321.6856384277344,56.12467956542969,93.1646499633789,37.55607604980469
2470,-306.1874694824219,66.34956359863281,119.10833740234376,53.96675491333008
2471,-312.72857666015625,68.03626251220703,117.62733459472656,50.234336853027344
2472,-320.9226989746094,55.53003311157226,105.0949249267578,45.4771842956543
2473,-323.5555725097656,57.49348068237305,109.62394714355469,45.48092269897461
2474,-310.2303161621094,76.60810852050781,120.49209594726562,48.37560653686523
2475,-306.5689392089844,75.36646270751953,120.7875518798828,48.11381149291992
2476,-321.87261962890625,61.19598388671875,106.6170654296875,36.30320739746094
2477,-318.2823181152344,55.7880859375,108.37107849121094,36.64727783203125
2478,-306.9466857910156,74.77555847167969,125.33900451660156,43.92512512207031
2479,-309.2467041015625,72.07535552978516,121.90951538085938,39.50456237792969
2480,-325.8668212890625,55.38043975830078,108.14669036865234,36.03767776489258
2481,-326.6708984375,67.89788055419922,103.09782409667969,28.52795600891113
2482,-308.1621398925781,81.8402328491211,120.53323364257812,43.88024520874024
2483,-315.6643981933594,79.75336456298828,115.47315216064452,35.95166015625
2484,-323.83233642578125,63.91115188598633,102.73505401611328,30.18847274780273
2485,-319.0564880371094,63.89619064331055,108.18408966064452,34.51553726196289
2486,-309.0484924316406,80.99501037597656,120.0246124267578,41.640045166015625
2487,-311.6178283691406,69.75287628173828,119.8226547241211,44.86383819580078
2488,-323.8023986816406,55.3131217956543,110.15875244140624,35.38319396972656
2489,-325.3731689453125,56.569725036621094,102.8622055053711,31.92004585266113
2490,-303.99591064453125,79.13628387451172,125.67559814453124,43.2519416809082
2491,-313.19232177734375,82.6443099975586,122.62010192871094,42.926570892333984
2492,-323.2676086425781,65.87833404541016,110.73469543457031,30.124895095825195
2493,-324.4755859375,59.27741241455078,106.2954330444336,27.61168098449707
2494,-308.0013427734375,73.4516372680664,119.65809631347656,37.499977111816406
2495,-306.4978942871094,66.88063049316406,113.9023895263672,40.78734970092773
2496,-325.8967590332031,54.12383270263672,98.45286560058594,23.59876823425293
2497,-325.01788330078125,55.264503479003906,99.09986877441406,24.72821807861328
2498,-307.8068542480469,72.4493408203125,114.71395111083984,39.78131484985352
2499,-311.0867614746094,69.438720703125,110.73469543457031,39.68033981323242
2500,-329.3299865722656,57.826332092285156,96.90828704833984,31.60589408874512
2501,-331.5140686035156,61.517616271972656,96.34730529785156,30.379207611083984
2502,-310.90350341796875,68.18959808349611,114.69525146484376,38.30779647827149
2503,-315.7765808105469,74.66336059570312,111.0264129638672,41.13142013549805
2504,-319.3332214355469,51.86119079589844,102.68269348144531,35.360755920410156
2505,-317.7250671386719,57.13819122314453,110.60005950927734,39.80375671386719
2506,-304.6092529296875,66.386962890625,127.94571685791016,52.55681228637695
2507,-311.6290283203125,73.48529052734375,117.6198501586914,48.1175537109375
2508,-325.9678039550781,57.09705352783203,105.15476989746094,36.51264190673828
2509,-322.5682373046875,55.50385665893555,104.53020477294922,35.69734573364258
2510,-302.5074157714844,72.35958099365234,125.1071319580078,46.98810195922852
2511,-310.03582763671875,68.24943542480469,125.5297393798828,42.735836029052734
2512,-319.7259216308594,52.65779113769531,109.0816650390625,30.592382431030273
2513,-323.7575378417969,53.95179748535156,109.00312042236328,28.56535530090332
2514,-310.01715087890625,73.50025177001953,118.93255615234376,43.51373672485352
2515,-308.04620361328125,72.42316436767578,122.16383361816406,42.88169479370117
2516,-325.30584716796875,55.24206161499024,106.2168960571289,27.432167053222656
2517,-324.7972106933594,61.06134796142578,101.43730926513672,24.00267791748047
2518,-310.92218017578125,81.7803955078125,113.30400848388672,40.9406852722168
2519,-306.6287841796875,79.53645324707031,119.27662658691406,44.02984237670898
2520,-326.4016418457031,58.64537048339844,98.71839904785156,26.92728042602539
2521,-325.3020935058594,63.04723358154297,103.00432586669922,32.9410400390625
2522,-309.28411865234375,76.76519012451172,116.55772399902344,43.85032653808594
2523,-307.3917236328125,81.13713073730469,117.18602752685548,41.90184020996094
2524,-318.35711669921875,61.38671875,102.79115295410156,33.73015594482422
2525,-320.0288391113281,62.09355926513672,103.77474212646484,28.46063804626465
2526,-297.88116455078125,76.89982604980469,124.88648223876952,42.39924621582031
2527,-299.41827392578125,75.57589721679688,122.39944458007812,41.80086135864258
2528,-313.61865234375,55.03262710571289,112.11097717285156,32.948516845703125
2529,-314.6583557128906,46.89460372924805,104.545166015625,28.74861145019531
2530,-300.0016784667969,65.0780029296875,126.2702407836914,46.38597869873047
2531,-297.52587890625,58.40975570678711,123.22970581054688,41.85696029663086
2532,-321.9623718261719,53.99667739868164,102.42463684082031,35.28595733642578
2533,-321.4163513183594,58.69025039672852,104.287109375,34.42203903198242
2534,-308.0350036621094,67.9539794921875,115.42079162597656,39.23155212402344
2535,-313.1661376953125,68.85155487060547,118.40897369384766,43.19210433959961
2536,-323.4209289550781,51.73403549194336,103.2436752319336,28.39706039428711
2537,-322.7440185546875,56.67444229125977,99.65337371826172,27.26761054992676
2538,-308.5361328125,72.7298355102539,115.89949798583984,38.83885955810547
2539,-312.48919677734375,68.31674957275389,109.89321899414062,39.78131484985352
2540,-322.6954040527344,57.781455993652344,98.83433532714844,33.40478515625
2541,-317.66522216796875,64.015869140625,103.64010620117188,33.558120727539055
2542,-302.9263000488281,75.29166412353516,121.40837097167969,44.99099731445313
2543,-306.05657958984375,74.51750946044922,125.87755584716795,45.43604278564453
2544,-318.76849365234375,61.40167617797852,113.79767608642578,37.62713241577149
2545,-314.0113525390625,62.42266845703125,118.1584014892578,35.97783660888672
2546,-298.5318908691406,67.88292694091797,131.79032897949222,39.829933166503906
2547,-301.3817138671875,63.45862197875977,130.09989929199222,39.66911697387695
2548,-315.00616455078125,62.50494766235352,113.25164794921876,26.92728042602539
2549,-316.57318115234375,69.50978088378906,114.07068634033205,30.15107345581055
2550,-294.3207702636719,75.60208129882812,127.8335189819336,37.6196517944336
2551,-304.6017761230469,74.71198272705078,122.53034210205078,39.14179229736328
2552,-312.866943359375,61.52135467529297,105.96632385253906,28.58779525756836
2553,-317.4520568847656,58.925865173339844,104.14873504638672,30.92897224426269
2554,-299.37713623046875,75.25426483154297,121.12787628173828,43.62967300415039
2555,-303.8724670410156,66.24485015869139,113.71165466308594,47.81462097167969
2556,-320.6122741699219,42.87421417236328,101.20542907714844,33.89471435546875
2557,-318.02801513671875,43.68951034545898,102.66773223876952,42.72087860107422
2558,-307.75823974609375,66.07281494140625,118.11351776123048,46.53557586669922
2559,-306.68487548828125,79.46165466308594,113.12823486328124,47.16761779785156
2560,-324.95428466796875,59.39335250854492,102.35358428955078,32.623146057128906
2561,-324.85333251953125,57.86747360229492,103.18009948730469,37.01752853393555
2562,-307.6535339355469,80.95387268066406,127.7549819946289,51.96965026855469
2563,-310.26397705078125,78.74359130859375,123.1362075805664,49.42277908325195
2564,-324.733642578125,57.635597229003906,107.10325622558594,30.1473331451416
2565,-313.39801025390625,61.03142547607422,113.85003662109376,34.41082000732422
2566,-306.9504089355469,74.30807495117188,126.03836822509766,36.04141616821289
2567,-308.7306213378906,79.31954193115234,124.03378295898438,32.413711547851555
2568,-324.10906982421875,61.92526245117188,107.74652099609376,22.56281661987305
2569,-323.75006103515625,56.01248168945313,108.73011016845705,28.07542991638184
2570,-303.13946533203125,76.48469543457031,125.48112487792969,38.40129089355469
2571,-308.0125427246094,73.84806823730469,118.92507934570312,34.93814468383789
2572,-323.0619201660156,45.85491180419922,100.54721069335938,26.41865348815918
2573,-320.7207336425781,55.09994506835938,103.33343505859376,33.932113647460945
2574,-310.1517639160156,68.7169189453125,113.6780014038086,42.66477966308594
2575,-315.22308349609375,65.49312591552734,111.99504089355469,41.81582260131836
2576,-330.3547058105469,54.48660278320313,94.3913345336914,30.63352012634277
2577,-324.7785339355469,60.95288848876953,100.29663848876952,37.32794189453125
2578,-306.9616394042969,77.53560638427734,121.89456176757812,46.96566390991211
2579,-310.8735656738281,71.52184295654297,117.40293884277344,42.46282577514648
2580,-330.1377868652344,55.50385665893555,99.7468719482422,33.44966506958008
2581,-324.0828857421875,57.62811660766602,106.59088897705078,35.46547317504883
2582,-309.8899841308594,71.10298156738281,127.7961196899414,42.66851806640625
2583,-306.05657958984375,68.57854461669922,131.61082458496094,42.8592529296875
2584,-319.464111328125,63.75033569335938,116.26600646972656,31.59093475341797
2585,-319.85308837890625,70.20539855957031,118.53987121582031,31.42263984680176
2586,-302.5335998535156,79.6336898803711,137.9910888671875,38.745365142822266
2587,-311.0531005859375,74.62222290039062,131.61456298828122,31.75549125671387
2588,-322.4971923828125,53.286094665527344,108.0606689453125,26.57198905944824
2589,-317.9532165527344,65.90451812744139,113.61441802978516,29.52651023864746
2590,-304.8785095214844,79.42799377441406,121.59536743164062,44.03732299804688
2591,-319.0078430175781,73.40301513671875,113.41620635986328,36.164833068847656
2592,-331.29718017578125,57.17559051513672,97.75724792480469,24.436506271362305
2593,-328.01727294921875,65.35475158691406,101.97211456298828,35.162540435791016
2594,-310.6005554199219,73.60497283935547,114.70272827148438,53.1477165222168
2595,-320.6795959472656,75.87135314941406,106.43755340576172,40.77613067626953
2596,-330.8857727050781,58.64537048339844,99.3915786743164,33.08689498901367
2597,-323.712646484375,70.14182281494139,102.00951385498048,40.56669616699219
2598,-306.24359130859375,75.00743103027344,119.07467651367188,47.82210159301758
2599,-309.0746765136719,81.63827514648438,116.53902435302734,36.7669563293457
2600,-327.43011474609375,65.12287902832031,101.1942138671875,24.40658760070801
2601,-316.588134765625,73.34691619873047,117.1523666381836,36.49020385742188
2602,-298.6927185058594,82.45731353759766,134.23623657226562,48.09511184692383
2603,-314.55364990234375,75.99476623535156,122.3919677734375,34.511795043945305
2604,-324.2250061035156,68.20081329345703,114.41475677490234,32.46607208251953
2605,-317.9831237792969,66.67119598388672,120.32379913330078,29.582609176635746
2606,-305.00567626953125,74.016357421875,131.7117919921875,36.70337677001953
2607,-306.1201477050781,65.45947265625,123.2596206665039,37.67949295043945
2608,-324.46063232421875,47.11899948120117,100.90998077392578,22.18508720397949
2609,-318.2673645019531,61.56623458862305,107.02098083496094,29.156259536743164
2610,-307.8741760253906,77.748779296875,117.1935043334961,39.66911697387695
2611,-318.5141906738281,74.86157989501953,104.98273468017578,34.661392211914055
2612,-327.8340148925781,59.02310180664063,96.05184936523438,28.4456787109375
2613,-323.81549072265625,68.81603240966797,93.95189666748048,33.451534271240234
2614,-315.7410583496094,83.74945068359375,109.56597900390624,37.98429489135742
2615,-318.99102783203125,76.6922607421875,107.90546417236328,39.11000442504883
2616,-328.3594665527344,67.7015380859375,98.88856506347656,30.86726379394531
2617,-324.2829895019531,67.13681030273439,106.39828491210938,37.98429489135742
2618,-308.05181884765625,77.02510833740234,125.52413177490234,49.20399475097656
2619,-313.613037109375,79.42986297607422,122.31529998779295,37.35599136352539
2620,-320.5318603515625,65.62589263916016,111.89967346191406,31.95931434631348
2621,-316.1374816894531,66.66558837890625,120.65852355957031,39.30073928833008
2622,-295.7064208984375,79.77767944335938,131.76976013183594,41.92240905761719
2623,-304.128662109375,67.85487365722656,127.76058959960938,39.07260513305664
2624,-319.61932373046875,65.62963104248047,106.3608856201172,22.56094741821289
2625,-311.1409912109375,65.00881195068361,114.03515625,28.720561981201172
2626,-302.5578918457031,76.95404815673828,125.00802612304688,40.7293815612793
2627,-308.44451904296875,65.59223175048828,115.79291534423828,33.754467010498054
2628,-318.3851623535156,59.15586853027344,102.93513488769531,26.846872329711914
2629,-321.089111328125,60.60321044921875,99.9843521118164,33.331859588623054
2630,-313.23907470703125,70.83557891845703,115.36282348632812,45.639869689941406
2631,-312.3564453125,77.28690338134766,115.82656860351562,45.83434295654297
2632,-334.57891845703125,60.27409744262695,94.49417877197266,31.663862228393555
2633,-323.3330383300781,58.34804916381836,106.12901306152344,33.01770782470703
2634,-308.5193176269531,76.54266357421875,118.29490661621094,39.06512451171875
2635,-306.06591796875,69.61637115478516,117.35619354248048,33.96390151977539
2636,-316.8705139160156,61.06321716308594,104.40491485595705,28.125917434692386
2637,-310.6847229003906,68.3822021484375,110.70664978027344,33.67218780517578
2638,-297.87554931640625,79.87865447998047,125.2511215209961,45.912879943847656
2639,-294.7677001953125,64.02521514892578,122.97725677490234,42.40859603881836
2640,-320.3486022949219,45.30327987670898,106.98170471191406,32.51655960083008
2641,-314.76495361328125,59.09228897094727,108.6497039794922,37.50932693481445
2642,-305.2805480957031,70.44288635253906,119.94419860839844,43.7400016784668
2643,-310.3555908203125,65.21450805664061,112.7224578857422,43.75870132446289
2644,-326.8149108886719,54.45855331420898,103.35400390625,34.35659027099609
2645,-325.54705810546875,70.0726318359375,112.41204071044922,35.72913360595703
2646,-308.0555725097656,86.61795043945312,129.78013610839844,46.14849472045898
2647,-309.30841064453125,84.89012145996094,122.5022964477539,43.90455627441406
2648,-324.97113037109375,66.66932678222656,111.48080444335938,38.16754913330078
2649,-318.9985046386719,60.11328125,113.37319946289062,40.20205307006836
2650,-302.57659912109375,78.73798370361328,132.49903869628906,48.10820388793945
2651,-305.58349609375,75.31971740722656,124.64899444580078,43.42584991455078
2652,-313.9159851074219,63.36699676513672,115.64331817626952,35.30652618408203
2653,-306.4773254394531,69.77344512939453,116.22673797607422,37.40460968017578
2654,-294.303955078125,80.39476013183594,128.85264587402344,43.87089538574219
2655,-305.9574890136719,68.39716339111328,121.84033203125,37.804779052734375
2656,-315.5914611816406,55.06815719604492,110.63932800292969,39.154884338378906
2657,-306.7652893066406,64.04765319824219,120.62860107421876,40.55734634399414
2658,-299.9736328125,80.57427215576172,124.6115951538086,40.73685836791992
2659,-303.5190734863281,71.43022155761719,119.9554214477539,41.82143020629883
2660,-325.8649597167969,54.91482162475586,100.17134857177734,29.1730899810791
2661,-317.6895446777344,75.80216217041016,112.4457015991211,32.034114837646484
2662,-311.36163330078125,80.72386932373047,121.63837432861328,41.35768508911133
2663,-318.6731262207031,73.2814712524414,112.94684600830078,35.11952972412109
2664,-324.32037353515625,66.46363067626953,104.19922637939452,25.40701103210449
2665,-323.1946716308594,70.9926528930664,104.43109893798828,28.582185745239254
2666,-309.9217834472656,73.8237533569336,122.6257095336914,36.79126739501953
2667,-310.220947265625,77.64219665527344,119.3532943725586,36.19662094116211
2668,-314.809814453125,64.53010559082031,109.8389892578125,26.55142021179199
2669,-315.2398986816406,66.1756591796875,117.46839141845705,31.26369285583496
2670,-298.84417724609375,75.97419738769531,131.70245361328122,41.65687561035156
2671,-300.7702331542969,75.17385864257812,126.72463989257812,38.54528045654297
2672,-315.96917724609375,61.235252380371094,103.14083099365234,30.89718437194824
2673,-309.36077880859375,66.86753845214844,113.5302734375,32.019153594970696
2674,-297.8793029785156,81.11656188964844,131.9754638671875,46.32427215576172
2675,-305.75177001953125,66.30281829833984,120.46778869628906,37.7075424194336
2676,-323.0787353515625,53.078529357910156,101.90666198730469,29.32268524169922
2677,-318.19818115234375,58.24333190917969,108.2270965576172,34.704402923583984
2678,-306.8475646972656,80.57801818847656,119.9554214477539,36.15174102783203
2679,-316.9639892578125,77.39161682128906,103.82897186279295,30.313758850097656
2680,-325.8836669921875,63.8644027709961,99.97313690185548,25.268634796142575
2681,-320.7076416015625,68.43830108642578,108.48140716552734,32.83444976806641
2682,-313.09320068359375,92.53821563720705,115.99860382080078,38.95292663574219
2683,-324.6083679199219,85.72411346435547,108.67962646484376,33.49267578125
2684,-329.3916931152344,63.03414535522461,96.62218475341795,26.846872329711914
2685,-323.4265441894531,61.78875732421875,104.25906372070312,32.509078979492195
2686,-308.39215087890625,81.98795318603516,120.0937957763672,39.861724853515625
2687,-312.0647277832031,73.22911071777344,116.97472381591795,37.96933364868164
2688,-319.81005859375,55.65906143188477,109.36402130126952,25.433189392089844
2689,-315.54656982421875,64.38424682617189,116.48853302001952,36.12556457519531
2690,-298.5823974609375,78.69310760498047,128.32157897949222,44.9779052734375
2691,-300.3438720703125,68.92448425292969,124.5517578125,32.610057830810554
2692,-323.3293151855469,59.91506576538086,109.81281280517578,27.42281723022461
2693,-318.4898681640625,63.89432144165039,119.18500518798828,35.48604202270508
2694,-310.7669982910156,71.92388916015625,124.2525634765625,39.61114883422852
2695,-312.34149169921875,60.27409744262695,120.08258056640624,38.82577133178711
2696,-327.80224609375,51.00288391113281,104.01970672607422,27.52005386352539
2697,-322.51776123046875,64.14863586425781,109.48370361328124,26.506540298461914
2698,-313.5756530761719,78.77538299560547,120.32192993164062,39.95148086547852
2699,-321.769775390625,72.86260223388672,116.29405975341795,30.33619880676269
2700,-337.1145935058594,60.853782653808594,102.04129791259766,20.952789306640625
2701,-323.6846008300781,69.00302124023439,107.8905029296875,31.2749137878418
2702,-312.8089599609375,85.05093383789062,119.51785278320312,36.05450439453125
2703,-317.99993896484375,73.75270080566406,111.40601348876952,37.33354949951172
2704,-327.16644287109375,55.97321319580078,108.25701141357422,30.88970375061035
2705,-325.42364501953125,63.946678161621094,108.41783142089844,40.10481643676758
2706,-305.8826904296875,76.90169525146484,126.9228515625,42.07948303222656
2707,-306.02105712890625,75.85826110839844,126.22723388671876,39.12870407104492
2708,-318.05230712890625,55.97321319580078,113.39563751220705,25.40701103210449
2709,-311.5411376953125,70.30451202392578,121.52617645263672,34.180816650390625
2710,-306.6531066894531,75.5889892578125,125.07534790039062,37.77859878540039
2711,-306.3950500488281,66.94607543945311,119.79460906982422,36.809967041015625
2712,-326.84857177734375,46.79923629760742,102.38162994384766,22.35525131225586
2713,-315.6625061035156,62.7947883605957,107.3669204711914,28.4512882232666
2714,-302.3484802246094,86.89470672607422,129.41737365722656,41.047271728515625
2715,-320.8123474121094,81.78600311279297,118.3472671508789,32.51655960083008
2716,-331.3102722167969,64.50018310546875,107.29586029052734,28.511127471923828
2717,-327.75360107421875,77.28316497802734,114.64850616455078,38.20868682861328
2718,-312.5434265136719,86.2925796508789,126.02527618408205,56.64639282226562
2719,-323.6883544921875,79.92353057861328,114.06881713867188,41.11458969116211
2720,-329.2420959472656,55.41222763061523,107.18366241455078,35.605716705322266
2721,-322.4990539550781,52.61104202270508,113.90052032470705,36.144264221191406
2722,-306.3987731933594,77.84414672851562,123.33255004882812,46.99745178222656
2723,-309.33087158203125,69.08155822753906,118.9119873046875,39.93278121948242
2724,-324.821533203125,56.6800537109375,106.91812896728516,30.923362731933594
2725,-311.2082824707031,62.63023376464844,122.9249038696289,36.948341369628906
2726,-294.6106262207031,73.8648910522461,133.17596435546878,44.196266174316406
2727,-304.4353332519531,62.88454818725586,122.42749786376952,38.474220275878906
2728,-322.1736755371094,42.9583625793457,106.21128845214844,28.90007781982422
2729,-318.729248046875,53.19446563720703,107.62496948242188,37.15403747558594
2730,-305.5797424316406,69.51165008544922,122.00862884521484,39.05390548706055
2731,-321.3845520019531,63.44927215576172,114.22215270996094,41.24922561645508
2732,-332.3873596191406,50.868247985839844,96.92137908935548,29.23292732238769
2733,-325.9210510253906,65.65207672119139,103.3727035522461,33.28697967529297
2734,-311.5224609375,76.39680480957031,120.21721649169922,44.81709289550781
2735,-316.8293762207031,75.01304626464844,114.70460510253906,42.82746505737305
2736,-333.1652526855469,57.042823791503906,99.92825317382812,26.28588676452637
2737,-322.5700988769531,60.666786193847656,115.4563217163086,40.953773498535156
2738,-310.078857421875,80.11052703857422,129.552001953125,50.28482437133789
2739,-316.9752197265625,80.72386932373047,115.53485870361328,43.05559921264648
2740,-329.94146728515625,59.09228897094727,108.1672592163086,35.29904556274414
2741,-319.8287658691406,68.43830108642578,120.30696868896484,41.75785446166992
2742,-302.15399169921875,82.94537353515625,133.85662841796878,50.41946029663086
2743,-307.7376708984375,69.01050567626953,121.69447326660156,43.10421752929688
2744,-316.0477294921875,54.559532165527344,114.2707748413086,28.817798614501953
2745,-309.3570556640625,59.22692489624024,121.83284759521484,42.483394622802734
2746,-298.9825744628906,75.08036041259766,135.40869140625,49.92953491210938
2747,-309.6524963378906,69.36579132080078,124.5293197631836,36.72020721435547
2748,-323.6771240234375,54.09952163696289,106.92561340332031,26.33450508117676
2749,-315.0716247558594,68.40464019775389,112.93563079833984,34.259353637695305
2750,-304.0950012207031,74.29124450683594,126.12999725341795,45.950279235839844
2751,-315.8607177734375,64.5263671875,110.78892517089844,36.38735580444336
2752,-331.9572448730469,52.48388671875,99.54678344726562,20.6461181640625
2753,-320.9432678222656,59.98986434936523,106.2412109375,38.99406814575195
2754,-306.5184631347656,72.34649658203125,114.45402526855469,43.051856994628906
2755,-320.4682922363281,69.37327575683594,109.3565444946289,36.9259033203125
2756,-323.284423828125,63.01170349121094,101.30079650878906,28.8327579498291
2757,-316.8817138671875,60.8350830078125,107.849365234375,37.23257446289063
2758,-302.614013671875,77.44397735595703,120.55380249023438,42.2963981628418
2759,-318.7554016113281,63.73724365234375,111.71642303466795,30.09684562683105
2760,-329.0962219238281,58.66220092773438,103.90003204345705,23.02843475341797
2761,-319.2004699707031,60.68548583984375,113.02912902832031,29.60317802429199
2762,-304.70086669921875,76.75957489013672,126.47032928466795,38.97910690307617
2763,-315.6026916503906,59.6607551574707,116.02104949951172,36.88102340698242
2764,-326.9645080566406,50.03799057006836,106.81715393066406,28.92999649047852
2765,-321.2312316894531,68.56919860839844,117.89099884033205,41.39134216308594
2766,-312.274169921875,81.1689224243164,117.69277954101562,46.04751968383789
2767,-315.6886901855469,63.0939826965332,113.98654174804688,39.30073928833008
2768,-340.21868896484375,52.203392028808594,101.63739013671876,24.76000785827637
2769,-322.8132019042969,66.31777954101561,110.98714447021484,33.71706771850586
2770,-307.9844970703125,81.44193267822266,120.6360855102539,42.69282913208008
2771,-314.140380859375,70.7719955444336,107.28463745117188,32.17622756958008
2772,-328.66241455078125,60.12076187133789,97.0111312866211,28.14087677001953
2773,-319.84747314453125,67.29763031005861,105.5231475830078,32.0079345703125
2774,-310.9315490722656,72.1333236694336,119.5926513671875,39.13244247436523
2775,-324.2455749511719,62.08420944213867,106.56658172607422,33.01022720336914
2776,-325.73406982421875,52.4539680480957,94.02669525146484,23.30144691467285
2777,-320.4570617675781,62.84341049194336,106.56658172607422,32.688594818115234
2778,-305.396484375,78.46871185302734,117.3674087524414,38.75471496582031
2779,-316.27960205078125,68.02690887451172,108.5674285888672,33.915283203125
2780,-321.582763671875,57.23729705810547,105.48948669433594,27.318099975585934
2781,-311.40277099609375,66.32151794433594,117.11683654785156,31.11783790588379
2782,-300.7814636230469,78.18447875976562,131.30975341796878,42.16924285888672
2783,-310.54632568359375,65.75679016113281,125.45681762695312,34.857738494873054
2784,-327.46563720703125,59.97490692138672,112.7261962890625,31.177675247192386
2785,-317.0201110839844,60.56206893920898,113.05156707763672,41.38386154174805
2786,-314.2413635253906,70.66353607177734,122.85384368896484,43.48942565917969
2787,-322.0689697265625,60.71166610717773,114.48768615722656,42.18420028686523
2788,-334.5115966796875,61.90095520019531,102.1871566772461,31.78354072570801
2789,-317.8503723144531,63.97285842895508,112.41577911376952,36.10312271118164
2790,-307.3973388671875,78.25180053710938,114.64476013183594,37.08297729492188
2791,-320.34112548828125,67.05453491210939,115.00379180908205,32.931690216064446
2792,-326.1080627441406,50.71865463256836,98.66790771484376,25.06293869018555
2793,-317.2968444824219,63.0715446472168,111.22649383544922,33.178524017333984
2794,-301.8473205566406,81.47184753417969,123.6841049194336,40.78173828125
2795,-314.8023376464844,64.18229675292969,109.03865051269531,34.640823364257805
2796,-321.6949768066406,51.743385314941406,100.81087493896484,24.352357864379886
2797,-309.1737976074219,62.54421615600586,112.61399841308594,33.81430435180664
2798,-303.7135314941406,62.26746368408203,120.6959228515625,39.6261100769043
2799,-312.51727294921875,67.73893737792969,108.94515228271484,29.083332061767575
2800,-324.5672302246094,48.27275848388672,101.39055633544922,22.36273193359375
2801,-307.5132751464844,61.9682731628418,113.9902801513672,28.63080406188965
2802,-294.0047607421875,75.43939208984375,134.46249389648438,38.34706497192383
2803,-315.3446350097656,62.682594299316406,112.8084716796875,29.99586677551269
2804,-323.81549072265625,59.61213684082031,104.0533676147461,24.15788459777832
2805,-317.4913330078125,72.04730224609375,106.09909057617188,26.981508255004886
2806,-307.7339172363281,81.91690063476562,123.03710174560548,39.68594741821289
2807,-315.7971496582031,68.06804656982422,107.37813568115234,35.86376953125
2808,-333.0979309082031,51.851844787597656,96.34917449951172,29.468542098999023
2809,-317.0911560058594,59.23814392089844,111.15543365478516,42.805023193359375
2810,-307.8386535644531,73.28520965576172,113.91921997070312,46.099876403808594
2811,-315.0304870605469,65.89142608642578,111.71268463134766,39.63359069824219
2812,-323.4639587402344,52.28567123413086,99.12417602539062,30.328718185424805
2813,-320.5430908203125,70.22597503662111,105.4408721923828,39.35683822631836
2814,-305.79852294921875,74.1734390258789,119.58517456054688,46.15784454345703
2815,-313.60369873046875,65.04060363769531,106.89942932128906,36.89411163330078
2816,-323.72760009765625,50.13335800170898,95.8667221069336,33.142993927001946
2817,-320.6945495605469,70.6055679321289,107.69602966308594,38.40877151489258
2818,-301.5986328125,75.89379119873047,121.17462921142578,39.16797256469727
2819,-312.0142517089844,67.07884216308594,109.24808502197266,32.436153411865234
2820,-333.3765563964844,53.19633865356445,96.45762634277344,22.49549865722656
2821,-316.2777404785156,66.39818572998047,112.43447875976562,33.41974639892578
2822,-310.7090148925781,82.2254409790039,122.99970245361328,49.42277908325195
2823,-312.679931640625,71.05062103271484,114.8354949951172,39.90099334716797
2824,-323.4209289550781,64.0570068359375,107.13878631591795,31.751750946044922
2825,-311.0643005371094,70.55321502685547,116.2603988647461,41.86444091796875
2826,-301.5013732910156,83.92335510253906,134.75421142578122,42.72835540771485
2827,-308.27435302734375,59.85335922241211,123.68035888671876,35.44677352905273
2828,-327.69189453125,54.84189224243164,104.61061096191406,26.067102432250977
2829,-317.85595703125,70.50459289550781,116.8774871826172,39.160491943359375
2830,-310.320068359375,80.87533569335938,121.29430389404295,45.8810920715332
2831,-317.3548278808594,66.29720306396484,107.58757019042969,35.6636848449707
2832,-329.3299865722656,56.94371795654297,95.30947875976562,29.036582946777344
2833,-319.2247619628906,67.86048126220703,110.1755828857422,39.50830459594727
2834,-313.5588073730469,80.21337127685547,127.71197509765624,44.0335807800293
2835,-320.23455810546875,78.9118881225586,114.48394775390624,37.56355667114258
2836,-333.0511779785156,59.99547576904297,100.92681121826172,31.03742980957031
2837,-325.5863342285156,67.94276428222656,112.12033081054688,30.887834548950195
2838,-313.9066467285156,82.55828857421875,115.7181167602539,38.48357009887695
2839,-326.2669982910156,76.94844055175781,104.7602081298828,30.78685569763184
2840,-328.9073791503906,66.03167724609375,101.59999084472656,23.04900360107422
2841,-317.7325439453125,77.22145080566406,117.68904113769531,30.682138442993164
2842,-308.55108642578125,99.51126098632812,124.77615356445312,35.727264404296875
2843,-312.4854736328125,82.79764556884766,115.06737518310548,34.687572479248054
2844,-325.94537353515625,62.41893005371094,113.53775024414062,24.58236312866211
2845,-312.5079040527344,75.05231475830078,122.06472778320312,32.15940093994141
2846,-308.7904357910156,81.21566772460938,124.809814453125,36.40044784545898
2847,-308.9063720703125,73.64611053466797,119.25979614257812,33.326248168945305
2848,-317.20147705078125,49.31806182861328,111.67153930664062,23.961538314819336
2849,-318.48052978515625,64.16920471191406,117.79376220703124,31.564756393432614
2850,-300.3569641113281,74.02010345458984,133.32182312011722,41.22865676879883
2851,-306.4006652832031,60.01417541503906,114.98135375976562,37.26436233520508
2852,-319.1275329589844,48.75707626342773,104.28150177001952,29.821962356567386
2853,-319.5389099121094,59.18017578125,112.52050018310548,41.6437873840332
2854,-306.36700439453125,72.0267333984375,123.96459197998048,47.074119567871094
2855,-323.5780029296875,61.33061981201172,107.93912506103516,37.17086410522461
2856,-329.55438232421875,63.503501892089844,95.724609375,28.7860107421875
2857,-322.81134033203125,74.5923080444336,106.45438385009766,36.70711898803711
2858,-313.9290771484375,86.95267486572266,120.0339584350586,45.32384872436523
2859,-323.24517822265625,74.08741760253906,116.840087890625,33.31502914428711
2860,-328.8475341796875,63.6568374633789,105.95697784423828,26.00352478027344
2861,-322.55328369140625,72.27356719970703,111.65283966064452,30.84295463562012
2862,-310.58184814453125,87.65577697753906,123.81874084472656,41.116458892822266
2863,-306.2996826171875,56.40143203735352,117.73766326904295,34.287403106689446
2864,-325.84814453125,54.34074783325195,103.776611328125,26.63182830810547
2865,-317.04815673828125,75.97232818603516,114.73078155517578,28.58405494689941
2866,-304.1043701171875,85.25102233886719,132.49530029296878,37.89640808105469
2867,-313.383056640625,67.47527313232422,116.91487884521484,24.12235450744629
2868,-324.393310546875,67.16112518310547,105.45208740234376,19.50357818603516
2869,-316.0870056152344,70.88232421875,117.45716857910156,27.46956443786621
2870,-302.82904052734375,79.75336456298828,122.83140563964844,39.766357421875
2871,-326.2370910644531,69.89125061035156,107.509033203125,28.68503189086914
2872,-335.4222717285156,57.38876342773438,93.3161163330078,24.95261192321777
2873,-324.53167724609375,73.73212432861328,105.42964935302734,30.588642120361328
2874,-316.9584045410156,87.04617309570312,117.95831298828124,36.80435562133789
2875,-324.5915222167969,76.94096374511719,104.65174865722656,27.716398239135746
2876,-331.7347412109375,68.15593719482422,91.65185546875,18.82291603088379
2877,-317.455810546875,69.93612670898439,110.32891845703124,30.21465110778809
2878,-307.4627990722656,86.07379913330078,119.72354888916016,38.37885284423828
2879,-317.5904235839844,71.7686767578125,112.07545471191406,26.32141494750977
2880,-328.09954833984375,58.87724685668945,103.53352355957031,24.013896942138672
2881,-311.42333984375,73.20480346679688,114.0164566040039,27.248910903930664
2882,-302.8627014160156,71.6265640258789,123.6654052734375,34.545455932617195
2883,-310.03582763671875,59.18391799926758,109.0760498046875,25.319122314453125
2884,-323.9258117675781,53.76106262207031,98.90352630615234,21.02571678161621
2885,-312.0628662109375,69.3975830078125,109.02369689941406,24.152273178100586
2886,-306.6773986816406,82.87244415283203,116.64935302734376,35.20741653442383
2887,-316.9733581542969,60.48914337158203,112.0268325805664,32.331436157226555
2888,-330.61651611328125,56.01248168945313,99.59540557861328,23.037784576416016
2889,-322.4036865234375,76.14810180664062,108.81800079345705,34.246265411376946
2890,-310.4920959472656,80.68833923339844,115.07111358642578,43.9737434387207
2891,-323.8435363769531,63.61195755004883,104.19174194335938,37.922584533691406
2892,-334.65185546875,59.86457824707031,99.2588119506836,32.30525588989258
2893,-316.3114013671875,68.28683471679689,112.7860336303711,36.011497497558594
2894,-312.3134460449219,72.90934753417969,117.52822875976562,40.974342346191406
2895,-318.2561340332031,76.2827377319336,110.68795013427734,33.374866485595696
2896,-328.87371826171875,54.09391403198242,95.60867309570312,21.519384384155273
2897,-313.4952392578125,78.75481414794922,118.8259735107422,33.07193374633789
2898,-298.6403503417969,87.25560760498047,127.73441314697266,37.458839416503906
2899,-307.3580627441406,69.31904602050781,122.56961059570312,26.87866020202637
2900,-313.18109130859375,59.12407684326172,115.95372772216795,24.48886489868164
2901,-310.9109802246094,73.0477294921875,123.93467712402344,30.016437530517575
2902,-303.3376770019531,86.66470336914062,137.34970092773438,37.08110809326172
2903,-317.33612060546875,65.67638397216797,117.6254653930664,27.30126953125
2904,-327.609619140625,56.67444229125977,109.93248748779295,27.170373916625977
2905,-319.5912780761719,66.93299102783203,118.8521499633789,35.435550689697266
2906,-311.9992980957031,71.86217498779297,121.33544158935548,44.4150505065918
2907,-317.6278381347656,67.88666534423828,113.68734741210938,40.454498291015625
2908,-325.16748046875,49.2208251953125,107.0677261352539,31.65451240539551
2909,-315.2156066894531,69.70799255371094,116.69796752929688,42.91535186767578
2910,-306.1463317871094,81.30542755126953,123.79255676269531,45.33506774902344
2911,-320.0026550292969,72.3072280883789,108.43653106689452,37.18582534790039
2912,-333.90386962890625,56.94745635986328,95.45533752441406,17.708425521850586
2913,-314.4938049316406,78.26488494873047,115.9612045288086,33.76381683349609
2914,-305.89202880859375,89.18913269042969,120.3518524169922,35.27847671508789
2915,-315.3838806152344,71.3460693359375,113.29840087890624,31.01873016357422
2916,-324.17266845703125,63.80269241333008,107.509033203125,27.86225509643555
2917,-310.5332336425781,76.82128143310547,120.04891967773438,38.13576126098633
2918,-303.60321044921875,84.74239349365234,131.67626953125,42.10379409790039
2919,-312.44805908203125,67.55381011962889,120.52762603759766,37.04370880126953
2920,-324.569091796875,56.10223770141602,99.39344787597656,26.48223114013672
2921,-315.5260009765625,67.60617065429689,116.49227142333984,32.80640411376953
2922,-306.1650390625,78.12651062011719,127.6446533203125,48.06519317626953
2923,-321.56219482421875,75.43003845214844,110.04468536376952,32.787704467773445
2924,-328.0097961425781,57.635597229003906,101.31201934814452,25.86888885498047
2925,-314.1983337402344,77.93951416015625,115.3777847290039,34.433258056640625
2926,-308.54736328125,89.78003692626953,121.08113098144531,39.35870742797852
2927,-320.6795959472656,73.20480346679688,108.7132797241211,33.905933380126946
2928,-329.1803894042969,64.17294311523439,101.98146057128906,28.33348274230957
2929,-314.9837341308594,73.81440734863281,112.23626708984376,38.247955322265625
2930,-304.392333984375,86.39168548583984,129.11444091796878,42.63486099243164
2931,-316.8274841308594,69.00863647460939,117.79750061035156,33.45714569091797
2932,-319.5763244628906,57.80763244628906,107.46041870117188,23.48283195495605
2933,-311.81976318359375,79.23725891113281,118.4856414794922,33.034534454345696
2934,-298.2813415527344,80.6995620727539,131.98294067382812,43.04624938964844
2935,-309.1868896484375,72.64381408691406,124.54428100585938,34.279922485351555
2936,-314.0450134277344,63.60447692871094,116.85504150390624,30.3418083190918
2937,-304.7738037109375,75.66939544677734,128.07473754882812,42.20476913452149
2938,-299.8371276855469,79.37189483642578,132.944091796875,46.88712692260742
2939,-312.0740966796875,76.13688659667969,123.108154296875,35.633766174316406
2940,-327.5797119140625,58.66781234741211,108.4926300048828,21.16783332824707
2941,-310.6192626953125,67.35559844970703,124.95940399169922,31.85272789001465
2942,-300.1250915527344,87.59219360351562,134.50363159179688,36.55004119873047
2943,-314.55364990234375,64.26270294189453,119.06158447265624,27.74257850646973
2944,-326.8279724121094,61.01272964477539,110.47477722167969,24.68334007263184
2945,-313.6710205078125,71.45079040527344,118.88207244873048,35.52904891967773
2946,-304.9196472167969,84.5965347290039,123.3288116455078,40.020668029785156
2947,-318.9667053222656,67.92780303955078,104.46849822998048,28.752351760864254
2948,-324.8682861328125,61.26330184936523,95.02899169921876,23.09014320373535
2949,-311.27374267578125,72.61016082763672,112.53546142578124,33.550643920898445
2950,-303.6106872558594,69.27042388916016,117.49456787109376,36.62110137939453
2951,-316.47967529296875,67.22843933105469,105.50818634033205,30.988811492919922
2952,-322.8487243652344,65.22759246826172,98.28269958496094,24.571142196655273
2953,-310.2901611328125,72.0865707397461,112.34846496582031,35.9815788269043
2954,-299.029296875,78.56407928466797,125.93926239013672,42.36184692382813
2955,-311.341064453125,68.84407806396484,112.95059204101562,31.729310989379886
2956,-314.0001220703125,68.8927001953125,110.0746078491211,28.88698768615723
2957,-308.0649108886719,74.52872467041016,122.00862884521484,36.84923553466797
2958,-297.0995178222656,84.91816711425781,132.49156188964844,44.19813919067383
2959,-319.58380126953125,74.12481689453125,115.0972900390625,30.97759056091309
2960,-325.22357177734375,67.79690551757811,104.38621520996094,24.79927635192871
2961,-314.8191833496094,80.22085571289062,120.23217010498048,34.20886611938477
2962,-313.69720458984375,86.69461822509766,129.39118957519528,39.33252716064453
2963,-324.1950988769531,64.76384735107422,112.17642974853516,27.50322341918945
2964,-328.1481628417969,66.33834838867189,107.45293426513672,29.062763214111328
2965,-318.55908203125,80.33305358886719,118.79978942871094,30.67091941833496
2966,-308.5361328125,76.68290710449219,124.05809020996094,41.80834197998047
2967,-322.07830810546875,69.38636016845703,99.23263549804688,29.71350479125977
2968,-331.31585693359375,54.2210693359375,98.57815551757812,26.568248748779297
2969,-313.4840393066406,73.30577850341797,107.65863037109376,31.80036926269531
2970,-307.51141357421875,81.17826843261719,114.6784210205078,38.07966232299805
2971,-317.115478515625,62.73682022094727,104.97711944580078,32.84006118774414
2972,-321.08349609375,56.70810317993164,102.4078140258789,28.65885353088379
2973,-309.1681823730469,76.33135986328125,117.3225326538086,37.96746444702149
2974,-303.7715148925781,79.98898315429688,124.74623107910156,41.11272048950195
2975,-313.6672668457031,60.496620178222656,116.93357849121094,33.243968963623054
2976,-320.85162353515625,69.66685485839844,111.80243682861328,24.8366756439209
2977,-317.4857177734375,80.10491943359375,126.56756591796876,33.281368255615234
2978,-311.56170654296875,92.24089050292969,131.98294067382812,36.688419342041016
2979,-326.8952941894531,76.0994873046875,118.9157257080078,31.48247718811035
2980,-334.0871276855469,71.84347534179688,112.54293823242188,27.31996917724609
2981,-316.9209899902344,73.1935806274414,120.6734848022461,31.08978843688965
2982,-313.9926452636719,90.80103302001952,128.46369934082028,35.03912353515625
2983,-326.05755615234375,75.63199615478516,109.64077758789062,18.991212844848636
2984,-332.4939270019531,72.75601196289062,101.3419418334961,16.418161392211914
2985,-316.9920654296875,76.1181869506836,113.39189910888672,30.1772518157959
2986,-312.0927734375,79.7571029663086,116.07340240478516,37.46631622314453
2987,-322.09326171875,67.17982482910156,102.35919189453124,25.61831474304199
2988,-323.2563781738281,67.75202941894531,101.48405456542969,28.84584808349609
2989,-316.0346374511719,70.21288299560547,111.33869171142578,34.9306640625
2990,-303.72662353515625,78.30976867675781,120.32566833496094,39.54196166992188
2991,-314.7705383300781,60.36572647094727,106.96300506591795,31.987363815307614
2992,-320.42529296875,57.60567855834961,104.90606689453124,25.644493103027344
2993,-311.44952392578125,72.88317108154297,119.15882110595705,38.27413558959961
2994,-299.9493408203125,74.9363784790039,122.82018280029295,34.59781265258789
2995,-316.01220703125,73.01033020019531,114.3119125366211,31.17206573486328
2996,-330.90447998046875,71.82477569580078,104.54329681396484,25.63327407836914
2997,-312.6612548828125,86.14111328125,126.50772857666016,39.51204299926758
2998,-309.4561462402344,84.73117065429688,130.95072937011722,43.300559997558594
2999,-323.4471130371094,68.29057312011719,121.30552673339844,28.273643493652344
3000,-325.98651123046875,55.84792709350586,112.52050018310548,28.2399845123291
3001,-313.3194580078125,79.1923828125,121.09235382080078,35.51034927368164
3002,-305.79852294921875,83.39228820800781,126.5189437866211,28.61397361755371
3003,-320.55242919921875,62.2207145690918,104.4348373413086,18.729419708251953
3004,-329.58428955078125,67.86796569824219,96.4501495361328,10.535298347473145
3005,-312.44805908203125,79.00538635253906,111.44715118408205,26.96841812133789
3006,-308.0237731933594,88.72164916992188,118.53800201416016,32.13695907592773
3007,-321.20318603515625,69.11708831787111,101.56632995605469,19.34650230407715
3008,-322.4934387207031,60.59759902954102,96.487548828125,22.7236328125
3009,-307.7320556640625,68.78797912597656,117.93587493896484,34.70627212524414
3010,-303.63311767578125,76.7053451538086,117.0644760131836,39.48960494995117
3011,-312.866943359375,64.24400329589844,111.15169525146484,31.276782989501953
3012,-318.805908203125,62.69194412231445,102.6097640991211,32.963478088378906
3013,-313.6934509277344,80.635986328125,125.83828735351562,40.551734924316406
3014,-307.7358093261719,84.56288146972656,127.61847686767578,41.3034553527832
3015,-326.1286315917969,66.00362396240234,113.95475006103516,35.742225646972656
3016,-329.3411865234375,69.16010284423828,108.92084503173828,28.25494384765625
3017,-321.188232421875,78.52854919433594,122.74725341796876,34.919445037841804
3018,-312.3171691894531,86.53193664550781,129.03402709960938,40.630271911621094
3019,-321.8651428222656,66.75160217285156,113.49848175048828,22.01679039001465
3020,-328.3837890625,59.18578720092773,102.83602905273438,21.855976104736328
3021,-311.0830078125,72.5185317993164,124.87899780273438,31.90134620666504
3022,-302.74676513671875,81.74860382080078,130.57861328125,41.03792190551758
3023,-319.2920837402344,58.55374526977539,104.81817626953124,27.009557723999023
3024,-323.4321594238281,53.57967758178711,100.42005157470705,29.96407890319824
3025,-311.98431396484375,75.47679138183594,115.80599975585938,37.690711975097656
3026,-303.3937683105469,71.84534454345703,121.33357238769531,35.42059326171875
3027,-317.45953369140625,62.80601119995117,106.34031677246094,32.68672561645508
3028,-328.3763122558594,53.29170608520508,101.46722412109376,27.155412673950195
3029,-308.4987487792969,70.24467468261719,116.8756103515625,43.81666946411133
3030,-306.7596740722656,74.49319458007812,122.62384033203124,45.54450225830078
3031,-320.156005859375,63.09024047851562,109.2424774169922,43.5511360168457
3032,-324.5354309082031,51.49655151367188,107.596923828125,37.51493835449219
3033,-313.7046813964844,80.58175659179688,123.10254669189452,47.28355407714844
3034,-308.5772705078125,87.54170989990234,125.0846939086914,50.5073471069336
3035,-324.6925048828125,66.62445068359375,118.86898040771484,40.48441696166992
3036,-322.4934387207031,66.61322784423828,119.02605438232422,37.1783447265625
3037,-313.53265380859375,86.15420532226562,127.29497528076172,38.76780319213867
3038,-310.6566467285156,80.42842102050781,134.13151550292972,39.19041061401367
3039,-320.75811767578125,70.82809448242188,120.57063293457031,30.584901809692386
3040,-322.0259704589844,62.491859436035156,118.60344696044922,23.9091796875
3041,-311.0418701171875,79.78141784667969,129.16493225097656,35.21489715576172
3042,-302.9375,83.67465209960938,132.856201171875,36.65102005004883
3043,-307.18975830078125,58.93147277832031,122.17131042480469,35.97035598754883
3044,-315.45867919921875,54.26781845092773,116.5315399169922,29.26471710205078
3045,-296.3627624511719,65.34540557861328,126.68537139892578,36.770694732666016
3046,-295.1959228515625,73.8274917602539,140.76609802246094,45.77637481689453
3047,-309.9161682128906,44.55155944824219,122.80335235595705,37.34289932250977
3048,-321.1994323730469,50.71491241455078,110.5477066040039,29.05154228210449
3049,-314.3404541015625,67.25649261474611,120.29014587402344,45.76141738891602
3050,-307.1448974609375,78.18074035644531,127.14911651611328,50.63824462890625
3051,-321.7679138183594,66.41127014160156,109.4818344116211,34.55667495727539
3052,-328.7054138183594,61.2464714050293,105.32305908203124,33.55438232421875
3053,-317.92327880859375,74.72132873535156,120.72770690917969,41.60264587402344
3054,-307.4515686035156,86.15794372558594,120.53323364257812,38.86878204345703
3055,-326.1361083984375,58.85293579101562,109.74736785888672,24.37292861938477
3056,-323.4658203125,52.68210220336914,98.96149444580078,18.83039665222168
3057,-307.5562744140625,68.29244232177734,113.19929504394531,30.15481376647949
3058,-300.22235107421875,80.45085906982422,122.24984741210938,31.871427536010746
3059,-318.0018310546875,65.10604858398439,106.12339782714844,22.734851837158203
3060,-317.54180908203125,52.55120468139648,112.29049682617188,21.90459442138672
3061,-303.4423828125,68.61407470703125,122.90807342529295,33.247711181640625
3062,-300.72723388671875,76.651123046875,127.58294677734376,39.96083068847656
3063,-319.20233154296875,61.429725646972656,111.92398834228516,32.65680694580078
3064,-319.0340270996094,53.21316528320313,100.1507797241211,29.58634948730469
3065,-311.165283203125,62.32730102539063,110.7533950805664,41.18377685546875
3066,-307.62359619140625,68.25878143310547,111.74073028564452,42.42916488647461
3067,-321.352783203125,54.67546844482422,100.35647583007812,30.416606903076172
3068,-327.8601989746094,53.87138748168945,95.92469024658205,29.537729263305664
3069,-318.289794921875,68.56545257568361,108.29254150390624,41.67744445800781
3070,-309.0185852050781,76.4342041015625,117.26082611083984,45.07327270507813
3071,-332.8978576660156,58.88285446166992,94.18937683105469,22.323463439941406
3072,-330.07049560546875,60.19181823730469,94.57459259033205,27.30126953125
3073,-320.98626708984375,71.71070861816406,107.3987045288086,31.97614479064941
3074,-309.02606201171875,75.61516571044922,113.43116760253906,33.621700286865234
3075,-321.1134338378906,61.80371856689453,109.27613830566406,20.849943161010746
3076,-325.5040588378906,59.89636611938477,99.88898468017578,24.53374290466309
3077,-306.00048828125,80.72013092041016,120.27518463134766,31.90882682800293
3078,-305.72747802734375,88.03163146972656,129.7633056640625,39.84489440917969
3079,-314.5349426269531,66.50476837158203,117.90408325195312,31.370281219482425
3080,-321.3714599609375,60.1245002746582,113.61067962646484,26.54581069946289
3081,-311.2101745605469,77.64967346191406,127.50067138671876,42.01029586791992
3082,-304.57183837890625,78.33033752441406,129.63615417480472,45.30888748168945
3083,-320.1971435546875,58.86041641235352,115.59656524658205,34.26870346069336
3084,-330.1078796386719,55.64784240722656,103.6251449584961,26.160600662231445
3085,-304.7251892089844,74.0444107055664,115.17769622802734,38.48357009887695
3086,-311.1017150878906,75.970458984375,114.1454849243164,39.399845123291016
3087,-324.3072814941406,63.07902145385742,102.26382446289062,37.294281005859375
3088,-328.39501953125,55.8759765625,99.15222930908205,28.86080741882324
3089,-320.2569885253906,67.67162322998047,113.39376831054688,38.83138275146485
3090,-305.1515197753906,64.76945495605469,117.71709442138672,40.40961837768555
3091,-335.0258483886719,57.50657272338867,93.96124267578124,27.08061599731445
3092,-326.8990478515625,53.37024307250977,92.502685546875,23.782024383544922
3093,-311.73748779296875,70.74955749511719,108.95450592041016,28.58405494689941
3094,-316.6292724609375,80.6079330444336,119.06719207763672,36.015235900878906
3095,-318.3085021972656,69.29847717285156,108.49449920654295,21.306209564208984
3096,-328.4735412597656,64.69091796875,100.97730255126952,18.692020416259766
3097,-312.7622375488281,82.23853302001953,120.33502197265624,29.21609878540039
3098,-292.843505859375,79.07457733154297,125.98226928710938,33.101856231689446
3099,-311.412109375,61.007118225097656,112.0548858642578,22.5590763092041
3100,-329.84234619140625,57.615028381347656,111.40039825439452,20.52457046508789
3101,-310.43975830078125,69.78092193603516,120.8623504638672,37.19330596923828
3102,-293.4231872558594,70.26336669921875,129.35191345214844,43.91764450073242
3103,-317.0032653808594,58.33308792114258,106.99479675292969,34.65765380859375
3104,-321.18072509765625,47.79405212402344,109.0816650390625,34.545455932617195
3105,-305.1964111328125,70.95525360107422,115.7125015258789,40.24506378173828
3106,-312.0927734375,68.61033630371094,122.5565185546875,48.33446884155274
3107,-318.60394287109375,55.745079040527344,104.12255096435548,33.288848876953125
3108,-329.5693359375,59.37652206420898,104.1823959350586,39.82245635986328
3109,-310.20037841796875,70.0726318359375,116.50910186767578,48.73089599609375
3110,-307.5188903808594,68.09049224853516,121.96561431884766,45.8810920715332
3111,-328.48101806640625,51.130043029785156,107.9821319580078,25.64823341369629
3112,-318.4169616699219,53.587158203125,110.2896499633789,28.92812538146973
3113,-304.474609375,74.27254486083984,121.71878051757812,36.57248306274414
3114,-298.4010009765625,71.96128845214844,124.29931640625,35.73474502563477
3115,-315.38763427734375,45.7296257019043,108.63661193847656,25.08350944519043
3116,-325.8705749511719,62.23380661010742,101.48592376708984,15.898314476013185
3117,-301.31439208984375,76.28086853027344,123.75328826904295,32.843799591064446
3118,-301.0899963378906,80.95574188232422,117.81058502197266,30.51010322570801
3119,-323.5705261230469,58.837974548339844,107.60440063476562,20.576929092407227
3120,-321.28546142578125,51.511512756347656,108.93206787109376,24.32804870605469
3121,-294.01409912109375,85.24915313720703,128.24864196777344,36.57995986938477
3122,-323.1741027832031,92.9533462524414,123.52515411376952,41.95793914794922
3123,-324.4344482421875,69.41067504882811,111.23958587646484,30.420345306396484
3124,-333.4476013183594,73.31513214111328,109.23125457763672,35.83946228027344
3125,-308.5997009277344,80.77249145507812,126.64049530029295,46.87590789794922
3126,-313.042724609375,68.13910675048828,130.43275451660156,54.41554260253906
3127,-320.56365966796875,64.07383728027344,111.8978042602539,33.88723373413086
3128,-336.20391845703125,61.044517517089844,98.95775604248048,36.3443489074707
3129,-307.2720642089844,77.6197509765625,116.05657196044922,48.50650405883789
3130,-310.1368103027344,80.0843505859375,116.8120346069336,39.45968627929688
3131,-313.207275390625,61.10435485839844,98.9278335571289,30.57368278503418
3132,-330.45196533203125,54.140663146972656,92.16609191894531,25.76043128967285
3133,-307.1561279296875,66.29533386230469,106.9386978149414,26.18303871154785
3134,-313.40924072265625,77.60479736328125,114.23150634765624,31.26556396484375
3135,-320.6085205078125,60.71540451049805,100.4312744140625,13.156968116760256
3136,-297.8138427734375,59.21196746826172,98.77449798583984,15.333589553833008
3137,-320.6795959472656,73.49464416503906,112.0735855102539,29.571388244628906
3138,-319.87176513671875,79.20921325683594,117.51139831542969,28.69251251220703
3139,-302.97491455078125,51.95655822753906,110.91795349121094,19.017391204833984
3140,-340.5721130371094,71.84534454345703,100.13581848144531,16.586456298828125
3141,-327.21319580078125,86.22526550292969,110.82071685791016,26.32141494750977
3142,-321.98480224609375,92.9757843017578,123.36808013916016,31.36280059814453
3143,-337.4866943359375,71.5760726928711,103.13522338867188,25.483678817749023
3144,-318.56280517578125,63.61382675170898,110.4093246459961,34.57163619995117
3145,-324.5391540527344,88.27472686767578,124.2806167602539,40.13286590576172
3146,-313.72711181640625,85.70915985107422,129.54640197753906,42.95648956298828
3147,-317.8260498046875,65.08361053466797,119.91989135742188,30.397907257080078
3148,-316.6891174316406,62.54421615600586,115.95933532714844,30.416606903076172
3149,-294.7134704589844,72.75414276123047,122.8370132446289,34.70627212524414
3150,-303.61444091796875,66.90119934082031,124.6807861328125,33.670318603515625
3151,-306.5502624511719,48.48967361450195,110.94039154052734,16.175067901611328
3152,-310.3799133300781,55.99191284179688,103.72986602783205,18.613481521606445
3153,-292.79864501953125,73.89855194091797,118.18457794189452,23.42673301696777
3154,-312.24237060546875,74.4221420288086,111.60235595703124,23.94657897949219
3155,-317.0593566894531,54.64554977416992,101.50088500976562,14.641708374023438
3156,-315.4886169433594,53.83398818969727,98.43042755126952,11.42165470123291
3157,-317.9943542480469,71.99494171142578,111.63975524902344,26.358814239501953
3158,-306.28472900390625,73.12439727783203,117.11870574951172,26.31019592285156
3159,-310.0545349121094,59.249366760253906,105.4090805053711,16.324663162231445
3160,-331.39813232421875,65.30800628662111,108.12799072265624,28.30356216430664
3161,-311.7861022949219,75.71988677978516,119.97599029541016,33.22901153564453
3162,-320.6683654785156,88.38692474365234,127.00326538085938,42.88543319702149
3163,-326.4951477050781,67.76885986328125,114.41101837158205,25.97360610961914
3164,-303.4760437011719,65.92508697509766,121.12039947509766,32.22671890258789
3165,-319.6997375488281,81.52046966552734,136.43154907226562,47.7248649597168
3166,-304.8560791015625,74.5679931640625,135.45918273925778,44.90871810913086
3167,-309.1644287109375,59.72807312011719,122.7322998046875,29.19365882873535
3168,-311.845947265625,51.76956558227539,115.22257995605469,27.83607482910156
3169,-303.1656494140625,71.06745147705078,121.90577697753906,33.93585205078125
3170,-289.627197265625,60.61442947387695,119.3177719116211,28.535436630249023
3171,-320.39910888671875,52.4726676940918,105.47639465332031,17.532651901245114
3172,-308.6670227050781,57.70478820800781,101.31015014648438,10.613836288452148
3173,-288.47906494140625,66.37013244628906,112.94123840332031,18.66209983825684
3174,-319.84185791015625,72.48487091064453,117.67594909667969,24.716999053955078
3175,-305.3796691894531,58.34056854248047,100.68558502197266,17.977699279785156
3176,-320.14105224609375,56.72867202758789,100.92494201660156,18.03379821777344
3177,-310.04705810546875,72.40633392333984,114.19784545898438,28.22128486633301
3178,-309.99468994140625,81.0305404663086,120.1031494140625,31.430118560791016
3179,-327.8714294433594,62.22258377075195,96.80357360839844,17.970218658447266
3180,-324.13153076171875,67.53697967529297,106.42633056640624,24.735698699951172
3181,-301.7444763183594,80.11426544189453,127.5343246459961,38.37137222290039
3182,-306.3333435058594,78.25553894042969,130.25697326660156,39.63172149658203
3183,-289.5262145996094,63.082763671875,117.60115051269531,26.938499450683594
3184,-332.0414123535156,68.73748779296875,109.02182006835938,18.50128555297852
3185,-307.88165283203125,84.10474395751953,123.49149322509766,39.82245635986328
3186,-301.6921081542969,80.47329711914062,129.75582885742188,30.723278045654297
3187,-317.5380859375,68.91700744628906,112.50740814208984,20.03838348388672
3188,-325.1600036621094,70.06889343261719,114.53817749023438,21.12669563293457
3189,-308.9924011230469,72.04730224609375,127.51937103271484,30.831735610961914
3190,-302.1820373535156,81.89820098876953,123.16238403320312,29.777084350585934
3191,-310.8885192871094,64.08505249023439,106.1084442138672,15.71131992340088
3192,-309.3851013183594,67.35372924804689,100.3676986694336,16.620115280151367
3193,-318.1962890625,84.61710357666016,115.72746276855469,26.01100349426269
3194,-300.3121032714844,86.6703109741211,119.4000473022461,30.345548629760746
3195,-323.2825622558594,69.1451416015625,104.70223999023438,22.876968383789066
3196,-325.1076354980469,62.25624465942383,103.30725860595705,17.341917037963867
3197,-298.8011779785156,92.7775650024414,121.2886962890625,29.14504051208496
3198,-317.3959655761719,95.91160583496094,120.07696533203124,28.79348945617676
3199,-320.3691711425781,76.4155044555664,108.83108520507812,15.939454078674315
3200,-320.82171630859375,62.29738235473633,115.30859375,25.25180435180664
3201,-309.1382751464844,91.31900787353516,118.2556381225586,34.511795043945305
3202,-310.21160888671875,89.44905853271484,125.25672912597656,39.51204299926758
3203,-312.7622375488281,63.27349853515625,117.72830963134766,32.05094146728516
3204,-310.1517639160156,72.42129516601562,118.58474731445312,32.26411819458008
3205,-314.1684265136719,92.9533462524414,129.14622497558594,41.6737060546875
3206,-299.2237854003906,96.5286865234375,137.04862976074222,44.3552131652832
3207,-334.0310363769531,79.34758758544922,116.87935638427734,31.2917423248291
3208,-326.92523193359375,76.68852233886719,109.75858306884766,24.76561737060547
3209,-304.9757385253906,93.66766357421876,121.70008087158205,38.158199310302734
3210,-316.434814453125,90.35037231445312,127.08554077148438,35.03538131713867
3211,-323.4246826171875,72.14080047607422,112.7168426513672,22.31224250793457
3212,-311.0605773925781,69.79588317871094,114.59053802490234,23.87552070617676
3213,-312.34710693359375,73.34130859375,125.742919921875,31.602153778076172
3214,-305.76861572265625,76.34070587158203,118.7605209350586,31.21694564819336
3215,-315.9785461425781,69.72482299804689,104.98273468017578,16.82954978942871
3216,-317.13604736328125,65.13597106933594,102.54805755615234,17.596229553222656
3217,-300.80389404296875,82.46292114257812,119.5832977294922,22.301023483276367
3218,-288.8736267089844,82.66861724853516,122.515380859375,20.685386657714844
3219,-310.1798095703125,73.09073638916016,109.48931121826172,9.873335838317873
3220,-314.40216064453125,68.62903594970703,111.97260284423828,10.273505210876463
3221,-300.4673156738281,76.68852233886719,125.8027572631836,26.44483184814453
3222,-288.5632019042969,73.0645523071289,131.27049255371094,26.47101211547852
3223,-318.2654724121094,60.99215698242188,114.59801483154295,21.257591247558594
3224,-304.4764709472656,64.95271301269531,118.02750396728516,23.98771858215332
3225,-308.33978271484375,81.53169250488281,122.65375518798828,39.46342468261719
3226,-310.8642272949219,79.93849182128906,132.44107055664062,41.44557189941406
3227,-324.3503112792969,57.94414138793945,112.12967681884766,26.568248748779297
3228,-338.894775390625,67.23779296875,113.05343627929688,31.87516784667969
3229,-312.27789306640625,76.88299560546875,133.8360595703125,42.0850944519043
3230,-298.3243408203125,81.42697143554688,129.53143310546878,36.86793518066406
3231,-334.6537170410156,63.30341720581055,105.4090805053711,25.629533767700195
3232,-324.810302734375,56.38833999633789,104.93411254882812,21.25385093688965
3233,-307.2552185058594,76.5351791381836,116.86813354492188,26.9497184753418
3234,-301.89593505859375,78.39391326904297,117.80310821533205,26.61312866210937
3235,-311.746826171875,60.83134460449219,101.8935775756836,15.501885414123535
3236,-315.39324951171875,55.49824523925781,105.7755889892578,16.20872688293457
3237,-287.2392883300781,84.98735809326172,123.14742279052734,25.95864486694336
3238,-311.5299377441406,77.00267028808594,120.17794799804688,22.98542594909668
3239,-321.2162780761719,57.59632873535156,110.03907775878906,19.5073184967041
3240,-315.77471923828125,58.5986213684082,104.76581573486328,19.256744384765625
3241,-315.62884521484375,77.23828125,122.06659698486328,27.54810333251953
3242,-310.12371826171875,80.67899322509766,120.29388427734376,33.61048126220703
3243,-324.5036315917969,65.14344787597656,101.1904754638672,19.70553207397461
3244,-331.63189697265625,66.24671936035156,102.2787857055664,21.687679290771484
3245,-315.6625061035156,82.85187530517578,118.62962341308594,32.66054534912109
3246,-307.7339172363281,83.68587493896484,121.96561431884766,34.627735137939446
3247,-334.11517333984375,70.73833465576172,106.56471252441406,24.86285400390625
3248,-323.8304443359375,69.4854736328125,106.2954330444336,22.450618743896484
3249,-313.7962951660156,95.2833023071289,125.22306823730469,33.161693572998054
3250,-321.9679870605469,86.1691665649414,119.5010223388672,38.12453842163086
3251,-327.4207763671875,70.86549377441406,106.6769027709961,24.92269325256348
3252,-327.7311706542969,73.79009246826172,98.95027160644531,25.7641716003418
3253,-293.48492431640625,84.86019897460938,119.0036163330078,30.93271255493164
3254,-304.9776306152344,79.69539642333984,114.46337890625,30.076274871826172
3255,-313.8411865234375,65.23694610595703,98.6436004638672,18.471364974975586
3256,-299.67071533203125,51.49655151367188,109.5267105102539,20.85368156433105
3257,-314.04315185546875,75.5889892578125,114.19410705566406,32.327693939208984
3258,-299.58843994140625,73.74895477294922,119.95729064941406,35.66742706298828
3259,-308.47442626953125,66.43745422363281,107.94847106933594,24.907733917236328
3260,-325.58447265625,64.91905212402344,104.7695541381836,22.480539321899414
3261,-306.7652893066406,83.84668731689453,123.37555694580078,28.81218910217285
3262,-275.95974731445307,80.16288757324219,122.68741607666016,30.52506256103516
3263,-352.35467529296875,72.35397338867188,105.39411926269531,24.859115600585934
3264,-328.80078125,72.00990295410156,106.24681854248048,20.389934539794922
3265,-294.36004638671875,86.59551239013672,131.6295166015625,35.55896759033203
3266,-316.8181457519531,86.90592193603516,123.04644775390624,32.05094146728516
3267,-329.9078063964844,71.8752670288086,108.7226333618164,26.55702972412109
3268,-317.5511779785156,66.63192749023439,109.27987670898438,27.34988784790039
3269,-311.1521911621094,86.31876373291016,125.98226928710938,38.72666549682617
3270,-307.4309997558594,86.64039611816406,125.87755584716795,40.701332092285156
3271,-314.9332275390625,57.14006042480469,109.66134643554688,23.89422035217285
3272,-314.6751708984375,65.69321441650389,106.26925659179688,28.32226181030273
3273,-298.4178466796875,75.59646606445312,120.06575012207031,36.90533447265625
3274,-304.9215087890625,73.98082733154297,122.06285095214844,38.15446090698242
3275,-313.87109375,50.41572189331055,105.84664916992188,24.42154693603516
3276,-311.9413146972656,58.35178756713867,104.709716796875,20.711565017700195
3277,-307.5020446777344,73.46098327636719,120.05078887939452,34.575374603271484
3278,-304.2633056640625,74.69515228271484,113.53214263916016,28.18388557434082
3279,-340.9180603027344,59.35408401489258,94.54093170166016,19.26422500610352
3280,-327.3796081542969,55.73386001586914,93.5872573852539,24.13731384277344
3281,-322.121337890625,79.13815307617188,112.94497680664062,30.29319000244141
3282,-313.5046081542969,79.14937591552734,120.03582763671876,35.89929962158203
3283,-331.0148010253906,56.86330795288086,99.451416015625,21.448326110839844
3284,-299.36029052734375,57.4205551147461,104.369384765625,18.41900634765625
3285,-329.3131408691406,76.88299560546875,115.43949127197266,31.905086517333984
3286,-310.18731689453125,76.17615509033203,122.69490051269531,37.537376403808594
3287,-298.9152526855469,56.68753433227539,110.4130630493164,23.763324737548828
3288,-321.2125244140625,52.775596618652344,106.0336456298828,26.10824203491211
3289,-293.4998779296875,73.3637466430664,123.20352172851562,38.78650283813477
3290,-289.28125,62.21510696411133,126.80130767822266,34.36220169067383
3291,-321.87823486328125,55.37856674194336,101.493408203125,17.027765274047848
3292,-309.82452392578125,59.49993896484375,101.82251739501952,29.59756851196289
3293,-305.5236511230469,70.99639129638672,119.47484588623048,34.20886611938477
3294,-304.88037109375,81.36713409423828,123.94402313232422,31.23938369750977
3295,-320.6889343261719,67.29763031005861,101.88609313964844,21.852235794067386
3296,-325.6592712402344,67.52202606201172,108.86848449707031,24.780576705932614
3297,-301.5294189453125,85.20426940917969,121.08300018310548,31.486217498779297
3298,-322.2784118652344,80.61915588378906,117.15984344482422,29.10764122009277
3299,-325.4834899902344,65.82785034179689,99.85533142089844,20.46099281311035
3300,-332.13677978515625,73.58065795898438,102.37228393554688,18.23575210571289
3301,-305.8078918457031,82.54894256591797,113.5994644165039,34.354721069335945
3302,-315.2810363769531,78.48367309570312,109.43321228027344,24.926433563232425
3303,-336.4376525878906,69.96791839599611,94.24547576904295,18.59478187561035
3304,-322.00537109375,78.7454605102539,107.42862701416016,26.269058227539066
3305,-301.32000732421875,90.49623107910156,121.06430053710938,34.94562530517578
3306,-303.612548828125,74.37725830078125,121.91326141357422,31.508657455444336
3307,-309.23736572265625,59.88514709472656,109.627685546875,24.91895294189453
3308,-318.0186462402344,68.19894409179689,111.96886444091795,29.47041130065918
3309,-290.8146057128906,84.11595916748047,128.73483276367188,37.5186767578125
3310,-312.46490478515625,83.82424926757812,119.68801879882812,33.064456939697266
3311,-321.75482177734375,56.50428009033203,111.68463134765624,25.44627952575684
3312,-321.2237548828125,76.95779418945312,117.80310821533205,29.4143123626709
3313,-308.8521728515625,92.07820892333984,125.21185302734376,33.438446044921875
3314,-314.27874755859375,98.72775268554688,123.88792419433594,35.712303161621094
3315,-328.4903869628906,80.19280242919922,108.59921264648438,26.916059494018555
3316,-322.3232727050781,76.43794250488281,119.72541809082031,33.88723373413086
3317,-305.0860900878906,92.90472412109376,126.75643157958984,36.0040168762207
3318,-312.1432800292969,90.63086700439452,126.19544219970705,34.59407424926758
3319,-321.769775390625,74.60165405273438,111.4303207397461,25.543516159057614
3320,-320.93951416015625,74.68392944335938,112.58594512939452,27.74631690979004
3321,-303.5826416015625,91.13201141357422,134.19883728027344,37.99364471435547
3322,-305.138427734375,81.45689392089844,127.3697738647461,32.88867950439453
3323,-315.2960205078125,64.35807037353516,107.15187072753906,21.018238067626953
3324,-310.29949951171875,68.89830780029297,107.01349639892578,20.15058135986328
3325,-295.1005554199219,78.56221008300781,119.98721313476562,31.224424362182614
3326,-295.88592529296875,75.09906005859375,121.24382019042969,29.36943435668945
3327,-319.8212890625,59.45132064819336,103.41571044921876,19.436260223388672
3328,-317.00140380859375,54.24163818359375,107.85123443603516,22.323463439941406
3329,-292.95758056640625,77.75064849853516,122.87067413330078,35.91426086425781
3330,-306.4399108886719,81.41949462890625,114.22028350830078,29.582609176635746
3331,-324.50738525390625,61.34370803833008,100.58460998535156,23.71470642089844
3332,-322.9478454589844,66.96852111816406,104.44792938232422,24.26447105407715
3333,-302.7561340332031,75.30101776123047,116.16503143310548,35.13636016845703
3334,-302.6476745605469,76.0115966796875,116.48666381835938,26.83752250671387
3335,-314.3572998046875,61.46338653564453,99.37662506103516,20.614328384399414
3336,-322.873046875,63.0640640258789,103.61019134521484,25.06106948852539
3337,-305.96868896484375,84.33661651611328,121.70382690429688,32.327693939208984
3338,-309.6861572265625,76.58753967285156,114.71395111083984,27.55932235717773
3339,-332.2975769042969,69.01798248291016,98.89417266845705,18.834136962890625
3340,-322.5962829589844,65.17710876464844,101.57194519042969,22.45809936523437
3341,-299.9923400878906,83.61107635498047,119.18687438964844,33.232749938964844
3342,-293.5821533203125,81.43070983886719,124.4040298461914,34.34350204467773
3343,-308.1415710449219,64.82555389404297,118.83158111572266,19.208126068115234
3344,-316.0402526855469,56.77355194091797,122.22740936279295,32.15940093994141
3345,-292.52374267578125,79.29148864746094,139.07565307617188,43.416500091552734
3346,-293.5746765136719,67.79503631591797,132.06709289550778,36.23215103149414
3347,-311.4252014160156,56.511756896972656,118.43888854980469,31.32166290283203
3348,-317.8653259277344,53.759193420410156,113.75279998779295,28.34844207763672
3349,-290.1825866699219,73.71530151367188,127.10424041748048,35.51782989501953
3350,-292.613525390625,71.8790054321289,128.36083984375,39.29512786865234
3351,-321.9530334472656,52.30063247680664,114.60923767089844,20.67042732238769
3352,-319.552001953125,62.67885208129883,119.3589096069336,26.44857215881348
3353,-295.81488037109375,79.71035766601562,131.99977111816406,35.40937423706055
3354,-304.40167236328125,70.6934585571289,122.90807342529295,38.2703971862793
3355,-317.5810852050781,60.816383361816406,108.83108520507812,25.427579879760746
3356,-316.7395935058594,67.16673278808594,110.16997528076172,24.51504325866699
3357,-292.35919189453125,79.58319854736328,127.90831756591795,39.22780990600586
3358,-312.95855712890625,71.56111907958984,122.05911254882812,37.09980773925781
3359,-320.6365966796875,58.9165153503418,108.3187255859375,30.820514678955078
3360,-316.15618896484375,69.04042053222656,110.6935577392578,34.388381958007805
3361,-302.8197021484375,80.44337463378906,124.46012878417969,38.50226974487305
3362,-300.7889404296875,70.32695007324219,123.2184829711914,37.9712028503418
3363,-314.94818115234375,61.48208618164063,113.68547821044922,31.25808334350586
3364,-315.5615234375,76.0938720703125,116.16876983642578,31.81532859802246
3365,-300.7178649902344,87.3135757446289,132.99458312988278,42.32444763183594
3366,-303.0964660644531,81.06420135498047,132.351318359375,39.98701095581055
3367,-314.9407043457031,65.35662078857422,119.35142517089844,31.17580604553223
3368,-314.7088317871094,57.652427673339844,125.20063018798828,32.42493438720703
3369,-307.6516418457031,79.17181396484375,137.86393737792972,43.29682159423828
3370,-306.1369934082031,68.60659790039061,127.0518798828125,39.80001449584961
3371,-319.4173889160156,52.78681945800781,108.67401123046876,24.75065803527832
3372,-318.0897216796875,57.73844528198242,110.56639862060548,27.70517921447754
3373,-300.7702331542969,70.70468139648438,117.62359619140624,37.163387298583984
3374,-305.923828125,62.15526580810547,112.339111328125,31.351581573486328
3375,-321.1302490234375,53.920005798339844,103.26985931396484,21.624101638793945
3376,-312.33026123046875,65.55857849121094,104.13377380371094,27.622901916503906
3377,-300.01104736328125,81.19136047363281,119.05597686767578,29.58634948730469
3378,-303.8930358886719,73.57691955566406,117.60863494873048,32.245418548583984
3379,-322.3905944824219,59.82904815673828,103.08660125732422,25.629533767700195
3380,-314.9107971191406,50.449378967285156,109.4818344116211,28.45315933227539
3381,-309.3121643066406,79.362548828125,121.88707733154295,40.82474899291992
3382,-311.73187255859375,76.54640197753906,116.1089324951172,41.928016662597656
3383,-320.9021301269531,56.92688751220703,104.54141998291016,31.160846710205078
3384,-319.83251953125,63.53155136108398,116.10519409179688,39.343746185302734
3385,-307.42724609375,75.98542022705078,132.14189147949222,46.501914978027344
3386,-304.18475341796875,79.88239288330078,132.98710632324222,40.402137756347656
3387,-320.7674865722656,61.50452423095703,111.32559967041016,28.90568733215332
3388,-315.6475524902344,65.02377319335939,118.54360961914062,30.405385971069336
3389,-295.81488037109375,77.11112976074219,131.48365783691406,38.84260177612305
3390,-304.41290283203125,71.30680084228516,119.95355224609376,36.38922500610352
3391,-321.9941711425781,55.95451354980469,106.28421783447266,26.78890419006348
3392,-315.98040771484375,54.009765625,105.66339111328124,26.39621353149414
3393,-306.4511413574219,79.1231918334961,114.68029022216795,35.44677352905273
3394,-305.6358337402344,73.63301849365234,107.2752914428711,33.79373550415039
3395,-326.6428527832031,54.46977233886719,90.48687744140624,25.57343673706055
3396,-316.5301818847656,57.7833251953125,98.71839904785156,33.049495697021484
3397,-300.37005615234375,70.52516174316406,110.4317626953125,41.57646942138672
3398,-304.37548828125,78.89879608154297,114.20906829833984,31.42263984680176
3399,-329.27947998046875,62.89950561523438,98.92035675048828,20.31887626647949
3400,-314.6265563964844,66.16818237304689,108.0793685913086,25.29668235778809
3401,-305.6321105957031,84.47499084472656,133.73507690429688,37.26062393188477
3402,-310.7033996582031,82.41056823730469,129.77078247070312,36.69215774536133
3403,-321.8894348144531,63.98407745361328,121.59910583496094,30.315629959106445
3404,-314.1889953613281,73.84619140625,125.5297393798828,29.99399757385254
3405,-308.0032043457031,80.76500701904297,139.11680603027344,42.14867401123047
3406,-302.767333984375,78.7454605102539,141.18496704101562,32.985916137695305
3407,-323.306884765625,58.2657699584961,118.16587829589844,19.97480583190918
3408,-317.37164306640625,57.42803192138672,119.5458984375,29.410573959350586
3409,-306.6231689453125,75.5478515625,126.77886962890624,39.65789794921875
3410,-307.5544128417969,66.94233703613281,115.43575286865234,27.60046195983887
3411,-312.5247497558594,52.80177688598633,100.2517547607422,18.32176971435547
3412,-309.1812744140625,51.72468566894531,103.98043823242188,24.16723442077637
3413,-305.2244567871094,72.83267974853516,116.46048736572266,29.720985412597656
3414,-309.2597961425781,60.18434143066406,111.02266693115234,23.314537048339844
3415,-323.1797180175781,45.94654083251953,98.45660400390624,24.28691101074219
3416,-324.04364013671875,60.4236946105957,100.3714370727539,25.072288513183594
3417,-316.19171142578125,77.47950744628906,116.92236328125,42.28330993652344
3418,-323.52191162109375,68.85530090332031,111.241455078125,36.63980102539063
3419,-328.2267150878906,62.9312973022461,104.9210205078125,24.24203109741211
3420,-329.0606994628906,67.19478607177734,105.95697784423828,22.102807998657227
3421,-304.8373718261719,84.01685333251953,128.67312622070312,38.64812469482422
3422,-308.7904357910156,81.52607727050781,126.18235778808594,37.09980773925781
3423,-321.6594543457031,63.93732833862305,116.78398895263672,21.68394088745117
3424,-310.1218566894531,61.0875244140625,120.92405700683594,22.70867347717285
3425,-300.4130859375,73.63114929199219,138.64744567871094,35.87311935424805
3426,-305.6190185546875,69.99596405029297,128.0784912109375,28.94308662414551
3427,-317.63531494140625,66.86193084716797,113.32083892822266,24.32056999206543
3428,-316.752685546875,55.63101196289063,117.99197387695312,28.02680969238281
3429,-311.4270935058594,77.33364868164062,126.24593353271484,37.9525032043457
3430,-314.20208740234375,79.04652404785156,118.29490661621094,33.21779251098633
3431,-325.23480224609375,64.30757904052734,97.76659393310548,21.089296340942386
3432,-327.6507568359375,69.48360443115234,101.95902252197266,25.435060501098636
3433,-301.8005676269531,82.1431655883789,118.5529556274414,40.57417297363281
3434,-315.4661560058594,71.60786437988281,109.82777404785156,35.21489715576172
3435,-328.7353210449219,55.264503479003906,92.77008819580078,22.94428634643555
3436,-314.46014404296875,69.54718017578125,108.56368255615234,30.49514389038086
3437,-304.2614440917969,77.2251968383789,120.83429718017578,39.41106414794922
3438,-313.6485900878906,70.89728546142578,114.86915588378906,26.867441177368164
3439,-320.0325927734375,58.780006408691406,110.34761810302734,17.446632385253903
3440,-307.57122802734375,70.88232421875,119.5328140258789,24.380407333374023
3441,-294.7807922363281,78.07788848876953,136.48951721191406,37.29802322387695
3442,-295.62225341796875,76.38745880126953,134.44754028320312,34.1265869140625
3443,-318.4618225097656,62.359092712402344,115.56851959228516,22.529157638549805
3444,-309.87127685546875,64.50579071044922,119.22614288330078,22.435659408569336
3445,-297.361328125,75.25800323486328,133.8304443359375,35.40937423706055
3446,-299.3359680175781,69.44994354248047,122.3003387451172,25.263023376464844
3447,-320.98626708984375,53.72366333007813,102.32179260253906,23.81942367553711
3448,-315.04730224609375,72.37080383300781,110.56452941894531,30.54376220703125
3449,-308.98492431640625,81.5036392211914,118.2275848388672,34.541717529296875
3450,-312.00677490234375,76.29769897460938,116.27162170410156,34.31732177734375
3451,-328.4623107910156,59.04553985595703,94.75597381591795,23.755844116210934
3452,-319.59503173828125,63.81391143798828,100.82583618164062,29.590087890625
3453,-309.39630126953125,78.70619201660156,118.01441192626952,40.32360076904297
3454,-308.6820068359375,68.96001434326172,111.77252197265624,36.86793518066406
3455,-336.27496337890625,61.218421936035156,102.1908950805664,28.520477294921875
3456,-317.0444030761719,75.45622253417969,112.0230941772461,27.409727096557614
3457,-301.2769775390625,81.30168151855469,122.97725677490234,32.88494110107422
3458,-299.1639404296875,76.37249755859375,118.025634765625,27.37606811523437
3459,-323.09930419921875,71.15533447265625,108.61604309082031,16.885648727416992
3460,-312.60888671875,72.97666931152344,113.77710723876952,21.885894775390625
3461,-296.5273132324219,76.83624267578125,135.24787902832028,31.60589408874512
3462,-300.18121337890625,78.24992370605469,123.8112564086914,30.334327697753906
3463,-318.3645935058594,56.9025764465332,111.84357452392578,23.624948501586914
3464,-313.3119812011719,59.5392074584961,112.68505859375,26.097021102905273
3465,-305.3946228027344,72.30348205566406,121.32048797607422,35.85441970825195
3466,-318.4730529785156,67.38925933837889,110.1606216430664,31.220684051513672
3467,-339.5511169433594,60.95288848876953,89.72955322265625,27.79119682312012
3468,-320.6646423339844,68.21577453613281,101.1250228881836,32.81762313842773
3469,-310.7912902832031,77.93951416015625,107.05650329589844,42.51518249511719
3470,-320.6085205078125,74.47636413574219,102.13479614257812,36.11995315551758
3471,-330.29486083984375,61.73078918457031,94.96914672851562,29.294635772705078
3472,-317.0406799316406,61.468994140625,103.76539611816406,30.26327133178711
3473,-311.3896789550781,80.24703216552734,111.42471313476562,30.76441764831543
3474,-314.486328125,77.09056091308594,108.12611389160156,27.14419364929199
3475,-322.702880859375,63.09959030151367,104.00474548339844,19.813989639282227
3476,-313.3531188964844,78.20504760742188,118.65767669677734,29.885540008544922
3477,-307.55255126953125,84.21880340576172,130.43087768554688,35.439292907714844
3478,-314.3853454589844,80.119873046875,130.34860229492188,34.672611236572266
3479,-325.3619384765625,58.28260040283203,122.36017608642578,30.966371536254886
3480,-316.86114501953125,68.85530090332031,118.85588836669922,30.40912628173828
3481,-307.74700927734375,83.61668395996094,129.17427062988278,31.587194442749023
3482,-305.20013427734375,81.81031036376953,123.11190032958984,27.256391525268555
3483,-322.13067626953125,55.264503479003906,105.4969711303711,18.85657501220703
3484,-325.49658203125,64.98075866699219,107.39683532714844,20.23659896850586
3485,-315.1520080566406,82.99585723876953,119.02044677734376,34.61277389526367
3486,-309.3028259277344,66.02419281005861,115.06737518310548,31.34410095214844
3487,-325.19366455078125,57.16810989379883,95.75827026367188,22.697452545166016
3488,-320.9600830078125,65.53052520751953,105.47078704833984,22.81338882446289
3489,-300.07275390625,69.66311645507811,123.23157501220705,35.057823181152344
3490,-302.24188232421875,74.11734008789062,122.7079849243164,37.118507385253906
3491,-320.29437255859375,62.30673217773438,111.39105224609376,18.44892692565918
3492,-313.12872314453125,67.9539794921875,115.98738861083984,21.908334732055664
3493,-301.7557067871094,82.19178009033203,131.77349853515622,33.382347106933594
3494,-303.0010986328125,72.9317855834961,121.71691131591795,23.72592544555664
3495,-322.3812561035156,56.73428344726562,113.62377166748048,17.420454025268555
3496,-312.5715026855469,74.26319122314453,127.63343811035156,29.70602607727051
3497,-299.9605407714844,83.23147583007812,135.91731262207028,36.11621475219727
3498,-311.329833984375,69.96604919433594,128.0784912109375,25.31538200378418
3499,-323.1591491699219,55.04758834838867,113.43677520751952,19.645694732666016
3500,-310.3686828613281,52.3847770690918,113.94914245605469,22.77225112915039
3501,-300.484130859375,68.54862976074219,124.40589904785156,30.700838088989254
3502,-323.9071350097656,77.12796020507812,111.18909454345705,18.572343826293945
3503,-331.44677734375,60.81825256347656,100.17134857177734,7.932327747344972
3504,-316.2366027832031,70.42231750488281,116.4773178100586,19.750411987304688
3505,-311.5953674316406,87.925048828125,125.83454132080078,29.50781059265137
3506,-311.8908386230469,79.75336456298828,122.9623031616211,29.676105499267575
3507,-323.87347412109375,63.52593994140625,105.48948669433594,21.885894775390625
3508,-320.4664306640625,69.10961151123047,109.51361846923828,24.96383285522461
3509,-303.4872741699219,89.30133056640625,129.14060974121094,37.39152145385742
3510,-307.6684875488281,70.5831298828125,121.37284088134766,29.05154228210449
3511,-320.2607116699219,62.38153076171875,110.06712341308594,22.81338882446289
3512,-321.001220703125,68.78797912597656,111.2190170288086,27.256391525268555
3513,-305.59283447265625,75.75167083740234,122.5621337890625,38.17689895629883
3514,-304.6690673828125,70.63549041748047,118.25376892089844,30.21839141845703
3515,-318.18133544921875,52.81112670898438,108.44774627685548,24.85537528991699
3516,-317.0818176269531,72.6886978149414,113.21611785888672,22.278583526611328
3517,-304.4222412109375,83.05569458007812,127.47261810302734,36.47898483276367
3518,-308.2257385253906,68.35041046142578,114.48768615722656,23.823162078857425
3519,-311.5467529296875,48.5513801574707,103.58587646484376,12.738099098205565
3520,-315.0024108886719,57.6131591796875,107.84188842773438,18.568603515625
3521,-303.2441711425781,74.2145767211914,123.83744049072266,26.366294860839844
3522,-308.71563720703125,66.96290588378906,111.61170196533205,21.751258850097656
3523,-323.207763671875,54.05651473999024,102.3105697631836,15.277491569519045
