,T7,F8,Cz,P4
2000,-143.7561492919922,35.12327194213867,-26.25035858154297,134.84022521972656
2001,-145.40170288085938,29.71911430358887,-28.61397361755371,122.03480529785156
2002,-140.82406616210938,28.215675354003906,-28.87576675415039,127.6409149169922
2003,-153.7229766845703,21.652151107788086,-35.876861572265625,119.79460906982422
2004,-148.01962280273438,33.30941772460937,-31.463777542114254,121.8178939819336
2005,-146.26187133789062,37.7411994934082,-32.83258056640625,126.40300750732422
2006,-163.70851135253906,27.71078872680664,-35.2410774230957,125.3371353149414
2007,-159.1944580078125,28.997314453125,-34.75115203857422,123.82247924804688
2008,-155.57797241210938,33.77316665649414,-31.70313262939453,126.56382751464844
2009,-146.32919311523438,42.83120346069336,-28.84584808349609,132.67855834960938
2010,-154.3157501220703,34.61464309692383,-35.3009147644043,131.69496154785156
2011,-155.2544708251953,32.40436172485352,-35.330833435058594,130.50193786621094
2012,-145.27267456054688,45.57629013061523,-28.19136619567871,142.5631103515625
2013,-150.673095703125,34.842777252197266,-28.25494384765625,137.54791259765622
2014,-151.8175048828125,32.131351470947266,-29.60878753662109,148.4571990966797
2015,-151.4734344482422,31.78727912902832,-34.201385498046875,146.52366638183594
2016,-152.27001953125,40.65458297729492,-28.58779525756836,145.46902465820312
2017,-147.41563415527344,41.1632080078125,-30.04261589050293,143.37094116210938
2018,-144.47607421875,38.582679748535156,-28.94682502746582,144.9454345703125
2019,-154.88047790527344,35.24668884277344,-26.388734817504886,135.59942626953122
2020,-160.35194396972656,33.57869338989258,-38.99967575073242,129.24159240722656
2021,-147.69613647460938,45.27335739135742,-30.521324157714844,133.20588684082028
2022,-150.34024047851562,37.78607940673828,-32.20427703857422,132.7271728515625
2023,-150.90122985839844,27.43029594421387,-33.898452758789055,130.63658142089844
2024,-144.56582641601562,38.87065124511719,-26.66548728942871,129.17800903320312
2025,-144.41622924804688,36.48085403442383,-30.405385971069336,129.05833435058594
2026,-148.95272827148438,35.91986846923828,-34.575374603271484,130.17282104492188
2027,-148.63858032226562,39.536354064941406,-30.19595146179199,127.45391845703124
2028,-158.31744384765625,43.29495239257813,-25.47619819641113,130.77120971679688
2029,-154.02403259277344,47.48738098144531,-19.948625564575195,129.61932373046878
2030,-154.93283081054688,38.60511779785156,-27.959491729736328,132.28587341308594
2031,-162.82028198242188,34.81659698486328,-33.898452758789055,130.41218566894528
2032,-156.79904174804688,39.86920166015625,-28.890727996826172,133.03384399414062
2033,-151.78384399414062,36.00214767456055,-33.60674285888672,132.79823303222656
2034,-157.81256103515625,32.688594818115234,-35.110179901123054,128.49360656738278
2035,-164.7089385986328,33.178524017333984,-42.41420364379883,133.2432861328125
2036,-160.32203674316406,37.78234100341797,-38.3526725769043,141.9385528564453
2037,-155.61349487304688,36.36491775512695,-35.65620803833008,144.96412658691406
2038,-154.8206329345703,26.499061584472656,-40.79108810424805,141.32894897460938
2039,-147.90182495117188,23.33136558532715,-35.54774856567383,144.73599243164062
2040,-148.72459411621094,27.22834205627441,-35.057823181152344,140.98114013671875
2041,-145.1978759765625,30.437175750732425,-34.01813125610352,146.50123596191406
2042,-153.7547607421875,30.08562469482422,-35.27473449707031,140.18453979492188
2043,-156.1819610595703,22.01866149902344,-39.90847396850586,131.72488403320312
2044,-147.0603485107422,34.62960433959961,-30.45400619506836,135.88365173339844
2045,-153.77346801757812,36.07694625854492,-31.39645957946777,134.08476257324222
2046,-150.91244506835938,32.441761016845696,-34.17146682739258,129.28646850585938
2047,-157.33758544921875,29.76025390625,-27.828596115112305,120.06388092041016
2048,-150.3739013671875,38.391944885253906,-21.34360885620117,122.46115112304688
2049,-160.5539093017578,42.80128479003906,-19.5484561920166,125.09778594970705
2050,-155.57235717773438,37.3185920715332,-23.467872619628906,121.33918762207031
2051,-166.62750244140625,30.19034194946289,-30.40912628173828,117.45716857910156
2052,-156.52603149414062,40.16091537475586,-28.0230712890625,129.39118957519528
2053,-157.950927734375,33.21592330932617,-28.958045959472656,133.68833923339844
2054,-159.3982696533203,23.709095001220703,-33.59552001953125,140.97366333007812
2055,-154.9365692138672,15.436436653137207,-37.900146484375,141.56829833984375
2056,-151.177978515625,26.29710578918457,-31.80036926269531,150.34585571289062
2057,-151.79505920410156,23.83999252319336,-32.185577392578125,149.84469604492188
2058,-149.476318359375,16.203117370605472,-37.76176834106445,148.72647094726562
2059,-158.6390838623047,15.148465156555176,-39.7551383972168,143.56167602539062
2060,-157.08328247070312,26.30832672119141,-26.302717208862305,150.60015869140625
2061,-149.70445251464844,27.531272888183594,-27.170373916625977,151.8979034423828
2062,-151.4622039794922,31.07295799255371,-24.126094818115234,155.53309631347656
2063,-157.08702087402344,22.9648551940918,-34.66513442993164,141.4598388671875
2064,-145.13055419921875,31.600284576416016,-21.23141288757324,140.54356384277344
2065,-145.77381896972656,32.797054290771484,-24.48512458801269,135.26657104492188
2066,-147.61758422851562,24.38975715637207,-22.88444709777832,129.72030639648438
2067,-158.78118896484375,29.812612533569336,-22.551597595214844,119.2710189819336
2068,-154.74583435058594,40.45262908935547,-21.874675750732425,124.31614685058594
2069,-143.94126892089844,45.5987319946289,-14.847402572631836,132.19985961914062
2070,-149.55859375,39.85424423217773,-18.725679397583008,137.40953063964844
2071,-155.72943115234375,29.049673080444336,-25.984825134277344,141.0746307373047
2072,-142.13864135742188,40.28807067871094,-20.113182067871094,152.22702026367188
2073,-144.3115234375,32.894290924072266,-19.653173446655273,157.18612670898438
2074,-141.79457092285156,24.21398162841797,-30.32684898376465,157.22352600097656
2075,-150.68804931640625,12.64273166656494,-31.34410095214844,151.606201171875
2076,-148.21597290039062,20.37684440612793,-34.36968231201172,156.32968139648438
2077,-140.5379638671875,23.70535659790039,-32.769004821777344,156.79344177246094
2078,-147.5652313232422,15.114805221557615,-33.92837142944336,152.440185546875
2079,-141.96286010742188,13.955436706542967,-35.1999397277832,149.40713500976562
2080,-133.73881530761722,26.768333435058594,-26.23539733886719,152.86654663085938
2081,-144.33021545410156,24.909603118896484,-33.27014923095703,145.6522674560547
2082,-155.9987030029297,11.887271881103516,-45.0657958984375,133.56117248535156
2083,-165.40829467773438,10.802700996398926,-51.13191223144531,123.5494613647461
2084,-158.3323974609375,35.055953979492195,-28.76357078552246,131.65756225585938
2085,-157.34507751464844,38.68365478515625,-26.99833869934082,127.47635650634766
2086,-166.0104217529297,34.27057266235352,-31.47125816345215,117.2439956665039
2087,-167.63352966308594,35.31400680541992,-33.27762985229492,117.34870910644531
2088,-153.96046447753906,47.45746231079102,-29.941638946533203,123.2465362548828
2089,-146.59286499023438,41.70549392700195,-31.411418914794922,132.37936401367188
2090,-152.93572998046875,29.18056869506836,-41.21743774414063,129.51834106445312
2091,-149.7306365966797,29.56203842163086,-37.1895637512207,135.50592041015622
2092,-148.26458740234375,33.77316665649414,-41.27727508544922,140.21072387695312
2093,-145.074462890625,32.76713180541992,-38.73040390014648,137.69003295898438
2094,-146.60781860351562,27.28070068359375,-41.62882614135742,146.8976593017578
2095,-149.62217712402344,25.455629348754886,-42.8891716003418,144.33209228515625
2096,-155.90521240234375,25.0180606842041,-37.31672286987305,145.68966674804688
2097,-149.62217712402344,30.923362731933594,-36.7669563293457,149.46322631835938
2098,-154.37933349609375,14.434144020080565,-46.59915161132813,144.8893280029297
2099,-155.2806396484375,15.15968418121338,-47.93055725097656,142.1143341064453
2100,-159.33470153808594,23.6978759765625,-37.80664825439453,140.63706970214844
2101,-151.9371795654297,31.39833068847656,-34.18642425537109,129.87738037109378
2102,-163.02598571777344,33.503894805908196,-36.722076416015625,125.83828735351562
2103,-158.53810119628906,35.86376953125,-34.94936370849609,124.96315002441406
2104,-156.61204528808594,36.15922164916992,-37.24192428588867,120.23965454101562
2105,-153.78842163085938,43.09673690795898,-28.71495246887207,127.77928924560548
2106,-157.29644775390625,25.234975814819336,-36.13491439819336,120.24339294433594
2107,-151.06578063964844,27.624771118164066,-31.03742980957031,130.46453857421878
2108,-144.79022216796875,41.24548721313477,-30.697099685668945,130.80487060546878
2109,-144.21054077148438,37.19143676757813,-28.39706039428711,129.00224304199222
2110,-147.57644653320312,32.56143951416016,-37.197044372558594,134.50736999511722
2111,-152.07554626464844,34.18829727172852,-28.93934631347656,136.19032287597656
2112,-149.652099609375,32.22110748291016,-30.229610443115234,140.8278045654297
2113,-148.8854217529297,35.87873077392578,-25.50237846374512,142.54815673828125
2114,-147.51661682128906,38.49665832519531,-30.68587875366211,147.67555236816406
2115,-164.33494567871094,27.40411758422852,-34.07048797607422,137.03553771972656
2116,-148.2496337890625,32.4716796875,-25.70433235168457,146.18333435058594
2117,-161.44400024414062,28.761699676513672,-27.652820587158203,140.72682189941406
2118,-161.3093719482422,29.76773452758789,-38.50975036621094,139.1710205078125
2119,-157.31515502929688,31.34597206115723,-41.21369934082031,128.79280090332028
2120,-159.34217834472656,35.953529357910156,-32.55582809448242,127.51750183105469
2121,-153.13768005371094,29.10951042175293,-30.48018455505371,123.33628845214844
2122,-149.1322479248047,31.15149688720703,-33.25893020629883,122.26667785644531
2123,-148.27955627441406,30.11554527282715,-32.16313934326172,119.14012145996094
2124,-147.11270141601562,32.67363739013672,-35.3009147644043,123.2652359008789
2125,-142.07131958007812,32.393142700195305,-30.820514678955078,133.62849426269528
2126,-151.23033142089844,32.17622756958008,-34.818470001220696,130.58795166015622
2127,-150.3776397705078,30.49701499938965,-36.968910217285156,139.93771362304688
2128,-152.29620361328125,37.0081787109375,-30.225872039794922,139.04386901855472
2129,-150.02235412597656,31.67508316040039,-30.74945831298828,140.93626403808594
2130,-158.126708984375,26.536460876464844,-34.52301788330078,138.0789794921875
2131,-154.13998413085938,30.13424301147461,-37.238182067871094,139.72453308105472
2132,-156.4213104248047,36.55191040039063,-35.58888626098633,141.28781127929688
2133,-157.00848388671875,36.226539611816406,-32.301517486572266,141.2092742919922
2134,-153.75851440429688,29.28528594970703,-35.79458236694336,134.33908081054688
2135,-163.6393280029297,24.486995697021484,-39.24277114868164,132.44668579101562
2136,-159.6899871826172,36.85110473632813,-39.95335006713867,131.17886352539062
2137,-156.8214874267578,36.60053253173828,-35.6823844909668,134.94119262695312
2138,-155.7593536376953,30.97572135925293,-45.55572128295898,130.81234741210938
2139,-161.29066467285156,26.28962707519531,-46.75622940063477,124.81355285644531
2140,-163.1007843017578,30.30253982543945,-45.25278854370117,121.5635757446289
2141,-155.5386962890625,31.76110076904297,-44.75164413452149,121.84407043457031
2142,-159.33843994140625,26.46540260314941,-49.50879669189453,121.8627700805664
2143,-153.32467651367188,29.004793167114254,-46.07556915283203,121.90764617919922
2144,-152.2849884033203,36.75012588500977,-38.12080001831055,129.49964904785156
2145,-150.82643127441406,37.90949630737305,-38.21055603027344,130.98065185546878
2146,-153.35833740234375,31.09539794921875,-40.17400360107422,131.82586669921878
2147,-153.78468322753906,28.294212341308594,-33.61048126220703,139.90779113769528
2148,-156.3577423095703,43.46698760986328,-28.733652114868164,145.01275634765625
2149,-152.67019653320312,30.71392822265625,-32.675506591796875,145.4877166748047
2150,-160.38934326171875,16.289134979248047,-38.43121337890625,140.40519714355472
2151,-157.45352172851562,22.18695640563965,-39.22780990600586,137.9443359375
2152,-157.116943359375,30.788726806640625,-33.92837142944336,143.4195556640625
2153,-156.29042053222656,26.895490646362305,-34.238784790039055,138.97654724121094
2154,-154.3531494140625,25.096599578857425,-36.24337005615234,137.35343933105472
2155,-157.1206817626953,16.962316513061527,-37.75429153442383,136.7999267578125
2156,-145.76260375976562,31.78354072570801,-30.73075866699219,139.30192565917972
2157,-145.0183563232422,28.507387161254886,-29.39187431335449,134.90380859375
2158,-151.7277374267578,28.529827117919922,-33.326248168945305,135.10202026367188
2159,-165.36715698242188,18.20770263671875,-46.00450897216797,122.10586547851562
2160,-149.33419799804688,37.30363082885742,-29.42927360534668,128.28044128417972
2161,-152.81231689453125,26.263446807861328,-37.31298065185547,120.38176727294922
2162,-152.24758911132812,30.23896026611328,-42.8293342590332,123.4110870361328
2163,-153.61265563964844,35.42620086669922,-36.93899154663086,118.50060272216795
2164,-150.4935760498047,41.39882278442383,-27.55558204650879,128.75914001464844
2165,-160.39683532714844,37.63274383544922,-34.885787963867195,127.80547332763672
2166,-157.24783325195312,33.48519515991211,-35.30839538574219,136.40724182128906
2167,-154.570068359375,35.35514450073242,-33.60300064086914,139.86665344238278
2168,-156.7279815673828,33.72454833984375,-36.886634826660156,141.53089904785156
2169,-152.43084716796875,36.948341369628906,-36.46402359008789,143.72622680664062
2170,-162.33035278320312,32.43428421020508,-41.62508773803711,139.52632141113278
2171,-167.71206665039062,27.213382720947266,-47.62014770507813,138.12759399414062
2172,-155.1198272705078,38.130149841308594,-40.01692962646485,147.8775177001953
2173,-161.0101776123047,33.081283569335945,-42.55632019042969,144.75469970703125
2174,-167.9177703857422,22.613304138183594,-56.01996231079102,136.14170837402344
2175,-166.06651306152344,24.846025466918945,-47.564048767089844,143.30361938476562
2176,-164.91836547851562,24.22894096374512,-45.77263641357422,133.17222595214844
2177,-161.12985229492188,29.423662185668945,-38.85008239746094,135.13194274902344
2178,-156.92620849609375,31.88825607299805,-43.49877548217773,126.33194732666016
2179,-156.78408813476562,29.28528594970703,-37.78421020507813,123.27645111083984
2180,-155.05250549316406,39.42041397094727,-36.51264190673828,118.32108306884766
2181,-156.62327575683594,35.35514450073242,-38.03478240966797,116.8849639892578
2182,-158.94200134277344,30.47457504272461,-42.27209091186523,113.4666976928711
2183,-163.2877655029297,38.08526992797852,-37.86648559570313,120.19103240966795
2184,-154.67103576660156,39.955223083496094,-31.8676872253418,123.6841049194336
2185,-146.97433471679688,32.449241638183594,-27.432167053222656,132.13253784179688
2186,-160.82691955566406,27.276960372924805,-31.58345603942871,133.26197814941406
2187,-156.2978973388672,27.59111213684082,-30.779376983642575,136.53813171386722
2188,-148.6348419189453,33.926502227783196,-26.44857215881348,142.11807250976562
2189,-154.4803009033203,32.161270141601555,-30.60360145568848,143.13157653808594
2190,-151.8212432861328,27.98754119873047,-34.687572479248054,142.4546661376953
2191,-157.42735290527344,13.143877983093262,-39.90099334716797,136.02577209472656
2192,-162.2854766845703,29.468542098999023,-32.69420623779297,137.43571472167972
2193,-146.4282989501953,30.799945831298828,-36.11621475219727,140.24812316894528
2194,-156.8177490234375,19.258615493774414,-41.51288986206055,131.14146423339844
2195,-154.68226623535156,27.67338943481445,-36.19475173950195,133.33677673339844
2196,-152.9955596923828,28.286733627319336,-35.44677352905273,129.74273681640622
2197,-149.02005004882812,36.20783996582031,-33.722679138183594,127.16594696044922
2198,-154.83934020996094,31.53670692443848,-34.096668243408196,117.99197387695312
2199,-159.2262420654297,30.799945831298828,-36.85297393798828,116.5633316040039
2200,-155.31056213378906,35.29904556274414,-37.44013977050781,109.6557388305664
2201,-147.37075805664062,31.61150360107422,-31.44881820678711,115.1571273803711
2202,-152.0194549560547,31.98923492431641,-32.772743225097656,122.95108032226562
2203,-154.78323364257812,32.265987396240234,-34.84090805053711,125.88690185546876
2204,-160.0751953125,25.73238182067871,-35.40563201904297,124.1702880859375
2205,-155.92764282226562,31.93687629699707,-33.475845336914055,131.91935729980472
2206,-156.8140106201172,25.85205841064453,-45.29766845703125,135.6966552734375
2207,-156.20814514160156,23.106971740722656,-42.90787124633789,141.2915496826172
2208,-153.40321350097656,34.62212371826172,-38.913658142089844,146.98741149902344
2209,-156.1370849609375,32.393142700195305,-36.17231369018555,142.7837677001953
2210,-159.21876525878906,23.78015327453613,-43.70820999145508,142.03579711914062
2211,-157.3992919921875,21.5848331451416,-38.21242904663086,146.59286499023438
2212,-155.43211364746094,29.087072372436523,-34.027481079101555,142.1909942626953
2213,-158.80923461914062,27.66964912414551,-42.79006576538086,130.70576477050778
2214,-164.5312957763672,30.42969512939453,-47.15078735351562,127.74750518798828
2215,-162.09661865234375,26.86557197570801,-49.90709686279297,122.46302032470705
2216,-152.66458129882812,35.96848678588867,-37.599082946777344,126.76016998291016
2217,-157.55264282226562,30.081884384155273,-43.59788513183594,121.03438568115234
2218,-151.34066772460938,33.62356948852539,-42.06452560424805,121.35975646972656
2219,-157.84060668945312,28.241853713989254,-35.90491104125977,119.00735473632812
2220,-150.15512084960938,36.66410827636719,-35.66555404663086,116.3482894897461
2221,-149.23509216308594,32.28842544555664,-38.51910018920898,117.39920043945312
2222,-155.36105346679688,34.96619415283203,-38.31340408325195,123.11002349853516
2223,-160.26780700683594,34.498706817626946,-41.36516189575195,127.22391510009766
2224,-164.72576904296875,28.627063751220703,-36.31629943847656,130.37290954589844
2225,-162.2836151123047,30.328718185424805,-40.82287979125977,141.52903747558594
2226,-164.6023406982422,26.98898887634277,-46.04751968383789,141.78334045410156
2227,-168.53297424316406,26.99272727966309,-41.61199569702149,143.01751708984375
2228,-158.4988250732422,33.61983108520508,-34.23317337036133,144.9884490966797
2229,-163.31956481933594,24.28129959106445,-41.72045516967773,136.33432006835938
2230,-165.39894104003906,22.658184051513672,-47.43876266479492,136.27821350097656
2231,-162.5304412841797,25.08163833618164,-45.47905349731445,137.46749877929688
2232,-155.68267822265625,38.56023788452149,-37.565425872802734,142.65847778320312
2233,-164.85665893554688,28.279253005981445,-39.84302520751953,132.10075378417972
2234,-155.67893981933594,29.143171310424805,-37.96185302734375,130.24201965332028
2235,-151.6735076904297,39.345619201660156,-30.182863235473636,133.19279479980472
2236,-150.05787658691406,30.29505920410156,-32.202407836914055,121.24007415771484
2237,-149.75868225097656,33.559993743896484,-27.28070068359375,119.94981384277344
2238,-151.70343017578125,35.56831741333008,-34.14715576171875,113.03473663330078
2239,-152.193359375,29.382524490356445,-30.36237716674805,110.9516143798828
2240,-150.1102294921875,37.703800201416016,-32.28094482421875,109.23500061035156
2241,-155.1591033935547,38.48918151855469,-34.43886947631836,112.65326690673828
2242,-158.48013305664062,40.60222244262695,-41.54841995239258,118.54734802246094
2243,-160.9671630859375,33.07006454467773,-46.20833206176758,121.83846282958984
2244,-154.7664031982422,41.24174499511719,-39.9776611328125,130.55990600585938
2245,-159.02989196777344,42.438514709472656,-43.732521057128906,142.99880981445312
2246,-158.40159606933594,37.53550720214844,-41.55963897705078,145.77008056640625
2247,-177.26190185546875,31.289873123168945,-41.31280517578125,137.88636779785156
2248,-161.4683074951172,36.44345474243164,-37.14655685424805,145.3362579345703
2249,-162.67630004882812,34.981155395507805,-37.58038330078125,143.2045135498047
2250,-163.4280242919922,35.56084060668945,-39.39049530029297,140.48934936523438
2251,-160.8026123046875,32.57639694213867,-38.934226989746094,133.8360595703125
2252,-156.8495330810547,44.80213165283203,-34.984893798828125,130.72071838378906
2253,-149.37721252441406,42.79754638671875,-28.66820335388184,135.60502624511722
2254,-155.1179656982422,35.91613006591797,-33.395435333251946,131.93244934082028
2255,-150.17007446289062,32.841930389404304,-36.15922164916992,124.73314666748048
2256,-148.73394775390625,37.89827728271485,-26.293367385864254,119.4860610961914
2257,-147.5745849609375,42.057044982910156,-27.79680633544922,116.21365356445312
2258,-145.1885223388672,38.08526992797852,-31.57036590576172,117.0738296508789
2259,-158.038818359375,34.293014526367195,-33.178524017333984,107.46602630615234
2260,-149.12289428710938,42.69282913208008,-30.923362731933594,112.24562072753906
2261,-145.6111297607422,39.5849723815918,-36.263938903808594,117.9564437866211
2262,-155.2862548828125,42.07574462890625,-38.36576461791992,125.57836151123048
2263,-159.78909301757812,35.138229370117195,-37.80104064941406,123.24840545654295
2264,-160.78016662597656,31.46938896179199,-34.62960433959961,137.68067932128906
2265,-156.01553344726562,38.096492767333984,-41.03605270385742,141.66366577148438
2266,-160.5894317626953,30.83360481262207,-43.4408073425293,133.4134521484375
2267,-157.30953979492188,32.64745712280273,-35.74409484863281,140.42202758789062
2268,-152.97499084472656,34.756759643554695,-35.93856811523437,138.01727294921878
2269,-155.491943359375,37.03435897827149,-35.55335998535156,132.13066101074222
2270,-156.98043823242188,36.5332145690918,-42.588111877441406,128.41694641113278
2271,-158.0949249267578,24.59919166564941,-46.27939224243164,118.9998779296875
2272,-145.996337890625,40.59474563598633,-33.18600082397461,129.03028869628906
2273,-143.98802185058594,38.941707611083984,-33.761947631835945,118.2556381225586
2274,-140.54356384277344,29.72285461425781,-35.15692901611328,113.11327362060548
2275,-154.6616973876953,33.43283462524414,-34.73432159423828,109.29109954833984
2276,-138.32954406738278,37.139076232910156,-29.98838806152344,108.5618133544922
2277,-151.8567657470703,43.51186752319336,-32.06777191162109,104.74337768554688
2278,-142.08067321777344,42.6068115234375,-31.47686767578125,109.42198944091795
2279,-139.61981201171878,35.325225830078125,-31.30857276916504,111.0114517211914
2280,-149.97933959960938,41.39134216308594,-29.741554260253906,111.30690002441406
2281,-165.92626953125,43.23137283325195,-34.95871353149414,110.05029296875
2282,-165.98611450195312,40.24319458007813,-35.43742370605469,118.958740234375
2283,-163.43923950195312,41.1632080078125,-38.73975372314453,123.99264526367188
2284,-161.31871032714844,34.652042388916016,-40.47880554199219,123.29328155517578
2285,-159.21688842773438,43.15283584594727,-34.135936737060554,128.01303100585938
2286,-152.9114227294922,29.23292732238769,-40.93133544921875,132.20172119140622
2287,-156.5092010498047,27.763147354125977,-41.21182632446289,128.98915100097656
2288,-145.39048767089844,36.02458572387695,-35.53091812133789,132.25408935546878
2289,-148.27767944335938,33.545032501220696,-41.181907653808594,131.76789855957028
2290,-146.336669921875,24.30373954772949,-46.48508834838867,130.59730529785156
2291,-148.13931274414062,32.77835464477539,-44.31968307495117,136.77935791015622
2292,-130.96568298339844,46.59728240966797,-33.08502578735352,138.2379150390625
2293,-149.33233642578125,26.267187118530273,-40.74433898925781,120.5444564819336
2294,-145.39796447753906,31.20759582519531,-33.15234375,124.79672241210938
2295,-157.9116668701172,32.363224029541016,-40.70320129394531,111.28072357177734
2296,-154.49713134765625,46.94883346557617,-29.128210067749023,104.30207061767578
2297,-154.2802276611328,43.10795593261719,-30.72514724731445,101.8786163330078
2298,-154.2689971923828,41.45492172241211,-29.644317626953125,106.11965942382812
2299,-168.4357452392578,46.74687957763672,-32.36696243286133,108.62165069580078
2300,-162.45938110351562,56.08166885375977,-27.59485244750977,121.15032196044922
2301,-162.39955139160156,52.32307052612305,-28.88511657714844,123.1736068725586
2302,-163.3008575439453,42.6890869140625,-32.269725799560554,129.27711486816406
2303,-178.74290466308594,38.72479248046875,-34.872695922851555,127.10797882080078
2304,-165.10350036621094,47.33404541015625,-27.938922882080078,139.70396423339844
2305,-160.83253479003906,46.92265319824219,-33.52633285522461,145.0333251953125
2306,-169.55770874023438,31.70500183105469,-43.28747177124024,139.23274230957028
2307,-159.1570587158203,35.15319061279297,-36.50703430175781,143.32418823242188
2308,-150.85447692871094,39.18854141235352,-30.25765991210937,143.32418823242188
2309,-154.4859161376953,36.2751579284668,-32.93916702270508,141.57765197753906
2310,-154.96836853027344,29.38626480102539,-36.06946563720703,134.94306945800778
2311,-156.6475830078125,25.17887687683105,-40.32173156738281,129.01158142089844
2312,-144.5677032470703,34.61090469360352,-36.77630615234375,132.8973388671875
2313,-147.98223876953125,36.67532730102539,-40.093597412109375,123.8954086303711
2314,-154.16429138183594,41.39134216308594,-33.87040328979492,125.64193725585938
2315,-163.0876922607422,40.108558654785156,-39.16236114501953,111.7930908203125
2316,-165.44007873535156,40.11977767944336,-35.332706451416016,113.08335876464844
2317,-155.0244598388672,50.04920959472656,-25.672542572021484,114.38484191894531
2318,-162.0666961669922,41.05101013183594,-24.60293197631836,114.8672866821289
2319,-155.0730743408203,39.2670783996582,-24.812366485595703,111.68089294433594
2320,-144.74722290039062,50.45685958862305,-17.149311065673828,128.77970886230472
2321,-156.61766052246094,39.68968963623047,-35.897430419921875,124.81168365478516
2322,-154.27273559570312,40.000099182128906,-34.405208587646484,133.39849853515622
2323,-152.11856079101562,27.83046531677246,-36.78378677368164,140.96804809570312
2324,-150.585205078125,31.446949005126953,-33.952682495117195,145.93463134765625
2325,-155.11422729492188,22.68062400817871,-41.00613403320313,143.31671142578125
2326,-150.4131622314453,20.032773971557614,-48.05210494995117,139.61795043945312
2327,-152.32798767089844,18.050626754760746,-41.22304916381836,145.063232421875
2328,-142.5369415283203,34.21073532104492,-34.04991912841797,153.59768676757812
2329,-145.05389404296875,27.73322868347168,-44.20748901367188,143.39898681640625
2330,-150.069091796875,15.559853553771973,-44.66001510620117,139.92462158203122
2331,-156.66253662109375,26.132551193237305,-34.397727966308594,136.91400146484378
2332,-149.04061889648438,35.841331481933594,-35.47856140136719,132.71409606933594
2333,-155.94821166992188,35.788970947265625,-36.26020050048828,127.39968872070312
2334,-163.54769897460938,35.082130432128906,-36.64167022705078,113.8014144897461
2335,-155.61163330078125,36.36491775512695,-34.652042388916016,111.57243347167969
2336,-147.1519775390625,54.65302658081055,-20.87799072265625,117.30944061279295
2337,-153.3826446533203,49.46952819824219,-21.420276641845703,115.29737854003906
2338,-161.78245544433594,44.39074325561523,-30.20156288146973,123.87296295166016
2339,-147.64938354492188,35.63937759399414,-34.943756103515625,122.0478973388672
2340,-144.27972412109375,46.58232498168945,-27.471435546875,142.75572204589844
2341,-152.8366241455078,35.418724060058594,-32.53525924682617,140.85211181640625
2342,-151.80441284179688,27.213382720947266,-38.38072204589844,145.33999633789062
2343,-157.26840209960938,23.35006523132324,-44.80587005615234,146.36846923828125
2344,-138.39686584472656,38.25730514526367,-26.67109680175781,162.99606323242188
2345,-154.45225524902344,19.714881896972656,-44.06911087036133,153.9268035888672
2346,-156.40821838378906,18.73128890991211,-50.63263702392578,151.14431762695312
2347,-160.07333374023438,20.50026130676269,-45.026527404785156,150.6169891357422
2348,-150.09527587890625,28.802839279174805,-34.943756103515625,155.2769012451172
2349,-148.47964477539062,29.75651359558105,-33.559993743896484,143.56353759765625
2350,-157.69100952148438,23.54080009460449,-39.77944564819336,134.82713317871094
2351,-167.31752014160156,27.75192832946777,-36.80248641967773,135.59007263183594
2352,-163.0054168701172,36.884761810302734,-31.637683868408203,127.59042358398438
2353,-164.7781219482422,35.43742370605469,-33.42535400390625,115.94063568115234
2354,-166.0496826171875,39.39797592163086,-32.452980041503906,114.1043472290039
2355,-154.5607147216797,36.32751846313477,-30.31001853942871,112.86643981933594
2356,-146.2095184326172,38.73227310180664,-29.18804931640625,115.89202117919922
2357,-139.53005981445312,42.629249572753906,-26.36442565917969,125.70925903320312
2358,-151.52391052246094,29.57699966430664,-34.81285858154297,132.72157287597656
2359,-146.98367309570312,32.879329681396484,-31.90695571899414,140.1153564453125
2360,-143.8870391845703,36.26020050048828,-28.873897552490234,150.20933532714844
2361,-154.75892639160156,29.2142276763916,-34.57350540161133,149.68576049804688
2362,-154.53826904296875,25.320993423461914,-37.59160614013672,153.2050018310547
2363,-143.95436096191406,27.56493186950684,-32.692337036132805,155.3292694091797
2364,-149.19395446777344,26.58881950378418,-33.313159942626946,154.29331970214844
2365,-161.65530395507812,23.398683547973636,-40.706939697265625,144.9547882080078
2366,-169.4156036376953,17.197929382324222,-47.9361686706543,142.46400451660156
2367,-169.5352783203125,23.85869216918945,-40.54238510131836,144.1768798828125
2368,-163.37191772460938,33.268280029296875,-33.94894027709961,139.94705200195312
2369,-157.00286865234375,28.53730583190918,-40.35165023803711,129.3406982421875
2370,-157.66482543945312,23.724056243896484,-42.29265975952149,121.00072479248048
2371,-156.853271484375,32.81201171875,-43.67267990112305,113.81263732910156
2372,-147.29034423828125,40.26937103271485,-36.60053253173828,113.12823486328124
2373,-154.01095581054688,36.52947235107422,-36.73890686035156,109.40703582763672
2374,-149.4856719970703,36.30881881713867,-39.861724853515625,113.5807647705078
2375,-149.0144500732422,42.225341796875,-32.58761978149414,124.11979675292969
2376,-149.54551696777344,45.60247039794922,-29.01227378845215,126.5432586669922
2377,-158.80923461914062,35.83759307861328,-37.7598991394043,129.71095275878906
2378,-158.78306579589844,34.40147018432617,-38.31714630126953,135.94535827636722
2379,-151.41920471191406,30.46709442138672,-33.43283462524414,142.4864501953125
2380,-151.92408752441406,37.73746109008789,-29.75651359558105,144.3975372314453
2381,-156.23992919921875,34.7193603515625,-30.033266067504886,153.67996215820312
2382,-168.8172149658203,31.92939567565918,-37.326072692871094,146.5853729248047
2383,-164.6023406982422,26.38686370849609,-39.58871078491211,147.80084228515625
2384,-151.7670135498047,34.40147018432617,-35.66929626464844,150.1158447265625
2385,-156.25863647460938,31.30857276916504,-35.18684768676758,152.89085388183594
2386,-165.61959838867188,26.824432373046875,-47.33030319213867,145.414794921875
2387,-160.7876434326172,26.1213321685791,-44.31594467163086,136.49513244628906
2388,-157.6199493408203,30.02204704284668,-38.21990585327149,133.44337463378906
2389,-155.6228485107422,33.10746383666992,-45.5987319946289,122.8108367919922
2390,-152.48507690429688,28.60836410522461,-46.76931762695313,120.32006072998048
2391,-153.20687866210938,29.07211303710937,-42.03086471557617,117.14114379882812
2392,-145.26705932617188,38.39568328857422,-33.15234375,124.80419921875
2393,-154.2652587890625,29.06837272644043,-41.4923210144043,116.0490951538086
2394,-149.79234313964844,27.52005386352539,-38.773414611816406,120.87730407714844
2395,-153.7977752685547,30.57929229736328,-37.23631286621094,130.64218139648438
2396,-153.78282165527344,38.67991638183594,-33.945201873779304,135.91169738769528
2397,-157.76206970214844,35.83759307861328,-37.93193435668945,137.11595153808594
2398,-153.10963439941406,27.84542465209961,-39.73456573486328,146.40960693359375
2399,-158.70452880859375,28.36901092529297,-43.65024185180664,146.3834228515625
2400,-156.84205627441406,35.800193786621094,-38.10771179199219,150.48236083984375
2401,-171.3453826904297,35.72165298461914,-44.8657112121582,145.4596710205078
2402,-172.09710693359375,25.347171783447266,-49.75001907348633,147.8681640625
2403,-164.26576232910156,29.83879089355469,-48.16804122924805,138.26036071777344
2404,-157.8293914794922,34.947494506835945,-43.39592742919922,139.07940673828122
2405,-156.86074829101562,38.43682098388672,-43.55300521850586,129.80070495605472
2406,-152.02880859375,29.079591751098636,-42.71152877807617,124.5012664794922
2407,-154.99453735351562,30.351158142089844,-43.16779708862305,118.7605209350586
2408,-152.86654663085938,37.89453506469727,-45.48279190063477,117.71334838867188
2409,-148.6292266845703,34.70066070556641,-46.83663558959961,110.8506317138672
2410,-152.86654663085938,33.18600082397461,-46.95257568359375,114.040771484375
2411,-150.49169921875,32.568920135498054,-42.64046859741211,114.2240219116211
2412,-155.0843048095703,41.116458892822266,-38.62755584716797,118.52864837646484
2413,-160.09576416015625,39.684078216552734,-37.565425872802734,125.31282806396484
2414,-163.34573364257812,36.03767776489258,-40.15343475341797,131.09471130371094
2415,-154.02590942382812,27.73135757446289,-37.87583541870117,130.97129821777344
2416,-156.61392211914062,35.3009147644043,-34.408950805664055,143.25686645507812
2417,-144.1862335205078,40.503116607666016,-32.703556060791016,145.01087951660156
2418,-159.95364379882812,20.434812545776367,-48.05210494995117,139.85356140136722
2419,-160.0845489501953,27.48452568054199,-41.42874145507813,140.43698120117188
2420,-144.2685089111328,36.34060668945313,-35.63937759399414,151.57814025878906
2421,-152.98995971679688,29.941638946533203,-34.06113815307617,141.36822509765625
2422,-147.30157470703125,29.47789192199707,-35.56084060668945,139.43843078613278
2423,-158.7980194091797,29.49285125732422,-38.01421356201172,140.57536315917972
2424,-156.45310974121094,32.413711547851555,-41.84012985229492,135.67608642578122
2425,-160.39869689941406,36.0451545715332,-38.27226638793945,137.68815612792972
2426,-165.2418670654297,31.18702507019043,-46.821678161621094,126.06080627441406
2427,-157.16741943359375,37.75802993774414,-44.24114608764648,121.86463928222656
2428,-160.2490997314453,43.89894485473633,-38.90056991577149,118.64832305908205
2429,-156.008056640625,43.59601211547852,-37.34103012084961,117.48521423339844
2430,-150.06161499023438,35.03912353515625,-38.70235443115234,115.5442123413086
2431,-154.6055908203125,42.16737365722656,-40.58726501464844,112.90383911132812
2432,-145.88414001464844,43.46137619018555,-34.23317337036133,121.35601043701172
2433,-147.72044372558594,45.12189483642578,-30.631650924682614,130.21583557128906
2434,-148.85736083984375,29.40309333801269,-35.51596069335937,133.13670349121094
2435,-147.35018920898438,31.063608169555664,-36.78378677368164,137.72181701660156
2436,-145.08006286621094,36.722076416015625,-33.64974975585937,139.09062194824222
2437,-146.87521362304688,34.80350875854492,-35.62441635131836,141.27471923828125
2438,-148.44598388671875,37.309242248535156,-39.97018051147461,137.05610656738278
2439,-148.53573608398438,30.79059600830078,-33.791866302490234,143.52987670898438
2440,-148.61427307128906,31.983623504638672,-33.728286743164055,147.43807983398438
2441,-146.50497436523438,27.24143218994141,-37.7187614440918,138.66053771972656
2442,-152.5374298095703,26.493452072143555,-36.04702758789063,139.56558227539062
2443,-167.8298797607422,17.929080963134766,-44.73481369018555,131.27049255371094
2444,-159.66941833496094,38.10210037231445,-33.462753295898445,138.77272033691406
2445,-166.88368225097656,31.542316436767575,-39.768226623535156,134.30728149414062
2446,-165.09974670410156,35.719783782958984,-40.706939697265625,128.16636657714844
2447,-159.71803283691406,34.10788726806641,-36.619232177734375,127.06684112548828
2448,-147.34271240234375,44.48236846923828,-31.633943557739254,127.11920166015624
2449,-138.95411682128906,36.86045455932617,-33.23836135864258,124.30679321289062
2450,-143.5018310546875,32.982177734375,-34.86895751953125,122.99408721923828
2451,-150.05413818359375,26.89735984802246,-42.74518585205078,116.32958984375
2452,-140.48373413085938,36.61735916137695,-35.23546600341797,130.72071838378906
2453,-143.51304626464844,39.71399688720703,-33.118682861328125,141.43927001953125
2454,-149.69509887695312,26.79264259338379,-42.80128479003906,136.06129455566406
2455,-143.120361328125,32.671764373779304,-38.14884948730469,137.89384460449222
2456,-141.68797302246094,31.224424362182614,-33.739505767822266,140.28738403320312
2457,-140.21820068359378,37.49249649047852,-29.191789627075195,139.52818298339844
2458,-156.69993591308594,26.646787643432614,-37.29989242553711,141.5439910888672
2459,-148.2814178466797,29.06650161743164,-28.51860618591309,139.52444458007812
2460,-152.111083984375,38.793983459472656,-22.36647224426269,142.31814575195312
2461,-165.8065948486328,35.05408096313477,-26.69353675842285,135.54145812988278
2462,-167.68775939941406,40.9818229675293,-28.26055335998535,135.7845458984375
2463,-171.2294464111328,37.1484260559082,-35.66929626464844,129.7633056640625
2464,-157.42547607421875,44.55342864990234,-24.60293197631836,131.83522033691406
2465,-147.9186553955078,48.20730972290039,-23.01721382141113,128.38702392578122
2466,-143.61029052734375,35.110179901123054,-38.10771179199219,104.62370300292969
2467,-145.67845153808594,38.6630859375,-35.946048736572266,109.49304962158205
2468,-146.96124267578125,34.354721069335945,-39.74578857421875,116.32585144042969
2469,-143.04930114746094,35.07278060913086,-39.49147415161133,123.83182525634766
2470,-144.0216827392578,32.26785659790039,-41.1519889831543,131.18821716308594
2471,-144.2236328125,29.885540008544922,-37.53550720214844,140.8221893310547
2472,-140.54731750488278,36.51638412475586,-28.48120880126953,143.69818115234375
2473,-149.21266174316406,27.85103416442871,-31.58906555175781,141.3270721435547
2474,-152.8216552734375,28.329742431640625,-36.52199172973633,140.99049377441406
2475,-146.37033081054688,17.697206497192386,-34.38650894165039,143.0474395751953
2476,-150.33836364746094,27.031997680664066,-33.05884552001953,148.631103515625
2477,-149.41835021972656,37.93380355834961,-30.19782257080078,147.610107421875
2478,-159.74795532226562,24.219593048095703,-43.433326721191406,132.1044921875
2479,-166.23667907714844,31.650774002075195,-38.044132232666016,135.55641174316406
2480,-169.55397033691406,41.3520736694336,-26.977767944335934,134.0006103515625
2481,-161.15415954589844,45.05083465576172,-27.58363151550293,128.36459350585938
2482,-162.2836151123047,38.636905670166016,-32.34452438354492,121.68512725830078
2483,-151.58001708984375,38.24421691894531,-30.04448699951172,116.60260009765624
2484,-145.85423278808594,39.41106414794922,-29.02349281311035,114.5082550048828
2485,-145.89163208007812,36.04889678955078,-32.460460662841804,121.0269012451172
2486,-148.68533325195312,30.775636672973636,-39.49521255493164,119.90867614746094
2487,-152.20457458496094,29.66488647460937,-43.1004753112793,125.45868682861328
2488,-138.625,38.80520248413086,-31.899477005004886,135.91169738769528
2489,-147.18563842773438,33.65161895751953,-38.02543258666992,136.53627014160156
2490,-148.1355743408203,20.91352081298828,-42.56193161010742,136.39414978027344
2491,-156.67750549316406,28.34470176696777,-36.940860748291016,145.12307739257812
2492,-145.09877014160156,32.31273651123047,-27.86038398742676,149.6894989013672
2493,-157.90045166015625,26.75150489807129,-36.24898147583008,143.21946716308594
2494,-159.3627471923828,25.76043128967285,-33.705848693847656,143.73558044433594
2495,-157.8331298828125,29.305856704711914,-34.947494506835945,143.0474395751953
2496,-164.1909637451172,36.40792465209961,-38.55649948120117,140.9156951904297
2497,-166.33392333984375,38.83885955810547,-42.12810134887695,135.403076171875
2498,-167.76629638671875,30.801816940307614,-41.144508361816406,128.02799987792972
2499,-161.88717651367188,34.964324951171875,-39.95148086547852,125.75787353515624
2500,-156.03797912597656,35.39441299438477,-33.94894027709961,122.3134307861328
2501,-156.6363525390625,43.11730575561523,-31.772319793701172,119.50850677490234
2502,-161.4683074951172,34.16024780273437,-39.6074104309082,115.93689727783205
2503,-156.43814086914062,33.225269317626946,-36.86606216430664,123.69345092773438
2504,-142.75010681152344,42.8293342590332,-31.04677963256836,129.81192016601562
2505,-148.07199096679688,38.89122009277344,-34.895137786865234,135.16372680664062
2506,-148.97705078125,26.463531494140625,-46.01385879516602,134.73738098144528
2507,-153.24801635742188,26.57198905944824,-39.465293884277344,138.15190124511722
2508,-140.47251892089844,31.68817138671875,-32.04159164428711,143.63833618164062
2509,-141.8562774658203,26.803863525390625,-35.979705810546875,143.26060485839844
2510,-139.12240600585938,33.176651000976555,-30.504493713378906,145.81869506835938
2511,-150.12893676757812,31.89760589599609,-29.59943771362305,140.92691040039062
2512,-150.51788330078125,31.00377082824707,-30.71392822265625,136.67839050292972
2513,-151.62489318847656,30.768156051635746,-32.90177154541016,137.38896179199222
2514,-155.491943359375,23.09014320373535,-41.79525375366211,129.84931945800778
2515,-146.22073364257812,32.49225234985352,-36.89972305297852,126.7115478515625
2516,-146.35537719726562,33.232749938964844,-34.999855041503906,126.36000061035156
2517,-144.57144165039062,31.19076538085937,-29.150650024414066,123.46905517578124
2518,-153.56590270996094,29.728464126586914,-37.939414978027344,117.85173034667969
2519,-150.1887664794922,31.564756393432614,-31.338491439819336,120.13306427001952
2520,-150.52162170410156,37.4887580871582,-31.734920501708984,116.24356842041016
2521,-159.95364379882812,37.649574279785156,-38.384464263916016,118.70068359375
2522,-152.04750061035156,31.13466644287109,-38.44804000854492,120.55941772460938
2523,-146.23570251464844,30.405385971069336,-35.20554733276367,129.12753295898438
2524,-146.3927764892578,32.525909423828125,-29.25536727905273,133.9183349609375
2525,-149.0630645751953,29.081462860107425,-34.85399627685547,131.33779907226562
2526,-150.0429229736328,20.02716445922852,-44.48049926757813,129.52021789550778
2527,-149.4370574951172,18.280630111694336,-38.11893081665039,137.34034729003906
2528,-147.3988037109375,35.68986511230469,-26.55142021179199,145.95333862304688
2529,-154.3026580810547,23.213558197021484,-40.47132873535156,139.23648071289062
2530,-153.966064453125,23.29583740234375,-42.78632354736328,136.76814270019528
2531,-158.4763946533203,23.08640289306641,-34.69692230224609,129.67729187011722
2532,-138.80078125,35.85441970825195,-26.158729553222656,137.79661560058594
2533,-145.78317260742188,28.59527587890625,-31.97053527832031,127.01821899414062
2534,-142.45091247558594,24.78805732727051,-38.01047134399414,120.29762268066406
2535,-146.20578002929688,37.5186767578125,-36.00214767456055,118.33417510986328
2536,-149.6988525390625,32.30899429321289,-38.59389877319336,122.42188262939452
2537,-146.96498107910156,31.19450569152832,-28.93747520446777,124.54615020751952
2538,-147.92613220214844,29.42179298400879,-36.47711563110352,124.91639709472656
2539,-159.47120666503906,32.17435836791992,-39.11000442504883,122.8332748413086
2540,-154.49339294433594,40.25254440307617,-27.16102409362793,138.21548461914062
2541,-158.8503875732422,29.49285125732422,-34.498706817626946,132.691650390625
2542,-155.82106018066406,35.903038024902344,-38.54528045654297,140.5379638671875
2543,-157.7059783935547,32.36509323120117,-34.326671600341804,142.47523498535156
2544,-149.97186279296875,40.69385147094727,-22.205656051635746,150.2392578125
2545,-150.60763549804688,27.723878860473636,-32.22110748291016,144.24046325683594
2546,-153.03857421875,26.770204544067386,-32.83444976806641,139.59550476074222
2547,-163.02037048339844,23.254697799682614,-39.74952697753906,131.10968017578122
2548,-147.099609375,35.32335662841797,-29.528379440307614,135.743408203125
2549,-154.14932250976562,31.85272789001465,-33.28697967529297,134.16891479492188
2550,-150.1064910888672,32.79144287109375,-33.118682861328125,139.22525024414062
2551,-149.3024139404297,30.62230110168457,-30.448394775390625,136.79058837890622
2552,-141.78521728515625,34.53049468994141,-24.0681266784668,138.59695434570312
2553,-150.5029296875,27.39476776123047,-33.844223022460945,127.89710235595705
2554,-147.72792053222656,27.14045333862305,-32.38566207885742,131.21438598632812
2555,-153.5172882080078,27.55932235717773,-37.73371887207031,124.72940063476562
2556,-150.4468231201172,34.30236053466797,-29.150650024414066,125.98600769042969
2557,-153.0535430908203,29.92667961120605,-36.36865615844727,128.70491027832028
2558,-158.56614685058594,29.62374687194824,-35.52717971801758,133.26385498046878
2559,-156.95425415039062,29.283416748046875,-35.171890258789055,130.69081115722656
2560,-153.76785278320312,31.50491714477539,-33.795604705810554,136.49139404296878
2561,-147.7353973388672,30.79433631896973,-29.087072372436523,140.825927734375
2562,-146.92384338378906,27.31996917724609,-38.64625549316406,139.84608459472656
2563,-144.63502502441406,27.23395156860352,-33.57869338989258,135.84439086914062
2564,-149.25379943847656,32.70168685913086,-34.40147018432617,128.618896484375
2565,-152.111083984375,27.97445106506348,-34.20325469970703,131.01243591308594
2566,-156.87571716308594,22.65257453918457,-40.467586517333984,125.0846939086914
2567,-153.1171112060547,30.020177841186523,-40.23571395874024,128.959228515625
2568,-152.88897705078125,33.674060821533196,-33.552513122558594,131.98106384277344
2569,-151.8979034423828,31.467517852783203,-37.03062057495117,128.71987915039062
2570,-163.99649047851562,37.309242248535156,-37.95437622070313,128.57402038574222
2571,-153.7977752685547,32.436153411865234,-36.71272659301758,126.34130096435548
2572,-149.28746032714844,36.76321792602539,-34.285533905029304,129.56135559082028
2573,-160.63804626464844,42.67599868774414,-38.60885620117188,129.4342041015625
2574,-152.63092041015625,33.30754852294922,-36.67906951904297,134.03053283691406
2575,-166.8126220703125,30.53628349304199,-38.171287536621094,126.9733428955078
2576,-161.76376342773438,38.77154159545898,-33.402915954589844,125.0211181640625
2577,-149.16778564453125,40.04684829711914,-39.6261100769043,127.68392181396484
2578,-155.33486938476562,31.95744514465332,-43.77739715576172,120.92218780517578
2579,-159.12713623046875,33.176651000976555,-43.17527389526367,124.96875762939452
2580,-139.99380493164062,37.75429153442383,-35.63937759399414,132.11196899414062
2581,-148.44972229003906,25.45001983642578,-42.55445098876953,128.92556762695312
2582,-151.58375549316406,26.691665649414066,-39.255859375,138.12947082519528
2583,-151.50521850585938,29.35821533203125,-38.07405090332031,134.92062377929688
2584,-143.9244384765625,39.51204299926758,-29.042192459106445,139.62916564941406
2585,-151.6398468017578,36.314430236816406,-35.29156494140625,131.01243591308594
2586,-156.82708740234375,26.429872512817386,-38.87065124511719,129.48655700683594
2587,-160.4585418701172,23.75210380554199,-43.89707565307617,126.83123016357422
2588,-157.8780059814453,34.964324951171875,-38.152587890625,129.55014038085938
2589,-160.77268981933594,32.47729110717773,-42.52079391479492,129.69224548339844
2590,-159.2281036376953,30.139854431152344,-42.588111877441406,129.24346923828122
2591,-159.8601531982422,34.769851684570305,-34.730579376220696,129.34817504882812
2592,-153.69305419921875,41.6849250793457,-30.377336502075195,127.0556182861328
2593,-148.00466918945312,37.44761657714844,-33.687149047851555,123.60369110107422
2594,-144.19744873046875,31.119707107543945,-33.82178497314453,124.59476470947266
2595,-154.6878662109375,27.62664031982422,-42.22159957885742,115.83218383789062
2596,-147.60450744628906,35.54026794433594,-36.57809066772461,116.24356842041016
2597,-152.08489990234375,30.397907257080078,-34.940013885498054,127.7512435913086
2598,-150.1064910888672,28.48307800292969,-39.38301467895508,126.95464324951172
2599,-153.10589599609375,28.045509338378906,-42.68161010742188,129.639892578125
2600,-151.06764221191406,32.821361541748054,-36.81370544433594,138.13694763183594
2601,-158.43899536132812,35.98531723022461,-43.53430557250977,137.27676391601562
2602,-159.0972137451172,15.920754432678224,-45.41173553466797,127.92701721191406
2603,-155.17031860351562,18.598522186279297,-46.39532852172852,133.77621459960938
2604,-147.7802734375,36.17979049682617,-37.471927642822266,131.35650634765622
2605,-149.223876953125,43.46885681152344,-37.48314666748047,137.785400390625
2606,-162.85581970214844,36.71085739135742,-45.05270385742188,125.33900451660156
2607,-154.6093292236328,32.484771728515625,-41.24174499511719,128.37580871582028
2608,-141.418701171875,37.03248977661133,-30.160423278808594,134.66258239746094
2609,-149.02566528320312,33.31876754760742,-34.24813461303711,133.23393249511722
2610,-158.65589904785156,31.063608169555664,-36.26020050048828,125.49608612060548
2611,-154.96836853027344,35.110179901123054,-37.24753189086914,121.23259735107422
2612,-153.12832641601562,34.848388671875,-38.71731567382813,117.56749725341795
2613,-154.6486053466797,35.53466033935547,-39.44098663330078,122.29098510742188
2614,-153.22369384765625,29.17683029174805,-38.96601867675781,125.06599426269531
2615,-155.7967529296875,24.322439193725586,-38.50600814819336,128.14019775390622
2616,-146.8097686767578,37.57290649414063,-32.2603759765625,143.31297302246094
2617,-151.86611938476562,35.33644485473633,-41.53532791137695,132.90107727050778
2618,-152.5019073486328,31.772319793701172,-38.59202575683594,137.5684814453125
2619,-161.44773864746094,27.28817939758301,-41.29971694946289,127.8372573852539
2620,-152.7898712158203,38.63129806518555,-36.71833801269531,132.94970703125
2621,-152.4046630859375,42.59558868408203,-31.27304267883301,134.24371337890622
2622,-154.82437133789062,33.38795852661133,-34.04056930541992,129.03028869628906
2623,-157.13563537597656,31.944355010986328,-32.02102279663086,124.69200134277344
2624,-147.81954956054688,48.160560607910156,-23.60998916625977,133.51443481445312
2625,-151.83619689941406,34.468788146972656,-31.18702507019043,133.62287902832028
2626,-157.26654052734375,31.60402488708496,-33.726417541503906,131.81651306152344
2627,-148.74703979492188,34.20325469970703,-33.15421295166016,130.90397644042972
2628,-152.03814697265625,40.673282623291016,-28.77853012084961,122.36204528808594
2629,-149.1733856201172,41.49980163574219,-27.55558204650879,118.58848571777344
2630,-155.86407470703125,31.854597091674805,-36.0638542175293,116.89805603027344
2631,-154.63739013671875,39.85050582885742,-40.46945571899414,122.59766387939452
2632,-158.5119171142578,44.113990783691406,-34.10040664672852,132.02595520019528
2633,-151.1817169189453,34.21073532104492,-44.75164413452149,137.04115295410156
2634,-158.9307861328125,26.110111236572266,-51.47598266601562,135.34698486328122
2635,-144.85006713867188,31.52548599243164,-44.96855545043945,141.2859344482422
2636,-154.96649169921875,33.76942825317383,-46.10548782348633,138.59695434570312
2637,-151.9820556640625,31.14775657653809,-49.90896606445313,134.98794555664062
2638,-156.85888671875,26.71223449707031,-51.51712036132813,132.70286560058594
2639,-154.7907257080078,27.6883487701416,-47.10778045654297,130.80299377441406
2640,-144.58827209472656,38.67617416381836,-38.42747116088867,134.41947937011722
2641,-155.42649841308594,38.601375579833984,-29.60878753662109,133.04319763183594
2642,-154.51022338867188,31.95931434631348,-35.54026794433594,124.16841888427734
2643,-153.77720642089844,36.2751579284668,-34.264965057373054,119.87501525878906
2644,-159.41697692871094,38.37698364257813,-31.617115020751953,121.11666107177734
2645,-137.94621276855472,46.821678161621094,-22.45809936523437,115.89202117919922
2646,-147.5652313232422,35.59449768066406,-26.47849082946777,113.72661590576172
2647,-148.10377502441406,32.83071136474609,-30.1473331451416,112.95246124267578
2648,-147.41563415527344,38.73601531982422,-28.699993133544922,124.12728118896484
2649,-153.6276092529297,32.32208633422852,-35.92921829223633,125.3427505493164
2650,-156.776611328125,27.81176567077637,-45.660438537597656,130.75437927246094
2651,-157.73402404785156,33.496414184570305,-41.23987579345703,133.29377746582028
2652,-148.43663024902344,31.155237197875977,-38.43869018554688,133.75752258300778
2653,-154.8206329345703,27.482654571533203,-40.74620819091797,131.17698669433594
2654,-160.68853759765625,27.175983428955078,-40.18522644042969,134.7747802734375
2655,-152.8833770751953,31.60402488708496,-36.03767776489258,133.49946594238278
2656,-157.4423065185547,35.62815856933594,-33.23649215698242,135.32827758789062
2657,-162.26304626464844,26.798254013061523,-42.11127471923828,131.17324829101562
2658,-167.281982421875,27.14232444763184,-38.2703971862793,126.7713851928711
2659,-155.1310577392578,31.772319793701172,-36.972652435302734,128.85076904296878
2660,-147.7484893798828,37.83843612670898,-31.68817138671875,124.47509002685548
2661,-149.19583129882812,37.225093841552734,-33.87227249145508,121.3709716796875
2662,-157.75645446777344,32.56143951416016,-41.71858215332031,107.35009002685548
2663,-148.05142211914062,38.76967239379883,-33.756336212158196,116.1313705444336
2664,-143.69818115234375,40.523685455322266,-31.97988510131836,121.46073150634766
2665,-144.28160095214844,43.13787460327149,-26.845001220703125,124.47509002685548
2666,-152.21392822265625,27.57241249084473,-37.75429153442383,126.90228271484376
2667,-144.76031494140625,33.945201873779304,-37.17460632324219,128.73483276367188
2668,-147.80458068847656,32.393142700195305,-39.20537185668945,126.41236114501952
2669,-143.93753051757812,32.452980041503906,-38.7154426574707,135.58633422851562
2670,-157.56198120117188,33.642269134521484,-43.99992370605469,131.1246337890625
2671,-154.92161560058594,27.66964912414551,-34.30984115600586,140.8745574951172
2672,-148.0065460205078,34.09105682373047,-30.30440902709961,142.60986328125
2673,-148.82557678222656,33.40665817260742,-32.653064727783196,138.58198547363278
2674,-153.84078979492188,22.669403076171875,-38.62942504882813,130.144775390625
2675,-139.53192138671878,35.381324768066406,-24.10739517211914,139.52818298339844
2676,-153.23118591308594,31.615243911743164,-30.379207611083984,124.83038330078124
2677,-152.88711547851562,32.999008178710945,-32.34639358520508,121.42333221435548
2678,-145.77381896972656,30.88222312927246,-36.3331298828125,110.54396057128906
2679,-145.10438537597656,35.14197158813477,-26.620607376098636,109.07791900634766
2680,-144.71542358398438,41.51102066040039,-21.545562744140625,115.63396453857422
2681,-143.2344207763672,28.42510986328125,-30.308149337768555,114.5643539428711
2682,-148.55630493164062,26.27092742919922,-36.546302795410156,114.8224105834961
2683,-140.35844421386722,34.906356811523445,-25.670673370361328,120.9296646118164
2684,-142.37051391601562,37.54672622680664,-34.4669189453125,129.30329895019528
2685,-145.2764129638672,24.662769317626953,-35.338314056396484,131.06852722167972
2686,-151.02464294433594,26.715974807739254,-38.71170425415039,129.66981506347656
2687,-143.372802734375,36.50703430175781,-30.34928894042969,137.28799438476562
2688,-153.24240112304688,25.38083076477051,-36.164833068847656,133.85101318359378
2689,-152.3223876953125,26.17742919921875,-37.50371551513672,135.20860290527344
2690,-148.806884765625,28.90381622314453,-34.47439956665039,137.02619934082028
2691,-157.446044921875,28.66446304321289,-35.80954360961914,133.89590454101562
2692,-151.77261352539062,32.034114837646484,-27.615421295166016,137.7330322265625
2693,-144.3900604248047,30.80368614196777,-29.05528259277344,128.59646606445312
2694,-155.8939971923828,25.97173500061035,-41.62508773803711,119.3439483642578
2695,-148.57501220703125,33.316898345947266,-33.80121612548828,119.8263931274414
2696,-146.07675170898438,38.63877487182617,-25.02741050720215,117.12619018554688
2697,-137.98361206054688,35.063430786132805,-28.21380615234375,116.3894271850586
2698,-143.4251708984375,28.148357391357425,-27.129234313964844,119.40752410888672
2699,-153.39947509765625,35.070911407470696,-26.104501724243164,119.71794128417969
2700,-150.3252716064453,35.53466033935547,-16.27978515625,130.47763061523438
2701,-150.48609924316406,42.10566329956055,-23.71470642089844,135.65739440917972
2702,-161.83294677734375,24.53187370300293,-29.49285125732422,134.67753601074222
2703,-163.8936309814453,25.597745895385746,-31.762969970703125,138.91484069824222
2704,-149.42022705078125,36.04328536987305,-24.48512458801269,137.7330322265625
2705,-148.455322265625,38.96040725708008,-26.63930702209473,138.81011962890622
2706,-158.2127227783203,29.79765319824219,-28.550395965576172,133.26385498046878
2707,-152.37474060058594,34.68570327758789,-25.883848190307614,136.33805847167972
2708,-152.87962341308594,32.38566207885742,-23.07892227172852,133.63784790039062
2709,-150.26544189453125,38.19372940063477,-33.715198516845696,126.49463653564452
2710,-166.03285217285156,31.91443634033203,-31.44881820678711,119.38134765625
2711,-151.5220489501953,35.508480072021484,-25.77165031433105,117.41790008544922
2712,-153.95298767089844,41.91866683959961,-17.865501403808594,112.08853912353516
2713,-151.5968475341797,39.62984848022461,-24.27194976806641,112.9823760986328
2714,-153.51914978027344,33.17478179931641,-29.42553329467773,111.75942993164062
2715,-150.8339080810547,32.53900146484375,-25.629533767700195,119.83761596679688
2716,-149.62591552734375,42.08696365356445,-17.786964416503906,127.0481414794922
2717,-153.032958984375,34.00878143310547,-27.77623748779297,120.1891632080078
2718,-150.82643127441406,36.757606506347656,-32.29403686523437,127.29871368408205
2719,-143.85525512695312,36.42101669311523,-32.017284393310554,133.23393249511722
2720,-143.5336151123047,41.885009765625,-24.17097282409668,134.3521728515625
2721,-151.27146911621094,33.646011352539055,-27.07687568664551,138.43614196777344
2722,-151.91473388671875,29.77521324157715,-36.55378341674805,138.2491455078125
2723,-144.8126678466797,39.618629455566406,-28.12404823303223,140.07795715332028
2724,-149.12477111816406,34.221954345703125,-34.78854751586914,128.18133544921878
2725,-148.86297607421875,38.320884704589844,-34.508056640625,132.78140258789062
2726,-146.9668426513672,40.30303192138672,-35.050342559814446,127.08180236816406
2727,-156.11090087890625,36.21906280517578,-29.66862678527832,124.0823974609375
2728,-153.7510223388672,39.29325866699219,-25.26676368713379,117.16732788085938
2729,-150.90496826171875,44.36082458496094,-26.669225692749023,118.77548217773438
2730,-153.87069702148438,38.87065124511719,-33.550643920898445,106.26551818847656
2731,-151.61180114746094,41.27540588378906,-31.91630554199219,102.05065155029295
2732,-152.5019073486328,41.04353332519531,-27.405986785888672,107.66797637939452
2733,-145.31381225585938,46.61224365234375,-31.31418228149414,113.36758422851562
2734,-153.9342803955078,32.53525924682617,-39.65042114257813,115.66014862060548
2735,-148.0364532470703,43.384708404541016,-28.40827941894531,129.8455810546875
2736,-149.28932189941406,41.993465423583984,-30.86165428161621,128.25239562988278
2737,-149.92137145996094,39.6261100769043,-32.45859146118164,132.69912719726562
2738,-150.98724365234375,36.55939102172852,-35.110179901123054,128.82460021972656
2739,-147.25482177734375,38.657474517822266,-25.82400894165039,134.31851196289062
2740,-147.85694885253906,39.79066467285156,-34.893264770507805,131.45748901367188
2741,-154.15493774414062,41.181907653808594,-27.806156158447266,131.73423767089844
2742,-154.97396850585938,34.367809295654304,-33.18787384033203,132.8262939453125
2743,-169.05096435546875,36.78378677368164,-32.16687774658203,132.32513427734378
2744,-162.23312377929688,38.37324523925781,-24.79553604125977,131.81277465820312
2745,-163.209228515625,32.56143951416016,-32.15940093994141,127.8335189819336
2746,-162.64451599121094,40.53864669799805,-34.64269256591797,118.37531280517578
2747,-157.37124633789062,42.39363479614258,-29.593828201293945,115.44322967529295
2748,-153.3396453857422,41.75411224365234,-29.021623611450195,110.84689331054688
2749,-150.16819763183594,40.66580200195313,-24.44024658203125,114.05198669433594
2750,-155.0300750732422,34.96245574951172,-31.63581466674805,116.0528335571289
2751,-143.46630859375,39.315696716308594,-23.35941505432129,121.7748794555664
2752,-145.04454040527344,41.20808792114258,-25.0012321472168,123.88418579101562
2753,-152.5767059326172,35.990928649902344,-30.47644424438477,124.45639038085938
2754,-152.93572998046875,32.53525924682617,-30.74197769165039,129.67355346679688
2755,-154.72714233398438,26.450443267822266,-33.42348480224609,133.34239196777344
2756,-145.403564453125,36.60053253173828,-27.08061599731445,148.18605041503906
2757,-145.76260375976562,34.48748779296875,-34.504318237304695,149.53990173339844
2758,-153.39199829101562,27.763147354125977,-29.23853874206543,144.31900024414062
2759,-158.85972595214844,27.30313873291016,-32.97469711303711,138.42491149902344
2760,-161.5150604248047,41.79525375366211,-32.69420623779297,139.67404174804688
2761,-146.095458984375,35.500999450683594,-31.302963256835934,138.454833984375
2762,-152.6888885498047,28.507387161254886,-32.84006118774414,130.77682495117188
2763,-150.8339080810547,36.08816528320313,-25.87636756896973,132.45977783203122
2764,-142.79685974121094,40.856536865234375,-27.52940368652344,126.47593688964844
2765,-134.44940185546878,40.32546997070313,-30.89157295227051,118.87645721435548
2766,-145.4185333251953,23.454782485961914,-36.27703094482422,111.8566665649414
2767,-141.00918579101562,26.196128845214844,-33.625438690185554,112.94497680664062
2768,-138.17060852050778,35.07465362548828,-28.30356216430664,120.2639617919922
2769,-150.42999267578125,30.766286849975586,-39.085693359375,111.0077133178711
2770,-146.6040802001953,29.229188919067386,-32.80640411376953,128.82460021972656
2771,-145.72894287109375,29.655536651611328,-30.97385215759277,136.76066589355472
2772,-140.26121520996094,30.10058403015137,-25.49489784240723,141.49537658691406
2773,-149.28558349609375,31.73866081237793,-26.104501724243164,136.10992431640622
2774,-158.302490234375,20.848072052001953,-32.709163665771484,136.53253173828122
2775,-158.45956420898438,23.802593231201172,-28.512996673583984,141.87684631347656
2776,-156.8140106201172,29.423662185668945,-28.894466400146484,140.18266296386722
2777,-148.27207946777344,42.225341796875,-16.477998733520508,148.93777465820312
2778,-155.52748107910156,28.44754981994629,-30.71953773498535,131.73797607421878
2779,-149.33419799804688,27.841684341430664,-32.196800231933594,128.73109436035156
2780,-146.8995361328125,36.70524978637695,-29.22357749938965,129.22850036621094
2781,-144.640625,34.25187301635742,-29.354475021362305,128.44313049316406
2782,-155.30308532714844,20.926610946655273,-38.54714965820313,112.85896301269531
2783,-150.05599975585938,35.15319061279297,-37.46631622314453,118.40897369384766
2784,-139.34492492675778,35.097091674804695,-30.783117294311523,121.94317626953124
2785,-141.8020477294922,38.01047134399414,-27.13297462463379,115.21135711669922
2786,-152.73377990722656,22.24305534362793,-39.8261947631836,109.20881652832031
2787,-148.57501220703125,30.35863876342773,-33.92089080810547,117.46651458740234
2788,-144.1881103515625,33.76942825317383,-29.5788688659668,128.20750427246094
2789,-154.59999084472656,26.99646759033203,-34.11910629272461,128.22621154785156
2790,-155.69577026367188,22.452489852905273,-34.02560806274414,134.89071655273438
2791,-148.7694854736328,33.402915954589844,-28.056730270385746,143.40646362304688
2792,-155.2021026611328,34.738059997558594,-27.578022003173828,140.53048706054688
2793,-160.86805725097656,32.66241455078125,-31.927526473999023,138.88117980957028
2794,-159.476806640625,26.768333435058594,-33.27014923095703,140.04803466796878
2795,-158.27256774902344,24.288780212402344,-33.374866485595696,139.30378723144528
2796,-143.1558837890625,35.47481918334961,-26.39621353149414,140.69877624511722
2797,-140.02558898925778,27.157283782958984,-31.284263610839844,131.87261962890622
2798,-149.30429077148438,25.57904624938965,-35.386932373046875,121.9880599975586
2799,-141.27845764160156,28.649503707885746,-34.55667495727539,119.2616729736328
2800,-135.71722412109378,37.131595611572266,-30.700838088989254,127.8746566772461
2801,-139.3411865234375,22.976076126098636,-33.50950241088867,124.86778259277344
2802,-138.78768920898438,24.12796401977539,-34.97928237915039,129.82688903808594
2803,-139.27761840820312,25.320993423461914,-32.017284393310554,128.40199279785156
2804,-141.51406860351562,31.18889617919922,-26.44857215881348,129.28834533691406
2805,-136.89155578613278,32.22110748291016,-33.75259780883789,124.02629852294922
2806,-144.3115234375,24.464555740356445,-34.79602813720703,130.32803344726562
2807,-151.507080078125,28.612104415893555,-30.45400619506836,137.97238159179688
2808,-146.07301330566406,36.10312271118164,-21.19027328491211,151.65293884277344
2809,-160.86431884765625,28.70934295654297,-39.18667221069336,140.69503784179688
2810,-163.11573791503906,23.09201240539551,-34.99424362182617,148.45907592773438
2811,-159.5254364013672,27.056306838989254,-35.18497848510742,142.2321319580078
2812,-158.0818328857422,27.112403869628906,-32.03598403930664,142.9090576171875
2813,-145.90097045898438,31.27117347717285,-29.33951568603516,141.27471923828125
2814,-152.56361389160156,24.980661392211914,-42.31322860717773,127.180908203125
2815,-150.97789001464844,32.48664093017578,-33.22901153564453,127.6633529663086
2816,-132.53643798828122,39.32317733764648,-30.00147819519043,134.82525634765622
2817,-144.84445190429688,28.90007781982422,-34.32480239868164,129.16679382324222
2818,-146.7705078125,29.977169036865234,-36.11995315551758,135.86495971679688
2819,-144.66868591308594,32.651195526123054,-33.288848876953125,136.27635192871094
2820,-142.40603637695312,39.506431579589844,-25.29294395446777,139.52632141113278
2821,-155.63406372070312,31.24873352050781,-36.056373596191406,128.99850463867188
2822,-153.89126586914062,28.40641021728516,-41.449310302734375,124.1665496826172
2823,-157.62742614746094,33.982601165771484,-29.73968505859375,131.45187377929688
2824,-146.77798461914062,35.953529357910156,-24.040077209472656,135.57698059082028
2825,-156.9879150390625,36.39483642578125,-31.64703369140625,134.48493957519528
2826,-160.43609619140625,32.75217437744141,-31.89386749267578,138.86061096191406
2827,-160.61935424804688,31.40580940246582,-27.387287139892575,144.5228271484375
2828,-159.40762329101562,33.44779586791992,-33.98447036743164,138.70353698730472
2829,-144.0964813232422,31.6975212097168,-33.520721435546875,140.1920166015625
2830,-150.23739624023438,22.54598617553711,-43.14722442626953,134.19696044921878
2831,-150.0316925048828,23.92226982116699,-37.62339401245117,125.02672576904295
2832,-147.24920654296875,25.320993423461914,-39.96831130981445,123.07823944091795
2833,-138.66239929199222,31.34971046447754,-39.37740707397461,124.39094543457031
2834,-143.11288452148438,18.020708084106445,-45.50336456298828,121.17462921142578
2835,-137.96304321289062,22.34029197692871,-42.791934967041016,128.71052551269528
2836,-135.19924926757812,30.818645477294922,-35.91426086425781,131.76228332519528
2837,-141.66554260253906,21.21084213256836,-44.52350997924805,128.2841796875
2838,-137.1402587890625,24.400978088378906,-44.05602264404297,130.06063842773438
2839,-147.81393432617188,30.65035057067871,-41.32963562011719,127.37911987304688
2840,-143.99176025390625,33.10372543334961,-36.98012924194336,132.84686279296878
2841,-142.05075073242188,31.633943557739254,-30.29319000244141,134.61956787109378
2842,-145.35682678222656,21.446456909179688,-41.95045852661133,127.79051208496094
2843,-137.95556640625,32.81575393676758,-31.437599182128906,130.19526672363278
2844,-139.79933166503906,29.419923782348636,-33.10933303833008,133.07499694824222
2845,-146.18333435058594,23.35380554199219,-31.66947364807129,133.13108825683594
2846,-146.60220336914062,22.231834411621094,-40.09920883178711,126.1412124633789
2847,-139.7694091796875,27.91274261474609,-41.65874481201172,132.25595092773438
2848,-137.04676818847656,26.70475578308105,-35.75344467163086,126.47032928466795
2849,-136.88595581054688,28.91877555847168,-34.246265411376946,123.5494613647461
2850,-145.98138427734375,17.265247344970707,-41.25483703613281,121.26812744140624
2851,-147.45864868164062,24.2850399017334,-37.46631622314453,125.88316345214844
2852,-139.17851257324222,30.58677101135254,-31.36654090881348,134.70184326171878
2853,-139.40290832519528,28.55226707458496,-33.049495697021484,129.6455078125
2854,-149.8260040283203,18.402177810668945,-45.63800048828125,122.19561767578124
2855,-152.62344360351562,29.16934967041016,-34.21634292602539,134.68315124511722
2856,-147.9597930908203,35.68799591064453,-30.33806800842285,134.59712219238278
2857,-150.82081604003906,35.127010345458984,-26.261577606201172,132.50653076171878
2858,-159.92747497558594,29.70041465759277,-37.78421020507813,127.34172058105469
2859,-162.01434326171875,30.818645477294922,-33.718936920166016,133.53126525878906
2860,-152.26068115234375,34.517406463623054,-24.256990432739254,139.66842651367188
2861,-148.2477569580078,32.15005111694336,-23.441692352294922,145.9140625
2862,-158.30435180664062,18.020708084106445,-29.320816040039066,133.3779296875
2863,-149.21266174316406,27.531272888183594,-27.66029930114746,130.3560791015625
2864,-148.11312866210938,38.02917098999024,-24.675859451293945,129.63053894042972
2865,-142.0619659423828,31.98549461364746,-29.62000846862793,128.93118286132812
2866,-144.141357421875,21.57735252380371,-35.60384750366211,128.25799560546878
2867,-137.03179931640622,31.85833740234375,-30.259531021118164,134.91876220703122
2868,-142.24148559570312,29.419923782348636,-32.92234039306641,130.34486389160156
2869,-149.4407958984375,26.16995048522949,-32.08460235595703,128.8302001953125
2870,-154.72900390625,21.28190040588379,-35.40937423706055,135.6966552734375
2871,-141.1307373046875,31.50678634643555,-26.42613220214844,142.29383850097656
2872,-152.615966796875,27.5125732421875,-29.653667449951172,137.74612426757812
2873,-153.5958251953125,28.952436447143555,-30.75693702697754,137.29733276367188
2874,-164.72950744628906,25.78848075866699,-35.13262176513672,137.49180603027344
2875,-150.33462524414062,29.763994216918945,-31.486217498779297,140.2855224609375
2876,-148.16921997070312,32.688594818115234,-27.405986785888672,138.92045593261722
2877,-142.1517333984375,28.19323539733887,-24.44772529602051,138.33328247070312
2878,-150.98910522460938,23.200469970703125,-33.909671783447266,130.75625610351562
2879,-138.58760070800778,33.97886276245117,-24.50382423400879,131.50048828125
2880,-138.00044250488278,32.93542861938477,-22.675012588500977,124.37224578857422
2881,-145.65975952148438,27.13858413696289,-33.37112808227539,122.75286865234376
2882,-146.15716552734375,21.442716598510746,-37.047447204589844,127.47261810302734
2883,-149.3510284423828,27.25826072692871,-33.812435150146484,128.871337890625
2884,-149.69509887695312,30.676528930664066,-39.64294052124024,128.28791809082028
2885,-154.00721740722656,30.62417030334473,-32.903640747070305,137.48432922363278
2886,-162.45938110351562,25.72864151000977,-44.18317794799805,130.8721923828125
2887,-165.51113891601562,21.895244598388672,-39.17919158935547,131.93806457519528
2888,-153.01988220214844,29.25910758972168,-33.68527984619141,131.36212158203122
2889,-150.4617919921875,34.10227584838867,-34.87082672119141,139.09248352050778
2890,-149.7437286376953,22.99103546142578,-38.18437957763672,129.82127380371094
2891,-152.0587158203125,32.415584564208984,-29.253498077392575,133.11613464355472
2892,-141.254150390625,34.981155395507805,-28.329742431640625,133.57614135742188
2893,-141.66928100585938,31.772319793701172,-28.97674560546875,134.63078308105472
2894,-138.0677490234375,23.327625274658203,-33.68901824951172,132.98896789550778
2895,-138.62873840332028,28.37649154663086,-29.462932586669922,132.12132263183594
2896,-136.59049987792972,33.545032501220696,-32.795181274414055,136.47456359863278
2897,-146.26560974121094,24.87968444824219,-34.07048797607422,127.27440643310548
2898,-147.21929931640625,26.753374099731445,-35.44677352905273,124.39468383789062
2899,-141.74407958984375,39.07260513305664,-32.982177734375,125.12396240234376
2900,-140.04989624023438,37.3896484375,-30.02391624450684,127.76807403564452
2901,-150.60389709472656,24.4907341003418,-42.19355010986328,126.83309936523438
2902,-154.91973876953125,27.108665466308594,-46.91330337524414,128.44873046875
2903,-159.3964080810547,29.240407943725586,-41.19499969482422,130.7899169921875
2904,-146.83407592773438,39.6373291015625,-32.07712173461914,143.284912109375
2905,-149.71006774902344,29.16560935974121,-35.13262176513672,138.01913452148438
2906,-142.20408630371094,24.36357879638672,-40.39466094970703,139.80680847167972
2907,-148.7601318359375,25.08163833618164,-41.026702880859375,134.54103088378906
2908,-142.37237548828125,34.984893798828125,-30.405385971069336,143.59158325195312
2909,-142.04327392578125,33.32063674926758,-31.64703369140625,142.04327392578125
2910,-154.2353515625,16.861339569091793,-41.03792190551758,133.76313781738278
2911,-144.9454345703125,24.980661392211914,-36.07133483886719,129.49964904785156
2912,-142.03204345703125,33.85170364379883,-31.14962577819824,130.52438354492188
2913,-146.0113067626953,29.64057731628418,-35.54401016235352,126.57130432128906
2914,-150.1925048828125,23.79885292053223,-43.71569061279297,120.11997985839844
2915,-153.3377685546875,30.53815269470215,-41.99159622192383,120.38551330566406
2916,-148.554443359375,25.75482177734375,-40.84718704223633,121.77674865722656
2917,-151.80067443847656,32.262245178222656,-39.31382751464844,126.22349548339844
2918,-158.38662719726562,26.154991149902344,-42.85177230834961,125.1950225830078
2919,-155.86593627929688,30.01082801818848,-42.69843673706055,128.82646179199222
2920,-153.82395935058594,31.742401123046875,-38.84634017944336,129.44354248046878
2921,-154.3213653564453,23.664216995239254,-46.17654418945313,124.36102294921876
2922,-150.63755798339844,24.060646057128906,-38.259178161621094,136.99066162109378
2923,-140.68568420410156,26.23352813720703,-33.30754852294922,138.1201171875
2924,-134.3465576171875,23.33136558532715,-30.43156623840332,143.6813507080078
2925,-133.23580932617188,25.552865982055664,-32.757781982421875,138.13507080078122
2926,-143.7561492919922,25.97921562194824,-38.259178161621094,132.57759094238278
2927,-149.23135375976562,20.896690368652344,-39.35870742797852,130.37478637695312
2928,-149.11167907714844,31.08417892456055,-30.55124282836914,132.098876953125
2929,-147.7541046142578,31.712482452392575,-35.37571334838867,132.93287658691406
2930,-150.69740295410156,21.54369354248047,-41.76346206665039,126.51520538330078
2931,-143.625244140625,34.19203567504883,-38.74162292480469,131.01431274414062
2932,-148.2552490234375,36.54443359375,-34.70627212524414,130.68519592285156
2933,-158.34922790527344,33.47771453857422,-41.26979446411133,135.88365173339844
2934,-162.79971313476562,26.252227783203125,-42.83307266235352,133.46768188476562
2935,-170.91903686523438,37.19517517089844,-39.77009582519531,136.84480285644528
2936,-160.926025390625,38.5340576171875,-39.3961067199707,136.08186340332028
2937,-165.45504760742188,34.027481079101555,-42.60120010375977,135.76023864746094
2938,-165.59715270996094,30.493274688720703,-43.71942901611328,134.28671264648438
2939,-159.38143920898438,28.6457633972168,-49.39659881591797,126.16739654541016
2940,-148.37118530273438,38.37698364257813,-42.077613830566406,136.24269104003906
2941,-141.54212951660156,33.380477905273445,-39.53822326660156,130.4794921875
2942,-147.54466247558594,28.00624084472656,-46.89834594726562,128.46369934082028
2943,-148.37118530273438,35.22424697875977,-39.51578140258789,132.17741394042972
2944,-140.47251892089844,33.881622314453125,-33.93585205078125,136.34365844726562
2945,-144.6499786376953,37.03062057495117,-38.737884521484375,132.52896118164062
2946,-157.709716796875,30.25018119812012,-40.9107666015625,128.63946533203122
2947,-147.9111785888672,32.23232650756836,-39.98326873779297,133.76687622070312
2948,-142.66783142089844,31.93687629699707,-35.41311264038086,133.81175231933594
2949,-144.29843139648438,37.415828704833984,-37.82534790039063,134.40264892578122
2950,-155.1179656982422,24.29999923706055,-46.6028938293457,135.55079650878906
2951,-156.07911682128906,25.451889038085934,-41.24735641479492,136.54562377929688
2952,-155.34983825683594,44.71985244750977,-41.6924057006836,136.28756713867188
2953,-160.34634399414062,39.68968963623047,-39.78131484985352,137.10285949707028
2954,-155.98561096191406,26.70475578308105,-43.49503707885742,130.58421325683594
2955,-159.04486083984375,28.72430229187012,-40.701332092285156,121.75431060791016
2956,-145.39422607421875,35.91613006591797,-35.932960510253906,122.02732849121094
2957,-144.75096130371094,35.77027130126953,-44.11959838867188,130.21771240234378
2958,-146.40025329589844,31.701261520385746,-43.28560256958008,122.73790740966795
2959,-140.18827819824222,27.471435546875,-37.20078659057617,124.60785675048828
2960,-132.93287658691406,33.402915954589844,-30.36798858642578,129.47346496582028
2961,-140.79788208007812,30.799945831298828,-31.284263610839844,133.4078369140625
2962,-142.099365234375,24.43837547302246,-34.298622131347656,132.40928649902344
2963,-142.36863708496094,26.70101547241211,-32.540870666503906,134.62330627441406
2964,-141.27285766601562,39.51391220092773,-29.305856704711914,139.33558654785156
2965,-146.08984375,26.476621627807614,-35.069042205810554,136.25016784667972
2966,-148.31134033203125,29.07211303710937,-33.26641082763672,137.82466125488278
2967,-156.78221130371094,28.85893821716309,-39.66164016723633,127.1584701538086
2968,-153.7641143798828,38.27600479125977,-34.79602813720703,131.242431640625
2969,-147.96726989746094,39.78692626953125,-38.09461975097656,130.64031982421878
2970,-157.2347412109375,34.450088500976555,-39.829933166503906,126.64984130859376
2971,-156.70741271972656,38.335845947265625,-35.9628791809082,130.737548828125
2972,-146.43765258789062,37.11663818359375,-32.06964111328125,128.46743774414062
2973,-146.20578002929688,29.35260391235352,-34.82594680786133,128.96858215332028
2974,-151.99514770507812,29.48724174499512,-44.0148811340332,125.81584167480469
2975,-149.02566528320312,27.12736511230469,-42.63859939575195,125.71112823486328
2976,-142.33872985839844,39.07634353637695,-35.68986511230469,121.26812744140624
2977,-142.62295532226562,38.71357345581055,-35.910518646240234,119.79460906982422
2978,-152.93385314941406,32.68485641479492,-46.3223991394043,115.72185516357422
2979,-144.481689453125,30.949542999267575,-40.779869079589844,125.9766616821289
2980,-142.76881408691406,38.8033332824707,-36.632320404052734,128.2841796875
2981,-142.357421875,38.30592346191406,-40.46197891235352,137.32725524902344
2982,-148.07199096679688,25.709941864013672,-37.01752853393555,138.56517028808594
2983,-156.23992919921875,29.28528594970703,-37.81038665771485,134.37274169921878
2984,-148.2552490234375,41.95232772827149,-26.82630157470703,142.06944274902344
2985,-158.7980194091797,33.885364532470696,-36.4266242980957,136.676513671875
2986,-164.34056091308594,26.61499786376953,-37.8889274597168,133.9239501953125
2987,-153.60704040527344,41.98224639892578,-26.92728042602539,143.25125122070312
2988,-142.41726684570312,42.79006576538086,-27.21899223327637,134.64949035644528
2989,-140.21072387695312,37.12785720825195,-31.42263984680176,131.33967590332028
2990,-157.6311798095703,24.00828742980957,-36.63605880737305,121.23446655273438
2991,-159.28794860839844,35.62441635131836,-29.33951568603516,120.77072143554688
2992,-137.52920532226562,42.74892807006836,-27.20777130126953,131.85952758789062
2993,-143.53549194335938,32.639976501464844,-28.15770721435547,132.78327941894528
2994,-149.08924865722656,23.0994930267334,-33.184131622314446,129.66046142578122
2995,-142.45091247558594,24.15788459777832,-25.42009925842285,133.95761108398438
2996,-134.76542663574222,33.975120544433594,-24.141054153442386,136.94204711914062
2997,-133.41157531738278,33.30194091796875,-26.25783729553223,135.26657104492188
2998,-151.57627868652344,28.15209770202637,-35.570186614990234,125.66999053955078
2999,-148.27394104003906,37.370948791503906,-28.251203536987305,137.15147399902344
3000,-150.39073181152344,30.91214370727539,-27.39476776123047,134.71681213378906
3001,-147.0323028564453,34.58472442626953,-22.259883880615234,138.13880920410156
3002,-159.2281036376953,28.720561981201172,-28.8159294128418,134.72802734375
3003,-150.53659057617188,37.0268783569336,-24.26447105407715,143.77110290527344
3004,-163.7646026611328,35.35140609741211,-29.881799697875977,132.41302490234378
3005,-152.4551544189453,37.04932022094727,-36.15361404418945,136.53439331054688
3006,-154.09323120117188,25.133996963500977,-37.06614685058594,131.86326599121094
3007,-143.47190856933594,31.338491439819336,-28.034290313720703,127.81295013427734
3008,-142.33872985839844,31.009380340576172,-31.43385887145996,124.89208984375
3009,-139.6871337890625,37.87957763671875,-30.700838088989254,119.68988800048828
3010,-153.11337280273438,29.468542098999023,-35.89556121826172,120.6996612548828
3011,-142.1853790283203,34.34163284301758,-28.17640686035156,127.06871032714844
3012,-133.15353393554688,32.51282119750977,-25.63327407836914,136.92709350585938
3013,-144.3470458984375,27.50509452819824,-30.33806800842285,145.06137084960938
3014,-149.85592651367188,24.386016845703125,-33.99943161010742,139.73574829101562
3015,-141.52342224121094,29.954729080200195,-28.83462905883789,149.25753784179688
3016,-142.22653198242188,28.33535194396973,-32.42493438720703,144.76217651367188
3017,-149.32485961914062,20.8630313873291,-37.84404754638672,140.00875854492188
3018,-157.64239501953125,27.022647857666016,-42.99388885498047,138.68110656738278
3019,-154.89356994628906,30.493274688720703,-37.17460632324219,141.72537231445312
3020,-144.810791015625,29.446102142333984,-31.276782989501953,136.42593383789062
3021,-155.9631805419922,34.72684097290039,-33.401046752929695,127.46887969970705
3022,-149.9008026123047,32.34078598022461,-36.392967224121094,124.9556655883789
3023,-147.76905822753906,37.17273712158203,-32.91485977172852,113.07774353027344
3024,-141.99464416503906,40.673282623291016,-27.02077674865723,109.11344909667969
3025,-148.73394775390625,37.86461639404297,-32.006065368652344,113.50409698486328
3026,-147.7952423095703,31.375890731811523,-39.11187362670898,114.2333755493164
3027,-146.36659240722656,36.73142623901367,-29.941638946533203,119.64126586914062
3028,-135.84251403808594,39.86920166015625,-21.62784194946289,134.36151123046878
3029,-149.728759765625,31.23003387451172,-35.065303802490234,129.90728759765622
3030,-149.8671417236328,27.73322868347168,-33.359909057617195,131.42568969726562
3031,-152.44393920898438,24.61415100097656,-32.380054473876946,138.76712036132812
3032,-143.95436096191406,25.433189392089844,-31.05986976623535,139.25704956054688
3033,-147.12205505371094,24.39723777770996,-33.202831268310554,140.17332458496094
3034,-153.98851013183594,22.471189498901367,-38.79024124145508,135.98089599609378
3035,-153.4163055419922,37.53550720214844,-33.531944274902344,139.91900634765622
3036,-148.3001251220703,29.367565155029297,-29.40683364868164,135.80137634277344
3037,-144.7696533203125,33.945201873779304,-33.76381683349609,132.57383728027344
3038,-153.80899047851562,9.261861801147461,-41.613868713378906,120.6173858642578
3039,-147.22303771972656,32.11265182495117,-30.11367416381836,126.77326202392578
3040,-150.43560791015625,38.8033332824707,-26.590688705444336,120.47152709960938
3041,-145.59243774414062,39.05016708374024,-32.02850341796875,112.57659912109376
3042,-149.2799835205078,28.847719192504886,-37.22696304321289,103.46620178222656
3043,-139.45526123046878,41.98224639892578,-24.35048866271973,106.56283569335938
3044,-137.00189208984378,36.1741828918457,-22.996644973754886,109.7529754638672
3045,-145.00526428222656,33.795604705810554,-26.414913177490234,115.1571273803711
3046,-145.5699920654297,27.22460174560547,-33.726417541503906,121.57106018066406
3047,-140.37153625488278,31.49930763244629,-31.0748291015625,129.91104125976562
3048,-145.48397827148438,32.692337036132805,-26.7440242767334,140.19575500488278
3049,-147.26043701171875,28.234375,-34.97928237915039,136.72886657714844
3050,-154.46722412109375,21.895244598388672,-40.9406852722168,139.38046264648438
3051,-148.2402801513672,25.94929504394531,-39.99449157714844,144.1450958251953
3052,-143.42703247070312,27.318099975585934,-33.905933380126946,149.27249145507812
3053,-147.03977966308594,33.028926849365234,-36.67345809936523,143.1988983154297
3054,-153.44248962402344,28.60836410522461,-38.29657745361328,137.12904357910156
3055,-147.3539276123047,30.066925048828125,-34.122848510742195,140.12095642089844
3056,-145.12869262695312,37.415828704833984,-25.37522125244141,142.51449584960938
3057,-148.05702209472656,26.57011985778809,-36.17231369018555,130.36355590820312
3058,-153.3751678466797,34.28927230834961,-42.20476913452149,125.23616027832031
3059,-149.9419403076172,34.831558227539055,-41.655006408691406,115.8789291381836
3060,-138.51654052734378,40.0599365234375,-26.55702972412109,123.5681610107422
3061,-144.15631103515625,38.73601531982422,-32.619407653808594,113.11888122558594
3062,-141.12326049804688,36.20036315917969,-25.906286239624023,117.27765655517578
3063,-141.23919677734375,40.66580200195313,-25.307903289794922,109.8202896118164
3064,-142.22653198242188,56.466880798339844,-24.06251716613769,107.6287078857422
3065,-141.5982208251953,51.94160079956055,-26.27279663085937,106.55909729003906
3066,-144.25355529785156,41.64565658569336,-31.97988510131836,114.09500122070312
3067,-143.5878448486328,43.62780380249024,-28.71495246887207,130.27754211425778
3068,-147.34271240234375,44.74229431152344,-26.852481842041016,136.18658447265622
3069,-148.8386688232422,37.72998046875,-36.13491439819336,140.41641235351562
3070,-151.11253356933594,36.04702758789063,-37.1147689819336,142.06570434570312
3071,-155.74252319335938,45.277099609375,-29.74716377258301,141.64309692382812
3072,-143.89825439453125,48.82626342773438,-32.436153411865234,146.7293701171875
3073,-146.84530639648438,43.433326721191406,-29.71350479125977,147.193115234375
3074,-155.52186584472656,40.755558013916016,-34.336021423339844,134.19696044921878
3075,-150.8769073486328,39.00902557373047,-37.32046127319336,131.27235412597656
3076,-147.30905151367188,41.58955764770508,-42.72087860107422,126.27959442138672
3077,-149.99803161621094,41.79525375366211,-41.92053985595703,123.0071792602539
3078,-144.4330596923828,25.291072845458984,-36.98387145996094,122.12456512451172
3079,-147.72418212890625,39.53261184692383,-33.76381683349609,115.74803161621094
3080,-146.83407592773438,47.22184753417969,-38.46113204956055,113.28717803955078
3081,-152.21205139160156,43.34357070922852,-37.15216445922852,103.78409576416016
3082,-156.96546936035156,38.65373611450195,-36.97639083862305,110.14566040039062
3083,-154.33631896972656,51.661109924316406,-25.883848190307614,123.53450775146484
3084,-149.72128295898438,50.41946029663086,-23.74462509155273,130.37478637695312
3085,-150.39447021484375,48.36625671386719,-23.901700973510746,130.76373291015622
3086,-160.83253479003906,35.500999450683594,-36.29573059082031,125.89064025878906
3087,-149.28746032714844,40.45636749267578,-35.60758590698242,131.34715270996094
3088,-143.9805450439453,47.61453628540039,-24.69081878662109,144.8519287109375
3089,-148.0757293701172,33.892845153808594,-34.769851684570305,134.88510131835938
3090,-149.3622589111328,21.334259033203125,-38.09461975097656,139.13737487792972
3091,-151.03399658203125,28.847719192504886,-35.89556121826172,138.04905700683594
3092,-143.5803680419922,29.812612533569336,-38.98097610473633,133.789306640625
3093,-146.79293823242188,22.332813262939453,-43.603492736816406,141.37008666992188
3094,-144.54525756835938,12.52305507659912,-44.97229766845703,132.90669250488278
3095,-149.14907836914062,21.491334915161133,-46.10922622680664,128.81150817871094
3096,-148.06077575683594,29.064632415771484,-39.13805389404297,133.11613464355472
3097,-152.62718200683594,29.229188919067386,-41.81582260131836,127.91767120361328
3098,-154.6916046142578,22.99851417541504,-46.69639205932617,121.59349822998048
3099,-153.8389129638672,33.35055923461914,-40.54425430297852,118.07424926757812
3100,-155.8846435546875,29.78643226623535,-38.51723098754883,113.4704360961914
3101,-149.27622985839844,33.601131439208984,-36.12743377685547,117.61798095703124
3102,-150.59642028808594,32.452980041503906,-35.959136962890625,113.47417449951172
3103,-149.3921661376953,38.61259841918945,-35.83572006225586,123.8075180053711
3104,-150.01673889160156,38.20120620727539,-32.540870666503906,127.6222152709961
3105,-151.13870239257812,35.272865295410156,-34.27618408203125,134.77290344238278
3106,-157.2347412109375,27.61355209350586,-40.66393280029297,135.6966552734375
3107,-154.25778198242188,30.44091606140137,-39.025856018066406,146.10479736328125
3108,-154.46722412109375,27.25452041625977,-38.7341423034668,145.8729248046875
3109,-154.80380249023438,23.454782485961914,-47.736083984375,142.48831176757812
3110,-154.12689208984375,21.66337013244629,-46.02320861816406,138.29963684082028
3111,-155.0431671142578,21.682069778442386,-38.85755920410156,136.86724853515622
3112,-153.54345703125,28.16331672668457,-36.00027847290039,139.72453308105472
3113,-146.1309814453125,23.26030731201172,-39.07821273803711,139.40290832519528
3114,-155.52186584472656,19.819599151611328,-45.33132553100586,135.7078857421875
3115,-166.84628295898438,23.664216995239254,-44.01862335205078,135.85748291015622
3116,-165.7654571533203,23.320146560668945,-44.747901916503906,132.49903869628906
3117,-157.02157592773438,22.67688369750977,-42.69843673706055,130.49072265625
3118,-162.50425720214844,19.961715698242188,-50.59710693359375,121.65333557128906
3119,-154.2652587890625,21.573612213134766,-44.848880767822266,124.85842895507812
3120,-155.0319366455078,28.039899826049805,-43.85780715942383,119.3121566772461
3121,-153.10963439941406,26.798254013061523,-39.56814193725586,120.38925170898438
3122,-157.67605590820312,25.7697811126709,-39.27642822265625,124.63029479980469
3123,-146.22447204589844,30.89718437194824,-36.16109085083008,129.78387451171878
3124,-149.88209533691406,28.15209770202637,-37.873966217041016,135.89112854003906
3125,-148.81622314453125,21.644670486450195,-49.052528381347656,143.3260498046875
3126,-148.07199096679688,22.826478958129886,-40.97808456420898,139.75071716308594
3127,-146.10853576660156,22.53850746154785,-42.309486389160156,138.15751647949222
3128,-142.4770965576172,23.07331275939941,-33.3636474609375,142.93336486816406
3129,-148.23280334472656,19.823339462280273,-38.85008239746094,140.28926086425778
3130,-152.4888153076172,9.811627388000488,-51.20671081542969,134.96737670898438
3131,-153.8426513671875,13.098999977111815,-49.19090270996094,137.78352355957028
3132,-150.30096435546875,25.78848075866699,-42.89665222167969,145.1137237548828
3133,-161.8236083984375,16.678083419799805,-46.15784454345703,132.66360473632812
3134,-161.19155883789062,18.402177810668945,-49.744407653808594,131.2947998046875
3135,-166.0122833251953,29.464801788330078,-47.13021850585938,128.47865295410156
3136,-151.2920379638672,28.395191192626953,-44.171958923339844,126.64610290527344
3137,-151.7670135498047,27.06378555297852,-47.24241638183594,122.29286193847656
3138,-160.4061737060547,20.545141220092773,-49.28814315795898,116.8625259399414
3139,-154.36997985839844,32.24354934692383,-37.95624542236328,118.3285675048828
3140,-149.0069580078125,32.606319427490234,-36.348087310791016,124.39468383789062
3141,-141.73660278320312,35.5122184753418,-38.12453842163086,125.2959976196289
3142,-151.9914093017578,21.872804641723636,-42.23469161987305,115.39274597167969
3143,-140.07234191894528,26.92914962768555,-39.33626937866211,124.469482421875
3144,-139.08126831054688,32.61379623413086,-34.911964416503906,133.56117248535156
3145,-145.8878936767578,27.56867218017578,-36.71833801269531,132.57009887695312
3146,-155.63780212402344,21.629711151123047,-41.37825393676758,137.5740966796875
3147,-150.29722595214844,23.04339408874512,-36.91281127929688,146.6096954345703
3148,-152.9525604248047,18.076807022094727,-33.50950241088867,147.36888122558594
3149,-157.13377380371094,17.72899627685547,-43.49877548217773,151.41920471191406
3150,-172.6693115234375,2.7394766807556152,-60.14881134033203,139.9451904296875
3151,-162.76979064941406,19.42317008972168,-45.81377410888672,141.53839111328125
3152,-154.44851684570312,23.72031593322754,-38.09088134765625,144.15631103515625
3153,-148.51329040527344,13.865678787231445,-47.69120407104492,135.150634765625
3154,-152.4888153076172,13.43185043334961,-48.56634140014648,130.64405822753906
3155,-146.02252197265625,20.126272201538086,-38.681785583496094,131.90440368652344
3156,-149.88209533691406,20.541400909423828,-45.21165084838867,131.68374633789062
3157,-149.65396118164062,24.25138092041016,-46.02694702148438,125.31843566894531
3158,-152.8179168701172,20.97896957397461,-51.14313125610352,123.12311553955078
3159,-149.95689392089844,25.93807601928711,-45.11441421508789,116.32023620605469
3160,-156.50546264648438,28.660722732543945,-43.38283920288086,116.6269073486328
3161,-151.03024291992188,28.548526763916016,-35.551490783691406,123.94589233398438
3162,-158.8054962158203,25.926856994628906,-39.55318069458008,130.09054565429688
3163,-151.090087890625,33.76942825317383,-33.782516479492195,137.85458374023438
3164,-143.37094116210938,30.36611747741699,-32.39127349853516,136.2950439453125
3165,-150.59642028808594,29.685455322265625,-42.66851806640625,144.6873779296875
3166,-161.88717651367188,22.98355484008789,-47.8370590209961,141.48228454589844
3167,-162.07791137695312,25.30229377746582,-38.57332992553711,144.31338500976562
3168,-161.29254150390625,31.574106216430664,-33.80869674682617,147.54840087890625
3169,-158.6409454345703,25.14147758483887,-35.99653625488281,140.4912109375
3170,-156.28854370117188,22.598344802856445,-39.23902893066406,140.6968994140625
3171,-159.26925659179688,24.124225616455078,-42.649818420410156,124.9145278930664
3172,-141.40374755859375,31.69004249572754,-37.57477569580078,135.98463439941406
3173,-148.4983367919922,17.089473724365234,-45.4996223449707,124.38719940185548
3174,-151.1686248779297,17.942169189453125,-45.25278854370117,117.50578308105469
3175,-146.50123596191406,33.305679321289055,-39.66537857055664,118.3884048461914
3176,-150.68617248535156,28.66820335388184,-41.97663879394531,109.68939208984376
3177,-151.58749389648438,34.988632202148445,-37.81038665771485,110.7814483642578
3178,-158.07247924804688,28.002500534057614,-39.38862609863281,111.99317169189452
3179,-148.82745361328125,33.634788513183594,-34.620254516601555,120.1947784423828
3180,-152.54116821289062,33.997562408447266,-29.35821533203125,128.25425720214844
3181,-157.44044494628906,34.715621948242195,-36.08255386352539,132.7271728515625
3182,-158.61102294921875,25.72490119934082,-37.8590087890625,134.28297424316406
3183,-161.53189086914062,34.82781982421875,-33.7862548828125,138.23231506347656
3184,-166.1057891845703,29.77895355224609,-38.40877151489258,139.58988952636722
3185,-156.37831115722656,34.076099395751946,-34.687572479248054,143.6663818359375
3186,-164.5200653076172,23.611858367919922,-39.8074951171875,140.51365661621094
3187,-156.5166778564453,26.49158096313477,-35.91426086425781,144.7247772216797
3188,-153.5920867919922,29.50594139099121,-34.646434783935554,142.22653198242188
3189,-152.88897705078125,19.060400009155273,-41.83826065063477,136.77749633789062
3190,-162.84085083007812,15.974982261657715,-47.13769912719727,129.86988830566406
3191,-155.29373168945312,20.533920288085934,-37.43265914916992,125.0117645263672
3192,-147.20059204101562,23.230388641357425,-35.34953308105469,117.31504821777344
3193,-147.60450744628906,24.70764923095703,-36.31816864013672,114.32313537597656
3194,-154.75144958496094,21.345478057861328,-36.25458908081055,108.08123779296876
3195,-146.48252868652344,33.982601165771484,-26.414913177490234,112.71497344970705
3196,-152.45889282226562,39.51765441894531,-24.53748321533203,112.427001953125
3197,-152.38783264160156,37.19143676757813,-28.456899642944336,114.2109375
3198,-156.03424072265625,29.95846939086914,-30.461484909057614,114.36052703857422
3199,-159.9199981689453,35.67677688598633,-29.26097679138184,122.80148315429688
3200,-162.65011596679688,45.99515914916992,-24.144794464111328,136.28756713867188
3201,-165.61212158203125,37.33354949951172,-28.045509338378906,139.0064697265625
3202,-166.44985961914062,30.04448699951172,-41.08654022216797,136.72512817382812
3203,-166.4461212158203,37.72249984741211,-33.225269317626946,138.57638549804688
3204,-156.40447998046875,36.230281829833984,-28.67007255554199,148.0757293701172
3205,-160.0434112548828,25.4294490814209,-40.951904296875,135.55455017089844
3206,-154.7028350830078,20.582538604736328,-42.690956115722656,134.97111511230472
3207,-159.63575744628906,23.136890411376953,-40.892066955566406,134.91502380371094
3208,-153.1993865966797,28.843978881835934,-40.738731384277344,132.91790771484378
3209,-156.61392211914062,23.14811134338379,-48.027793884277344,127.9064483642578
3210,-151.594970703125,21.51377487182617,-48.84683227539063,116.76902770996094
3211,-152.54864501953125,29.45732116699219,-47.526649475097656,111.43592834472656
3212,-149.19769287109375,36.21158218383789,-39.86359405517578,110.5233917236328
3213,-153.0348358154297,31.45442771911621,-48.97772979736328,100.560302734375
3214,-145.94024658203125,31.6676025390625,-46.49443435668945,90.94501495361328
3215,-151.6323699951172,47.1545295715332,-31.64703369140625,100.20874786376952
3216,-159.45623779296875,43.93821334838867,-28.45876884460449,101.48218536376952
3217,-157.05897521972656,48.98334121704102,-34.745540618896484,111.23584747314452
3218,-164.36672973632812,36.78752517700195,-41.60077667236328,112.82530212402344
3219,-153.35272216796875,44.573997497558594,-32.606319427490234,131.44999694824222
3220,-159.16079711914062,41.48857879638672,-34.85025787353516,140.17892456054688
3221,-159.24307250976562,38.52658081054688,-36.40979766845703,142.67344665527344
3222,-159.12339782714844,33.68341064453125,-36.00214767456055,145.15673828125
3223,-159.21688842773438,32.553958892822266,-41.65313720703125,144.6555938720703
3224,-147.79150390625,25.0068416595459,-45.13124084472656,148.9302978515625
3225,-153.203125,23.765193939208984,-46.122314453125,144.84632873535156
3226,-157.62368774414062,17.957130432128906,-49.04317855834961,140.57162475585938
3227,-147.63815307617188,16.917436599731445,-41.79151153564453,139.55062866210938
3228,-137.10285949707028,29.5844783782959,-26.89175033569336,146.28993225097656
3229,-144.4779510498047,19.842039108276367,-38.750972747802734,129.24720764160156
3230,-154.7252655029297,18.18526268005371,-38.98284530639648,124.39655303955078
3231,-148.44972229003906,26.5327205657959,-33.212181091308594,122.17131042480469
3232,-148.00840759277344,37.99925231933594,-27.24330139160156,116.7297592163086
3233,-149.51559448242188,32.63623809814453,-32.68485641479492,107.08081817626952
3234,-163.57386779785156,37.87957763671875,-24.96570205688477,106.88259887695312
3235,-165.6757049560547,36.9969596862793,-26.02409362792969,104.82191467285156
3236,-157.193603515625,42.819984436035156,-29.06837272644043,111.9576416015625
3237,-155.5293426513672,39.91408157348633,-25.41448974609375,121.48316955566406
3238,-160.94097900390625,33.305679321289055,-27.33679962158203,123.33441925048828
3239,-147.36888122558594,38.33210372924805,-24.124225616455078,130.21957397460938
3240,-148.7638702392578,41.1744270324707,-21.91020393371582,136.12861633300778
3241,-155.17779541015625,28.41389083862305,-35.11952972412109,134.03053283691406
3242,-151.16114807128906,22.15703773498535,-39.697166442871094,140.70999145507812
3243,-153.99598693847656,23.79511260986328,-36.10312271118164,152.5729522705078
3244,-145.27828979492188,31.72744178771973,-28.477468490600586,156.36895751953125
3245,-154.39242553710938,14.853013038635256,-40.20205307006836,148.1523895263672
3246,-158.5137939453125,15.933843612670898,-39.59992980957031,144.28907775878906
3247,-153.0759735107422,19.554067611694336,-41.58207702636719,138.46604919433594
3248,-149.4669647216797,33.25331878662109,-37.87209701538086,135.09640502929688
3249,-149.9008026123047,26.413043975830078,-45.53889083862305,123.08758544921876
3250,-156.96173095703125,28.01745986938477,-41.72793197631836,123.21100616455078
3251,-164.59112548828125,28.656984329223636,-44.89936828613281,115.97429656982422
3252,-157.27587890625,43.71755981445313,-35.58701705932617,115.56291198730469
3253,-161.771240234375,30.373598098754886,-40.20579528808594,108.38977813720705
3254,-154.49713134765625,29.71163558959961,-40.22075271606445,102.83602905273438
3255,-152.28311157226562,42.730228424072266,-35.788970947265625,110.6673812866211
3256,-150.71609497070312,40.66954040527344,-32.131351470947266,118.58474731445312
3257,-147.68678283691406,33.1934814453125,-32.759654998779304,131.99977111816406
3258,-149.48941040039062,31.93687629699707,-38.567718505859375,135.35446166992188
3259,-150.7871551513672,36.79126739501953,-28.09599876403809,144.2554168701172
3260,-149.53428649902344,30.96076202392578,-33.369258880615234,140.81471252441406
3261,-156.78970336914062,24.93578338623047,-38.37324523925781,141.4617156982422
3262,-156.78594970703125,21.90272331237793,-38.38820266723633,141.05780029296875
3263,-155.76870727539062,28.428850173950195,-39.41667556762695,143.5074462890625
3264,-160.40243530273438,25.97921562194824,-42.36745834350586,140.37715148925778
3265,-161.76002502441406,31.076698303222656,-41.20060729980469,142.2433624267578
3266,-156.008056640625,22.07476043701172,-37.307373046875,142.53880310058594
3267,-155.44332885742188,28.52234649658203,-29.57699966430664,144.92860412597656
3268,-150.68992614746094,30.69148826599121,-26.29710578918457,134.03427124023438
3269,-159.68812561035156,36.06946563720703,-24.6253719329834,132.68417358398438
3270,-170.57122802734375,24.584232330322266,-29.02349281311035,128.88069152832028
3271,-163.82070922851562,35.80767059326172,-30.231481552124023,119.19061279296876
3272,-150.66000366210938,40.650840759277344,-28.30543327331543,116.56146240234376
3273,-157.81068420410156,41.83264923095703,-32.90177154541016,114.33621978759766
3274,-163.7646026611328,37.943153381347656,-32.00419235229492,109.73614501953124
3275,-155.8883819580078,46.52622604370117,-27.73696708679199,117.4552993774414
3276,-143.70751953125,47.19940567016602,-24.61041259765625,129.31826782226562
3277,-144.6499786376953,47.162010192871094,-22.74420166015625,141.05032348632812
3278,-153.5060577392578,25.287334442138672,-31.98923492431641,137.55726623535156
3279,-148.9620819091797,30.343677520751953,-37.54298400878906,140.22006225585938
3280,-152.32424926757812,36.30133819580078,-27.561193466186523,140.63893127441406
3281,-155.71633911132812,36.753868103027344,-32.24354934692383,140.14152526855472
3282,-158.37167358398438,24.288780212402344,-37.59160614013672,138.0733642578125
3283,-154.3026580810547,31.933135986328125,-32.68485641479492,139.62542724609378
3284,-151.39675903320312,30.98320198059082,-34.644561767578125,137.93873596191406
3285,-158.0014190673828,31.2861328125,-38.12641143798828,136.22959899902344
3286,-157.14125061035156,23.121931076049805,-41.619476318359375,129.68476867675778
3287,-157.46661376953125,32.58761978149414,-35.43368148803711,133.60792541503906
3288,-156.03050231933594,38.8743896484375,-30.43343544006348,128.48800659179688
3289,-149.79608154296875,36.989479064941406,-30.96076202392578,126.82374572753906
3290,-153.95111083984375,34.24813461303711,-36.30881881713867,116.8569107055664
3291,-158.27818298339844,40.96499252319336,-30.23522186279297,116.36325073242188
3292,-146.0487060546875,44.70115280151367,-31.02433967590332,114.65411376953124
3293,-155.26756286621094,40.65458297729492,-38.88935089111328,111.80430603027344
3294,-159.20941162109375,33.9564208984375,-38.11893081665039,116.19495391845705
3295,-148.95834350585938,42.2851791381836,-34.57724380493164,119.7441177368164
3296,-144.37696838378906,39.48025512695313,-31.76857948303223,132.37002563476562
3297,-147.97474670410156,35.15319061279297,-35.803932189941406,133.00953674316406
3298,-153.79029846191406,22.36647224426269,-41.50727844238281,130.76934814453122
3299,-151.05642700195312,29.135690689086914,-38.0815315246582,135.41429138183594
3300,-154.23159790039062,28.316652297973636,-38.37324523925781,139.56932067871094
3301,-158.79428100585938,24.19154357910156,-40.35165023803711,132.54205322265622
3302,-163.0802001953125,20.522701263427734,-48.50837326049805,133.70516967773438
3303,-150.12893676757812,29.57699966430664,-40.4002685546875,139.311279296875
3304,-146.92758178710938,35.38506317138672,-38.227386474609375,141.83570861816406
3305,-161.4870147705078,26.73467445373535,-41.38012313842773,135.34324645996094
3306,-160.3762664794922,29.5844783782959,-42.37119674682617,135.29835510253906
3307,-167.9308624267578,29.30772590637207,-44.98164749145508,127.26505279541016
3308,-158.2108612060547,38.706092834472656,-40.73311996459961,124.4189910888672
3309,-150.7946319580078,37.464447021484375,-40.08237838745117,125.40632629394531
3310,-163.802001953125,24.584232330322266,-44.66749572753906,114.01084899902344
3311,-159.0972137451172,36.884761810302734,-41.07719039916992,119.1606903076172
3312,-149.1416015625,39.98514175415039,-37.097938537597656,121.04560089111328
3313,-155.6303253173828,34.27805328369141,-38.20120620727539,117.6385498046875
3314,-167.5381622314453,25.63888359069824,-48.24283981323242,113.51718139648438
3315,-143.97305297851562,45.359375,-34.57350540161133,127.0481414794922
3316,-148.21035766601562,40.98369216918945,-30.145463943481445,128.48052978515622
3317,-149.10794067382812,36.76134490966797,-32.42306137084961,134.03427124023438
3318,-162.72491455078125,23.54080009460449,-37.43452835083008,132.88612365722656
3319,-154.1455841064453,29.969688415527344,-32.19492721557617,143.5336151123047
3320,-151.65855407714844,24.13544464111328,-36.89224243164063,139.22151184082028
3321,-161.3523712158203,23.03591346740723,-40.83409881591797,143.18206787109375
3322,-162.70248413085938,18.495676040649414,-50.26986694335938,138.35011291503906
3323,-155.7911376953125,30.590511322021484,-37.77486038208008,141.14382934570312
3324,-160.64553833007812,37.66640090942383,-35.317745208740234,143.14466857910156
3325,-160.93350219726562,29.876190185546875,-41.22678756713867,135.919189453125
3326,-159.84893798828125,27.69208908081055,-37.77859878540039,127.25757598876952
3327,-151.6847381591797,34.96619415283203,-34.53610610961914,123.18482208251952
3328,-154.7439727783203,35.36262512207031,-31.8321590423584,127.65774536132812
3329,-156.41944885253906,34.491226196289055,-41.33898544311523,119.40752410888672
3330,-170.10000610351562,24.38975715637207,-43.95691299438477,114.23898315429688
3331,-155.69764709472656,40.79669952392578,-40.25815200805664,120.2265625
3332,-150.73106384277344,35.68051528930664,-35.788970947265625,120.00965118408205
3333,-153.0011749267578,42.44599533081055,-35.58327865600586,122.0329360961914
3334,-172.39256286621094,21.02010726928711,-43.90455627441406,118.79792022705078
3335,-161.12423706054688,33.791866302490234,-35.82637023925781,130.17095947265622
3336,-151.85302734375,32.05655288696289,-33.444053649902344,137.79661560058594
3337,-149.6614532470703,29.16560935974121,-37.19143676757813,139.37484741210938
3338,-150.3645477294922,21.7793083190918,-40.10481643676758,140.07048034667972
3339,-147.29408264160156,21.50629425048828,-36.86232376098633,135.16372680664062
3340,-142.54067993164062,33.062583923339844,-32.692337036132805,140.145263671875
3341,-156.41944885253906,16.075960159301758,-47.22184753417969,126.1468276977539
3342,-147.71295166015625,20.268388748168945,-40.018798828125,129.97648620605472
3343,-154.80755615234375,32.09769058227539,-37.135337829589844,122.66123962402344
3344,-150.35333251953125,31.181415557861328,-35.66555404663086,121.18397521972656
3345,-145.30072021484375,30.33619880676269,-35.88621139526367,119.29532623291016
3346,-155.47698974609375,27.99502182006836,-39.2969970703125,107.26406860351562
3347,-143.65516662597656,37.00070190429688,-33.451534271240234,114.31004333496094
3348,-140.33413696289062,40.54238510131836,-28.29047393798828,116.14633178710938
3349,-153.10215759277344,35.75905227661133,-38.76219177246094,112.26805877685548
3350,-157.16741943359375,24.30747985839844,-40.3703498840332,113.16937255859376
3351,-156.183837890625,34.76424026489258,-44.21122741699219,114.37735748291016
3352,-154.67291259765625,43.4221076965332,-40.78548049926758,119.35516357421876
3353,-153.53598022460938,39.087562561035156,-43.43706893920898,128.33840942382812
3354,-159.9424285888672,32.71477508544922,-50.22124481201172,122.14887237548828
3355,-160.0434112548828,35.4822998046875,-41.79151153564453,125.66063690185548
3356,-146.62464904785156,42.07948303222656,-37.50558853149414,138.98590087890622
3357,-153.78656005859375,35.37758255004883,-42.06078338623047,137.73677062988278
3358,-160.91854858398438,28.27177429199219,-45.53515243530274,131.91001892089844
3359,-151.42294311523438,37.19891357421875,-37.63648223876953,133.15913391113278
3360,-148.3749237060547,36.24898147583008,-34.62960433959961,132.66920471191406
3361,-148.83493041992188,29.274066925048828,-33.028926849365234,130.20835876464844
3362,-161.49449157714844,21.95882225036621,-45.79320526123047,114.32125854492188
3363,-157.2796173095703,30.09684562683105,-39.83928298950195,117.2757797241211
3364,-152.55987548828125,40.79669952392578,-35.64311599731445,119.7403793334961
3365,-160.68667602539062,41.858829498291016,-37.80104064941406,119.33272552490234
3366,-172.1157989501953,29.23292732238769,-53.40016174316406,107.14439392089844
3367,-159.84146118164062,38.57893753051758,-45.74832534790039,114.48955535888672
3368,-158.76809692382812,33.945201873779304,-37.39339065551758,118.28181457519531
3369,-157.72467041015625,36.6379280090332,-39.68968963623047,125.64942169189452
3370,-168.01687622070312,30.051965713500977,-43.253814697265625,118.6819839477539
3371,-153.39761352539062,42.389896392822266,-31.09539794921875,127.74002075195312
3372,-151.01528930664062,41.73167419433594,-30.19782257080078,130.93763732910156
3373,-156.6326141357422,30.88970375061035,-40.40774917602539,132.40367126464844
3374,-158.39785766601562,24.09430503845215,-38.0590934753418,133.02076721191406
3375,-159.38519287109375,36.67158889770508,-28.78413963317871,142.8118133544922
3376,-151.8081512451172,33.66471099853516,-32.202407836914055,142.84921264648438
3377,-153.0797119140625,33.260799407958984,-35.15692901611328,142.11245727539062
3378,-165.77293395996094,19.509187698364254,-37.59534454345703,128.55906677246094
3379,-158.94761657714844,29.39374351501465,-32.71477508544922,129.09761047363278
3380,-157.0701904296875,30.799945831298828,-32.57265853881836,120.9483642578125
3381,-157.00660705566406,32.699813842773445,-37.07175827026367,126.33756256103516
3382,-166.75653076171875,26.420522689819336,-43.20519256591797,120.98202514648438
3383,-163.3419952392578,30.63539123535156,-39.06886672973633,125.33526611328124
3384,-162.92686462402344,31.43572998046875,-37.47566604614258,127.19400024414062
3385,-159.58340454101562,28.911296844482425,-33.799346923828125,126.9658660888672
3386,-163.75338745117188,30.97572135925293,-36.05824661254883,127.72505950927734
3387,-159.4038848876953,36.06946563720703,-30.12302398681641,124.721923828125
3388,-155.2002410888672,33.97138214111328,-34.67822265625,126.23284149169922
3389,-154.96463012695312,35.138229370117195,-37.10541915893555,127.41838836669922
3390,-152.79922485351562,19.56528663635254,-43.07429885864258,126.23284149169922
3391,-150.585205078125,27.299400329589844,-36.51077270507813,132.02220153808594
3392,-142.4022979736328,31.54044532775879,-28.847719192504886,132.10823059082028
3393,-147.20059204101562,25.10407829284668,-37.71501922607422,131.85017395019528
3394,-157.9602813720703,23.02843475341797,-39.83928298950195,133.52565002441406
3395,-150.7460174560547,32.161270141601555,-31.31979179382324,141.5888671875
3396,-153.8426513671875,28.90755653381348,-39.345619201660156,129.01907348632812
3397,-160.73155212402344,29.69293594360352,-38.24982833862305,132.45230102539062
3398,-169.85316467285156,20.245948791503906,-37.902015686035156,120.85112762451172
3399,-155.4620361328125,39.809364318847656,-30.478315353393555,130.24575805664062
3400,-162.956787109375,34.61090469360352,-38.39568328857422,123.6784896850586
3401,-164.46397399902344,27.75940704345703,-42.46843338012695,126.91350555419922
3402,-171.55856323242188,19.976675033569336,-45.531410217285156,116.73723602294922
3403,-164.6173095703125,39.087562561035156,-37.3185920715332,124.63590240478516
3404,-165.679443359375,30.553112030029297,-34.97367477416992,125.81023406982422
3405,-166.0571746826172,31.869558334350586,-38.26104736328125,129.87924194335938
3406,-168.40208435058594,24.909603118896484,-40.63962173461914,128.45060729980472
3407,-157.08888244628906,36.716468811035156,-31.353450775146484,134.06045532226562
3408,-144.8070526123047,38.53779983520508,-39.24837875366211,134.71867370605472
3409,-144.06655883789062,31.00564002990723,-32.81949234008789,132.72157287597656
3410,-151.19107055664062,21.319299697875977,-39.86920166015625,123.40921783447266
3411,-146.41146850585938,27.942663192749023,-33.073806762695305,131.68562316894528
3412,-144.02915954589844,26.48410224914551,-33.690887451171875,129.57257080078122
3413,-146.3067626953125,27.81550598144531,-27.93144226074219,128.65629577636722
3414,-143.02687072753906,21.60353279113769,-26.31206703186035,126.43106079101562
3415,-139.35054016113278,34.62212371826172,-24.10178565979004,134.98420715332028
3416,-145.5288543701172,31.4918270111084,-24.797407150268555,132.53457641601562
3417,-160.0658416748047,31.14962577819824,-31.88451766967773,132.52336120605472
3418,-166.6031951904297,22.173866271972656,-36.40979766845703,129.31077575683594
3419,-165.73927307128906,30.076274871826172,-33.48145294189453,132.63929748535156
3420,-161.25140380859375,33.94333267211914,-32.91299057006836,137.59840393066406
3421,-164.20591735839844,31.12718772888184,-45.531410217285156,129.90168762207028
3422,-172.25791931152344,21.089296340942386,-46.13727569580078,125.23429107666016
3423,-156.01553344726562,38.15071868896485,-34.566024780273445,136.588623046875
3424,-163.16249084472656,33.10559463500977,-40.3479118347168,129.56135559082028
3425,-151.5500946044922,35.31587600708008,-34.77920150756836,134.50175476074222
3426,-145.51016235351562,28.535436630249023,-35.73661422729492,133.031982421875
3427,-147.71670532226562,32.428672790527344,-31.40580940246582,134.83087158203122
3428,-144.78836059570312,28.64389419555664,-41.61199569702149,125.1258316040039
3429,-149.6016082763672,30.117414474487305,-42.79006576538086,128.0205078125
3430,-149.17526245117188,23.76706504821777,-44.41318130493164,122.70611572265624
3431,-147.98597717285156,32.23419952392578,-44.33838272094727,126.17674255371094
3432,-148.31134033203125,35.297176361083984,-35.71791458129883,126.56195068359376
3433,-161.606689453125,22.68997383117676,-42.74892807006836,123.69345092773438
3434,-158.16598510742188,26.302717208862305,-43.49690628051758,127.03691864013672
3435,-156.8682403564453,33.21405029296875,-41.32776260375977,123.24465942382812
3436,-152.9188995361328,36.93899154663086,-38.86690902709961,127.00326538085938
3437,-167.6728057861328,35.95166015625,-44.67871475219727,120.36868286132812
3438,-181.1401824951172,28.94308662414551,-54.81010437011719,116.23609161376952
3439,-175.93798828125,35.33457565307617,-53.86016845703125,126.2665023803711
3440,-168.97802734375,38.644386291503906,-47.33030319213867,131.94740295410156
3441,-178.10337829589844,33.711456298828125,-58.06755828857422,122.40692901611328
3442,-171.24815368652344,32.009803771972656,-54.641807556152344,125.64567565917969
3443,-159.11965942382812,36.64727783203125,-37.82347869873047,130.28315734863278
3444,-152.24571228027344,37.14094543457031,-44.099029541015625,126.59187316894531
3445,-150.1139678955078,35.84694290161133,-39.678466796875,130.320556640625
3446,-153.60704040527344,28.412019729614254,-41.06597137451172,129.00410461425778
3447,-149.16778564453125,32.15192031860352,-32.075252532958984,130.01388549804688
3448,-148.9284210205078,26.89362144470215,-31.53296661376953,130.82170104980472
3449,-150.65252685546875,28.60649490356445,-36.985740661621094,134.45687866210938
3450,-151.83433532714844,14.929680824279785,-42.819984436035156,121.74870300292969
3451,-144.91177368164062,33.674060821533196,-30.51945304870605,127.56050872802734
3452,-144.45176696777344,34.055530548095696,-31.529226303100586,121.57292938232422
3453,-148.72647094726562,37.70193099975586,-32.95786666870117,121.67390441894531
3454,-153.07223510742188,27.66403961181641,-31.734920501708984,113.99588775634766
3455,-161.71141052246094,40.55547332763672,-29.651796340942386,118.9176025390625
3456,-164.93893432617188,38.47235107421875,-29.33390617370605,120.73519134521484
3457,-167.9271240234375,36.015235900878906,-30.145463943481445,123.68597412109376
3458,-175.39944458007812,32.985916137695305,-35.168148040771484,123.6822280883789
3459,-174.73373413085938,38.51348876953125,-31.8433780670166,128.36083984375
3460,-165.65325927734375,36.21718978881836,-28.25307464599609,128.43190002441406
3461,-166.1057891845703,39.61302185058594,-38.33958435058594,125.63819885253906
3462,-167.2501983642578,28.33348274230957,-41.35768508911133,130.61601257324222
3463,-155.57423400878906,37.19330596923828,-34.62212371826172,135.01039123535156
3464,-148.8985137939453,39.92717361450195,-26.92914962768555,138.630615234375
3465,-156.29977416992188,33.37860870361328,-39.06512451171875,130.72445678710938
3466,-149.33607482910156,29.10764122009277,-40.25067138671875,134.21379089355472
3467,-147.0734405517578,28.973005294799805,-32.47916030883789,141.56643676757812
3468,-150.27853393554688,32.81388092041016,-32.04159164428711,137.07107543945312
3469,-153.4649200439453,29.16374015808105,-34.206993103027344,127.3922119140625
3470,-159.01119995117188,26.52337074279785,-36.518253326416016,128.85824584960938
3471,-150.60763549804688,31.770450592041016,-27.385417938232425,125.226806640625
3472,-143.2886505126953,43.91016387939453,-31.200115203857425,121.07552337646484
3473,-161.9731903076172,38.91740036010742,-38.11518859863281,120.9259262084961
3474,-163.6935577392578,41.583946228027344,-44.04667282104492,113.6181640625
3475,-164.7968292236328,48.899192810058594,-37.939414978027344,111.97260284423828
3476,-162.2723846435547,51.93598937988281,-37.621524810791016,118.782958984375
3477,-169.0752716064453,57.594459533691406,-40.0487174987793,119.70671844482422
3478,-163.82070922851562,53.95927810668945,-37.16899490356445,120.48088073730469
3479,-158.79428100585938,55.96386337280274,-29.921070098876953,127.87840270996094
3480,-147.9523162841797,59.4980697631836,-25.49302864074707,137.00375366210938
3481,-151.08261108398438,50.24929428100586,-34.20325469970703,131.60333251953122
3482,-156.83831787109375,48.00535583496094,-35.71791458129883,132.59815979003906
3483,-140.60714721679688,47.66128540039063,-26.585079193115234,137.24684143066406
3484,-138.17247009277344,42.14493179321289,-27.99502182006836,129.99143981933594
3485,-146.00009155273438,47.04794311523438,-33.47771453857422,130.87405395507812
3486,-152.35791015625,46.91704559326172,-40.55360412597656,127.69888305664062
