,T7,F8,Cz,P4
2000,-161.66651916503906,1.1780685186386108,-23.92226982116699,125.3651885986328
2001,-150.46926879882812,14.843663215637207,-25.04050064086914,124.22451782226562
2002,-151.2097625732422,14.85488224029541,-26.267187118530273,119.53842163085938
2003,-150.43186950683594,10.916768074035645,-23.065832138061523,121.76366424560548
2004,-161.79368591308594,6.200754165649414,-27.198421478271484,119.11581420898438
2005,-161.2289581298828,2.04946517944336,-31.77606010437012,114.0594711303711
2006,-157.51524353027344,6.4288878440856925,-30.553112030029297,111.86788940429688
2007,-154.0633087158203,8.979499816894531,-28.81031990051269,113.88743591308594
2008,-154.34005737304688,2.9133820533752437,-23.548280715942386,111.73699188232422
2009,-164.50885009765625,10.815791130065918,-28.95617485046387,111.23210144042969
2010,-150.63381958007812,14.591219902038574,-22.061670303344727,117.03643035888672
2011,-159.4375457763672,9.059907913208008,-32.851280212402344,108.67027282714844
2012,-165.82528686523438,4.280315399169922,-35.18497848510742,113.68547821044922
2013,-164.8678741455078,17.268987655639652,-32.439891815185554,117.597412109375
2014,-166.89491271972656,17.194190979003903,-37.974945068359375,118.41645050048828
2015,-158.379150390625,13.413150787353516,-35.45799255371094,126.44601440429688
2016,-166.37506103515625,6.7149901390075675,-32.843799591064446,120.38738250732422
2017,-156.69993591308594,18.11046600341797,-27.65656089782715,121.3111343383789
2018,-152.7356414794922,18.91080474853516,-24.780576705932614,121.45699310302734
2019,-154.9085235595703,18.85844612121582,-25.99978446960449,124.54988861083984
2020,-159.1794891357422,12.85590648651123,-28.34844207763672,121.6888656616211
2021,-157.22726440429688,15.4551362991333,-20.27773666381836,117.27204132080078
2022,-158.4576873779297,17.792573928833008,-22.39078140258789,113.54710388183594
2023,-156.41944885253906,15.249442100524902,-22.65257453918457,113.70417785644531
2024,-157.47784423828125,10.200576782226562,-30.020177841186523,112.16707611083984
2025,-162.5341796875,21.704509735107425,-23.254697799682614,110.38314819335938
2026,-163.06524658203125,19.53536796569824,-25.46497917175293,112.69440460205078
2027,-165.77667236328125,18.989341735839844,-36.108734130859375,117.28326416015624
2028,-166.37506103515625,13.450550079345705,-38.08340072631836,119.1457290649414
2029,-166.33018493652344,20.346925735473636,-36.95395278930664,119.56085968017578
2030,-162.97923278808594,14.718376159667967,-33.543163299560554,116.76342010498048
2031,-161.68896484375,16.73044204711914,-39.104393005371094,122.8931121826172
2032,-168.27493286132812,10.937337875366213,-42.30200958251953,127.76245880126952
2033,-163.6748504638672,22.976076126098636,-37.13346481323242,130.23828125
2034,-155.4171600341797,21.446456909179688,-32.24167633056641,124.55362701416016
2035,-159.38893127441406,13.229896545410154,-42.212249755859375,124.90892028808594
2036,-164.49014282226562,10.709203720092773,-37.12224578857422,123.26710510253906
2037,-157.6199493408203,17.69907569885254,-30.97759056091309,118.8203582763672
2038,-160.22293090820312,17.104433059692386,-31.198246002197266,116.07527160644531
2039,-172.82264709472656,20.43668365478516,-38.05348205566406,107.50716400146484
2040,-167.6241912841797,7.103940010070801,-35.32335662841797,106.16828155517578
2041,-162.2798614501953,20.61619758605957,-32.57826995849609,101.81877899169922
2042,-167.01832580566406,26.323286056518555,-37.93380355834961,103.89067840576172
2043,-168.5591583251953,24.81984519958496,-30.401647567749023,112.9150619506836
2044,-174.40087890625,11.898491859436035,-32.679244995117195,116.02291870117188
2045,-168.77981567382812,26.9254093170166,-33.80121612548828,120.07696533203124
2046,-164.74072265625,23.92226982116699,-30.13237380981445,127.43708801269531
2047,-172.1606903076172,5.563101291656494,-40.15530395507813,121.7300033569336
2048,-168.03182983398438,7.040361881256104,-41.86817932128906,121.73748016357422
2049,-161.71888732910156,18.312419891357425,-35.443031311035156,128.36083984375
2050,-169.9017791748047,8.495182991027832,-31.47873878479004,125.75787353515624
2051,-155.11422729492188,6.991743087768555,-31.02621078491211,129.08638000488278
2052,-159.41883850097656,6.471896648406982,-30.457744598388672,124.37411499023438
2053,-152.76182556152344,15.888964653015135,-23.08640289306641,125.58209991455078
2054,-155.93325805664062,13.012982368469238,-19.799030303955078,125.38762664794922
2055,-150.9554443359375,11.83117389678955,-21.23141288757324,115.8882827758789
2056,-156.9505157470703,10.148218154907227,-23.101362228393555,114.1417465209961
2057,-170.30943298339844,21.93264389038086,-24.91895294189453,103.74856567382812
2058,-163.62249755859375,21.367918014526367,-20.195459365844727,106.77788543701172
2059,-168.42453002929688,26.345726013183594,-20.647987365722656,108.87596893310548
2060,-170.40667724609375,10.899938583374023,-27.914613723754886,117.22716522216795
2061,-161.8273468017578,31.136537551879886,-25.206926345825195,116.99529266357422
2062,-165.82528686523438,14.04893398284912,-33.99195098876953,110.98152923583984
2063,-161.1466827392578,15.20456314086914,-31.542316436767575,122.48171997070312
2064,-156.1314697265625,10.73538303375244,-30.345548629760746,127.7288055419922
2065,-156.40447998046875,2.724517107009888,-28.22128486633301,132.97962951660156
2066,-167.33995056152344,8.992588996887207,-35.742225646972656,120.88105010986328
2067,-166.95848083496094,14.228449821472168,-40.05432891845703,116.08649444580078
2068,-169.9541473388672,9.16462516784668,-39.17171096801758,112.54106903076172
2069,-170.98635864257812,25.9866943359375,-31.729310989379886,114.5867919921875
2070,-168.61526489257812,31.712482452392575,-29.85936164855957,103.1427001953125
2071,-168.36094665527344,38.16006851196289,-33.08689498901367,111.30690002441406
2072,-185.2129364013672,26.760854721069336,-42.72087860107422,100.46118927001952
2073,-181.08409118652344,47.165748596191406,-33.83487319946289,106.14584350585938
2074,-180.65773010253903,36.907203674316406,-29.103900909423828,108.50946044921876
2075,-179.46844482421875,42.326316833496094,-35.85441970825195,109.69874572753906
2076,-181.4992218017578,24.03072738647461,-34.11162567138672,111.3929214477539
2077,-177.77053833007812,37.45322799682617,-32.28281784057617,116.7746353149414
2078,-170.85545349121094,37.93193435668945,-30.66343879699707,114.53817749023438
2079,-173.54071044921875,36.87354278564453,-31.927526473999023,123.75328826904295
2080,-173.54444885253906,27.75192832946777,-36.16109085083008,126.84618377685548
2081,-173.02459716796875,37.96559524536133,-31.370281219482425,126.85740661621094
2082,-165.163330078125,37.18769454956055,-26.31393623352051,129.09013366699222
2083,-166.65928649902344,34.69692230224609,-32.85502243041992,130.23078918457028
2084,-169.03787231445312,22.033620834350586,-29.23853874206543,129.61370849609378
2085,-165.51861572265625,39.16236114501953,-29.9715576171875,124.7854995727539
2086,-167.01458740234375,29.419923782348636,-32.37631225585937,120.07696533203124
2087,-174.09046936035156,15.01382827758789,-35.611328125,116.67366027832031
2088,-177.23573303222656,16.86507797241211,-35.98531723022461,113.6817398071289
2089,-180.73252868652344,33.40665817260742,-34.00317001342773,110.94039154052734
2090,-174.82723999023438,39.30821990966797,-33.23649215698242,108.62165069580078
2091,-183.38412475585938,28.67568206787109,-32.985916137695305,109.53044891357422
2092,-177.13101196289062,29.03845405578613,-39.01089477539063,115.02062225341795
2093,-172.4561309814453,29.876190185546875,-34.130325317382805,113.4797821044922
2094,-169.30714416503906,35.27660751342773,-39.583099365234375,113.79019927978516
2095,-170.2047119140625,26.35320472717285,-36.80435562133789,114.0220718383789
2096,-169.20989990234375,19.539106369018555,-35.03164291381836,117.02894592285156
2097,-171.64083862304688,36.09190368652344,-38.13949966430664,120.15176391601562
2098,-160.25657653808594,32.67363739013672,-31.486217498779297,122.42562866210938
2099,-168.36468505859375,22.53102684020996,-42.33940887451172,114.2651596069336
2100,-163.96282958984375,21.184663772583008,-33.60300064086914,118.17335510253906
2101,-161.54684448242188,33.63853073120117,-27.61916160583496,120.17420196533205
2102,-161.9918975830078,21.24076271057129,-38.50226974487305,111.28820037841795
2103,-170.99757385253906,29.10951042175293,-38.55836868286133,113.0010757446289
2104,-171.92881774902344,14.737075805664062,-38.45738983154297,121.23633575439452
2105,-179.0346221923828,26.62621688842773,-37.451358795166016,118.94751739501952
2106,-174.88333129882812,28.12217712402344,-36.25833129882813,114.7625732421875
2107,-174.80853271484375,25.291072845458984,-42.118751525878906,117.66473388671876
2108,-178.0659942626953,26.46914100646973,-44.29163360595703,116.32958984375
2109,-179.21414184570312,29.93228912353516,-40.09546661376953,114.5680923461914
2110,-168.83216857910156,34.652042388916016,-31.60589408874512,114.37735748291016
2111,-167.63914489746094,23.49592208862305,-36.15361404418945,123.9963836669922
2112,-166.0048065185547,22.80404090881348,-31.6619930267334,121.19145965576172
2113,-170.87789916992188,31.054258346557614,-31.57971572875977,112.27179718017578
2114,-160.81756591796875,27.27322006225586,-30.25579071044922,116.91675567626952
2115,-162.64637756347656,28.55974578857422,-25.13212776184082,116.06779479980469
2116,-163.24102783203125,20.870512008666992,-25.580915451049805,113.3152313232422
2117,-158.95883178710938,27.62851142883301,-20.374975204467773,115.79104614257812
2118,-161.27757263183594,27.52005386352539,-22.65631484985352,121.329833984375
2119,-169.1986846923828,26.854351043701172,-26.23913764953613,124.65086364746094
2120,-174.80479431152344,22.905017852783203,-31.411418914794922,126.09446716308594
2121,-181.00929260253903,27.15354347229004,-28.370880126953125,121.49064636230469
2122,-171.61465454101562,27.07126617431641,-28.71495246887207,126.49837493896484
2123,-174.4794158935547,25.287334442138672,-33.707717895507805,124.33297729492188
2124,-172.98345947265625,17.437284469604492,-33.64788055419922,120.45843505859376
2125,-170.47772216796875,26.21108818054199,-29.855621337890625,117.77693176269531
2126,-172.32150268554688,26.99272727966309,-33.69649887084961,115.57412719726562
2127,-158.9364013671875,23.1107120513916,-33.782516479492195,122.37700653076172
2128,-169.32583618164062,13.42811107635498,-38.02356338500977,111.66593170166016
2129,-169.67738342285156,27.75192832946777,-32.017284393310554,109.41077423095705
2130,-161.8273468017578,24.632850646972656,-29.537729263305664,113.97718811035156
2131,-168.9742889404297,24.41219711303711,-31.81532859802246,104.86305236816406
2132,-156.58399963378906,26.48410224914551,-27.10305404663086,105.63721466064452
2133,-159.63201904296875,28.94121551513672,-29.103900909423828,108.67401123046876
2134,-160.05836486816406,27.27322006225586,-25.3939208984375,112.09228515625
2135,-161.2700958251953,28.032419204711914,-20.8462028503418,119.27288818359376
2136,-159.7816162109375,15.500015258789062,-26.76646423339844,118.11726379394531
2137,-165.0361785888672,27.35549736022949,-25.83148956298828,118.41271209716795
2138,-166.62937927246094,32.15005111694336,-24.720739364624023,118.39401245117188
2139,-174.329833984375,17.856151580810547,-34.66513442993164,115.98178100585938
2140,-168.98924255371094,24.550573348999023,-26.007265090942386,123.82434844970705
2141,-170.56375122070312,25.71742248535156,-28.569095611572266,118.45758819580078
2142,-172.5907745361328,25.38083076477051,-28.21380615234375,109.61272430419922
2143,-167.43345642089844,23.17428970336914,-31.68817138671875,115.31981658935548
2144,-168.2300567626953,14.819353103637695,-38.7154426574707,112.48497009277344
2145,-163.67111206054688,32.213626861572266,-25.30042266845703,106.8713836669922
2146,-160.48846435546875,31.106616973876953,-24.27194976806641,97.07284545898438
2147,-160.8811492919922,25.4294490814209,-30.1772518157959,101.1942138671875
2148,-166.6443328857422,20.777013778686523,-29.92293930053711,106.41511535644531
2149,-165.11097717285156,23.71283531188965,-32.626888275146484,108.02700805664062
2150,-163.54022216796875,24.15414428710937,-32.89242172241211,114.9869613647461
2151,-166.23294067382812,18.78738784790039,-35.44677352905273,120.73519134521484
2152,-174.13534545898438,14.613658905029295,-35.083999633789055,122.88563537597656
2153,-169.51657104492188,30.99816131591797,-30.1361141204834,118.1584014892578
2154,-165.13714599609375,26.345726013183594,-24.69081878662109,114.26890563964844
2155,-173.02085876464844,21.41653633117676,-30.41286659240723,113.03473663330078
2156,-174.0194091796875,20.96026992797852,-35.66742706298828,114.0856475830078
2157,-175.1301727294922,34.52114486694336,-29.2086181640625,113.4423828125
2158,-167.2501983642578,34.337890625,-25.74173164367676,114.04824829101562
2159,-168.19265747070312,25.94181632995605,-29.45545196533203,116.21365356445312
2160,-173.44720458984375,16.524747848510742,-32.959739685058594,109.79972076416016
2161,-166.51344299316406,30.88970375061035,-28.329742431640625,109.73988342285156
2162,-162.4556427001953,27.744447708129886,-27.37232780456543,107.3800048828125
2163,-166.70042419433594,22.830219268798828,-27.4658260345459,106.70682525634766
2164,-165.10723876953125,17.94590950012207,-21.75499725341797,110.67859649658205
2165,-167.03701782226562,23.398683547973636,-29.33951568603516,106.2729949951172
2166,-159.72177124023438,22.71054267883301,-27.536884307861328,113.06465911865234
2167,-166.80140686035156,20.00285530090332,-28.65885353088379,113.47230529785156
2168,-165.52610778808594,16.565887451171875,-30.62604141235352,116.54276275634766
2169,-161.5618133544922,32.23232650756836,-33.374866485595696,117.18228912353516
2170,-161.33367919921875,21.674591064453125,-32.099559783935554,116.7970733642578
2171,-166.5209197998047,23.33136558532715,-36.95395278930664,119.8637924194336
2172,-175.5939178466797,16.592065811157227,-33.50950241088867,120.07696533203124
2173,-170.79562377929688,33.189743041992195,-30.8691349029541,120.4659194946289
2174,-163.28590393066406,33.38795852661133,-29.39187431335449,112.42513275146484
2175,-170.51512145996094,24.528133392333984,-34.68383407592773,113.77897644042969
2176,-166.07960510253906,28.881378173828125,-30.92523193359375,112.84774017333984
2177,-174.494384765625,27.262001037597656,-32.45111083984375,106.76666259765624
2178,-160.83627319335938,26.01661491394043,-28.168926239013672,105.04631042480469
2179,-155.4134063720703,27.340538024902344,-26.75150489807129,102.14041137695312
2180,-157.8181610107422,15.27562141418457,-26.16434097290039,97.33089447021484
2181,-154.28770446777344,32.82697296142578,-24.15975379943848,103.55034637451172
2182,-158.3529815673828,26.499061584472656,-28.456899642944336,107.44358825683594
2183,-161.20277404785156,23.31640625,-37.36534118652344,111.5350341796875
2184,-168.2599639892578,23.593158721923828,-34.18268585205078,118.71564483642578
2185,-167.534423828125,24.2439022064209,-36.79313659667969,118.98865509033205
2186,-174.154052734375,23.432342529296875,-29.69106483459473,124.22077941894531
2187,-168.8172149658203,18.761207580566406,-32.25289535522461,125.3651885986328
2188,-168.66761779785156,21.8316650390625,-30.75693702697754,124.81916046142578
2189,-169.0341339111328,29.51716041564941,-29.08520126342773,120.68283081054688
2190,-169.39315795898438,30.38855743408203,-33.210311889648445,118.79792022705078
2191,-162.9979248046875,24.606672286987305,-35.77214431762695,120.89974212646484
2192,-158.97006225585938,20.2646484375,-34.94562530517578,114.87102508544922
2193,-159.2281036376953,20.32074546813965,-29.39187431335449,108.97694396972656
2194,-155.7051239013672,24.87594413757324,-29.571388244628906,109.2237777709961
2195,-160.18927001953125,24.501955032348636,-32.802661895751946,106.50486755371094
2196,-155.72007751464844,20.466602325439453,-30.76441764831543,109.27613830566406
2197,-153.78656005859375,31.84711837768555,-27.454605102539066,113.14319610595705
2198,-160.0022735595703,28.477468490600586,-27.271350860595703,118.49498748779295
2199,-161.96571350097656,15.705709457397461,-33.21779251098633,119.48980712890624
2200,-154.58689880371094,10.813920974731444,-34.94188690185547,124.43769073486328
2201,-162.79971313476562,24.93578338623047,-33.726417541503906,128.454345703125
2202,-165.75424194335938,21.364177703857425,-37.67201232910156,119.2803726196289
2203,-168.98550415039062,33.761947631835945,-35.90678024291992,123.74207305908205
2204,-167.5830535888672,17.059553146362305,-37.4887580871582,121.13909912109376
2205,-160.7091064453125,29.262847900390625,-29.06650161743164,125.8887710571289
2206,-165.19325256347656,34.094799041748054,-30.1772518157959,121.42707061767578
2207,-159.63201904296875,25.395790100097656,-29.23853874206543,120.88105010986328
2208,-154.68038940429688,24.87594413757324,-25.22562599182129,124.58728790283205
2209,-163.10264587402344,16.128318786621097,-26.03718376159668,118.74930572509766
2210,-164.84544372558594,28.526086807250977,-26.02970314025879,117.91156768798828
2211,-168.6844482421875,29.079591751098636,-33.402915954589844,111.27511596679688
2212,-157.43856811523438,22.59086608886719,-36.36865615844727,108.48140716552734
2213,-160.52398681640625,28.825279235839844,-27.938922882080078,107.1462631225586
2214,-152.27001953125,25.87449836730957,-26.62621688842773,107.96530151367188
2215,-161.7618865966797,29.21796798706055,-28.37649154663086,116.0584487915039
2216,-169.95974731445312,21.39409828186035,-30.63539123535156,117.94335174560548
2217,-162.53231811523438,31.23003387451172,-26.68605613708496,118.11538696289062
2218,-161.002685546875,33.032665252685554,-24.01202774047852,127.58855438232422
2219,-172.2448272705078,24.76000785827637,-34.738059997558594,126.1000747680664
2220,-170.54318237304688,12.62029266357422,-34.01625823974609,126.43292999267578
2221,-169.04347229003906,21.79052734375,-28.324132919311523,125.81210327148438
2222,-161.3056182861328,32.348262786865234,-31.50678634643555,126.30577087402344
2223,-169.2454376220703,16.820199966430664,-35.441162109375,122.6668472290039
2224,-165.58033752441406,12.081747055053713,-32.10143280029297,120.7744598388672
2225,-167.09872436523438,26.760854721069336,-27.37793731689453,119.14012145996094
2226,-161.11114501953125,24.184062957763672,-25.94181632995605,116.6418685913086
2227,-161.55245971679688,20.29830741882324,-29.97342872619629,115.0972900390625
2228,-167.9663848876953,15.825387001037598,-37.99177551269531,109.92127227783205
2229,-161.49261474609375,21.596052169799805,-28.90381622314453,113.74718475341795
2230,-159.3683624267578,26.454181671142575,-24.89838409423828,118.26872253417969
2231,-156.07350158691406,22.968595504760746,-23.948450088500977,118.59783935546876
2232,-160.01536560058594,20.930349349975586,-24.01202774047852,121.45137786865234
2233,-170.2065887451172,22.691843032836914,-28.896337509155273,118.5716552734375
2234,-166.07774353027344,18.70884895324707,-27.546232223510746,126.75830078125
2235,-169.47357177734375,15.27562141418457,-30.089365005493164,125.89437866210938
2236,-173.2994842529297,19.48674964904785,-28.4400691986084,123.18669128417969
2237,-168.23565673828125,19.299753189086914,-24.195281982421875,124.1478500366211
2238,-167.51011657714844,29.64805603027344,-21.92516326904297,122.76408386230469
2239,-162.34906005859375,18.634052276611328,-26.48410224914551,122.685546875
2240,-160.22853088378906,19.744802474975586,-28.67568206787109,124.74623107910156
2241,-154.41299438476562,25.10033798217773,-25.631404876708984,120.19103240966795
2242,-153.4144287109375,25.3995304107666,-14.355606079101562,120.79315948486328
2243,-156.83270263671875,23.60063934326172,-21.143524169921875,113.13758087158205
2244,-155.82293701171875,22.033620834350586,-17.478422164916992,109.38272094726562
2245,-159.8321075439453,27.587371826171875,-18.44705581665039,106.24494934082031
2246,-156.85888671875,34.135936737060554,-21.45767593383789,109.6557388305664
2247,-158.384765625,25.586524963378906,-20.747095108032227,115.0972900390625
2248,-169.78024291992188,13.263555526733398,-27.42281723022461,117.48334503173828
2249,-164.66030883789062,22.407609939575195,-23.51836013793945,117.61424255371094
2250,-160.98773193359375,23.608118057250977,-13.74974250793457,126.85179901123048
2251,-165.15023803710938,25.75482177734375,-18.114206314086914,133.78556823730472
2252,-169.43243408203125,16.909957885742188,-24.95448303222656,129.98583984375
2253,-159.37210083007812,29.18804931640625,-18.776166915893555,137.18887329101562
2254,-157.67791748046875,20.32074546813965,-15.64587116241455,128.51605224609378
2255,-155.05250549316406,15.79920768737793,-19.501708984375,128.99850463867188
2256,-157.16555786132812,20.76579475402832,-15.600992202758787,133.68084716796878
2257,-153.6350860595703,14.04893398284912,-13.585186958312988,123.68035888671876
2258,-151.14805603027344,23.94096946716309,-14.980169296264648,119.78338623046876
2259,-156.89254760742188,21.28190040588379,-6.527995586395264,121.44390106201172
2260,-158.99063110351562,13.888118743896484,-13.760961532592773,115.06737518310548
2261,-156.28668212890625,20.874252319335934,-9.396498680114746,117.27017211914062
2262,-151.73521423339844,26.555160522460934,-8.90283203125,114.17727661132812
2263,-156.06976318359375,28.499908447265625,-17.46720314025879,116.7017059326172
2264,-169.51097106933594,17.893550872802734,-24.27756118774414,114.51012420654295
2265,-167.98135375976562,29.16934967041016,-20.29830741882324,124.38719940185548
2266,-167.89532470703125,21.8316650390625,-25.60148429870605,124.89956665039062
2267,-169.17437744140625,21.59979248046875,-29.37130355834961,129.69786071777344
2268,-164.71641540527344,12.437037467956545,-24.13918495178223,130.79739379882812
2269,-164.570556640625,24.04568672180176,-23.421123504638672,130.01948547363278
2270,-156.941162109375,16.977275848388672,-22.88631820678711,130.60292053222656
2271,-157.81256103515625,14.497722625732422,-23.24534797668457,126.28333282470705
2272,-164.90341186523438,11.804994583129885,-33.29071807861328,120.7183609008789
2273,-153.73233032226562,21.90272331237793,-28.33535194396973,120.3518524169922
2274,-158.6802215576172,24.6365909576416,-23.963409423828125,119.7347640991211
2275,-147.67742919921875,20.930349349975586,-28.944955825805664,112.4681396484375
2276,-161.17098999023438,9.572274208068848,-33.926502227783196,106.86951446533205
2277,-152.6178436279297,24.449596405029297,-34.83529663085937,110.10826110839844
2278,-156.92620849609375,24.756267547607425,-29.01975440979004,103.00245666503906
2279,-159.68251037597656,15.679530143737793,-38.69861602783203,104.2179183959961
2280,-157.25531005859375,20.26090812683105,-30.852304458618164,113.6312484741211
2281,-171.8334503173828,27.39289665222168,-37.50558853149414,108.4926300048828
2282,-171.32481384277344,31.028079986572266,-34.19577407836914,109.2331314086914
2283,-165.6326904296875,22.28045463562012,-32.98778915405273,121.24568939208984
2284,-163.01475524902344,17.837451934814453,-32.049072265625,126.81066131591795
2285,-161.27197265625,16.22181510925293,-33.537551879882805,124.80233001708984
2286,-157.12815856933594,24.84228515625,-29.44984245300293,131.42942810058594
2287,-162.76792907714844,14.052674293518065,-35.34392547607422,130.76373291015622
2288,-165.18016052246094,10.724163055419922,-45.14246368408203,122.93985748291016
2289,-162.52108764648438,18.346078872680664,-34.75302124023437,122.85010528564452
2290,-152.1914825439453,22.05232048034668,-26.42426300048828,116.87374114990234
2291,-147.3483123779297,17.751434326171875,-26.241008758544922,128.86759948730472
2292,-147.6587371826172,20.23472785949707,-22.95737648010254,128.86012268066406
2293,-153.044189453125,16.476129531860348,-22.119638442993164,119.6936264038086
2294,-157.30767822265625,21.685810089111328,-24.026987075805664,119.86566162109376
2295,-157.2253875732422,11.288887977600098,-26.10637092590332,118.16027069091795
2296,-165.95431518554688,15.552373886108398,-21.184663772583008,122.01610565185548
2297,-170.7189483642578,33.840484619140625,-20.133750915527344,126.08511352539062
2298,-175.36016845703125,24.22894096374512,-33.71706771850586,123.81874084472656
2299,-170.91717529296875,16.868818283081055,-32.75217437744141,131.48553466796878
2300,-165.5130157470703,16.565887451171875,-31.701261520385746,125.13892364501952
2301,-154.0165557861328,22.3889102935791,-25.481807708740234,130.50193786621094
2302,-157.25157165527344,15.189603805541992,-29.98838806152344,131.37333679199222
2303,-150.17942810058594,17.51582145690918,-25.425710678100586,124.33484649658205
2304,-154.56259155273438,10.94107723236084,-25.90441703796387,114.36052703857422
2305,-153.5528106689453,23.18177032470703,-18.73876953125,125.98787689208984
2306,-161.91522216796875,25.06293869018555,-29.99586677551269,118.05554962158205
2307,-161.06626892089844,16.147018432617188,-26.87679100036621,119.34207916259766
2308,-151.49960327148438,17.407363891601562,-23.320146560668945,122.10212707519531
2309,-156.85888671875,21.41653633117676,-22.370210647583008,120.02273559570312
2310,-159.0654296875,26.73467445373535,-22.478668212890625,121.5186996459961
2311,-160.168701171875,26.644916534423828,-23.83999252319336,120.70713806152344
2312,-170.0457763671875,9.9387845993042,-36.32378005981445,115.36656188964844
2313,-169.84381103515625,28.77292060852051,-31.0692195892334,118.63523864746094
2314,-169.60072326660156,25.934335708618164,-25.036760330200195,118.4108428955078
2315,-166.6574249267578,21.764347076416016,-37.07175827026367,123.46344757080078
2316,-173.28453063964844,21.035066604614254,-36.45841598510742,123.68035888671876
2317,-160.89797973632812,29.82383155822754,-29.31520652770996,128.52352905273438
2318,-155.4526824951172,19.116498947143555,-31.177675247192386,124.45452117919922
2319,-161.14480590820312,23.74649429321289,-29.4087028503418,125.56900787353516
2320,-158.6689910888672,20.219768524169922,-26.22978782653809,124.71257019042969
2321,-154.40550231933594,24.789926528930664,-21.554912567138672,115.50868225097656
2322,-153.5902099609375,21.2332820892334,-20.373104095458984,113.50035095214844
2323,-151.82498168945312,16.812719345092773,-26.9141902923584,116.6044692993164
2324,-160.18739318847656,12.739969253540039,-24.950742721557614,109.4799575805664
2325,-153.49298095703125,19.984155654907227,-19.83455848693848,112.79351043701172
2326,-150.81893920898438,19.38203239440918,-19.38577079772949,120.00778198242188
2327,-155.6247100830078,19.93927574157715,-22.527286529541016,125.39323425292969
2328,-161.37667846679688,11.487102508544922,-23.667957305908203,120.98389434814452
2329,-166.70977783203125,25.90815734863281,-17.68411636352539,123.99451446533205
2330,-166.3507537841797,18.78738784790039,-27.897783279418945,117.20659637451172
2331,-167.1585693359375,12.837206840515135,-29.35634422302246,117.27765655517578
2332,-158.36605834960938,10.593266487121582,-23.68291664123535,119.84322357177734
2333,-151.5033416748047,25.496767044067386,-22.50484848022461,126.1412124633789
2334,-152.07928466796875,8.906571388244629,-28.54478645324707,123.09320068359376
2335,-152.86093139648438,17.13435173034668,-28.372751235961914,123.79629516601562
2336,-156.260498046875,12.766148567199707,-26.74589538574219,124.4881820678711
2337,-156.31285095214844,17.298906326293945,-27.419076919555664,119.32337951660156
2338,-155.96878051757812,18.241361618041992,-30.328718185424805,109.81281280517578
2339,-152.9955596923828,16.853858947753903,-35.29904556274414,108.79181671142578
2340,-153.19004821777344,14.303247451782227,-34.180816650390625,111.82113647460938
2341,-152.21018981933594,19.142677307128906,-29.98090744018555,110.4373779296875
2342,-163.49346923828125,17.773874282836914,-32.696075439453125,111.71268463134766
2343,-163.53086853027344,13.439330101013185,-37.58786392211914,113.14132690429688
2344,-164.7912139892578,17.411104202270508,-31.0804386138916,119.15882110595705
2345,-153.84078979492188,30.56433296203613,-25.298553466796875,123.45222473144531
2346,-150.5833282470703,15.97872257232666,-20.0888729095459,123.75515747070312
2347,-152.1952362060547,9.781708717346193,-31.85833740234375,121.29804229736328
2348,-160.10137939453125,7.085240364074707,-36.29759979248047,114.40541076660156
2349,-155.755615234375,24.22894096374512,-27.598590850830078,117.67781829833984
2350,-159.652587890625,22.73672103881836,-25.3883113861084,113.13384246826172
2351,-163.75900268554688,17.441022872924805,-24.96944236755371,111.85105895996094
2352,-155.40780639648438,6.913205146789551,-27.445255279541016,113.8893051147461
2353,-153.2947540283203,26.40182304382324,-18.084285736083984,115.33290100097656
2354,-156.15951538085938,19.98041534423828,-18.15160369873047,116.34642028808594
2355,-150.43373107910156,10.525948524475098,-23.286487579345703,124.36476135253906
2356,-154.07640075683594,0.5553751587867737,-28.75048065185547,117.65164184570312
2357,-148.5525665283203,14.942770004272461,-27.561193466186523,115.91632843017578
2358,-159.45437622070312,9.27308177947998,-32.497859954833984,112.85709381103516
2359,-161.63473510742188,11.32254695892334,-31.32353210449219,119.66744995117188
2360,-164.98568725585938,0.6974913477897644,-35.882469177246094,117.45343017578124
2361,-159.04672241210938,16.315313339233402,-24.64033126831055,117.03456115722656
2362,-158.05938720703125,15.09610652923584,-25.870758056640625,113.41433715820312
2363,-159.14022827148438,3.943724393844605,-32.74469375610352,119.72354888916016
2364,-155.84536743164062,7.029141902923584,-29.93976974487305,113.34701538085938
2365,-158.8933868408203,10.518468856811523,-30.418476104736328,117.5656280517578
2366,-152.8833770751953,10.481069564819336,-32.262245178222656,118.60905456542969
2367,-157.86865234375,8.65225887298584,-33.040145874023445,114.7532196044922
2368,-154.84307861328125,-1.1911581754684448,-32.729736328125,113.24230194091795
2369,-158.28004455566406,9.54609489440918,-32.049072265625,108.00270080566406
2370,-150.51226806640625,11.034574508666992,-28.21193504333496,110.93104553222656
2371,-147.94296264648438,1.430511713027954,-31.933135986328125,116.31275939941406
2372,-148.94151306152344,5.978229999542236,-28.48868751525879,119.1924819946289
2373,-151.77261352539062,11.019615173339844,-28.30543327331543,116.16316223144531
2374,-158.57550048828125,11.483363151550293,-31.08417892456055,109.59215545654295
2375,-160.7147216796875,-1.7184840440750122,-34.12097549438477,112.85334777832031
2376,-158.18655395507812,0.9293651580810548,-34.07235717773437,115.7816925048828
2377,-158.72509765625,5.147972106933594,-29.72659492492676,114.00897979736328
2378,-159.48056030273438,8.813074111938477,-32.90177154541016,109.52857971191406
2379,-163.6468048095703,7.455490589141847,-34.35659027099609,108.39539337158205
2380,-160.17617797851562,10.664324760437012,-31.96679496765137,108.4701919555664
2381,-158.6465606689453,14.38178539276123,-30.915882110595703,106.8096694946289
2382,-153.5902099609375,10.8101806640625,-35.845069885253906,108.03262329101562
2383,-144.79396057128906,10.978476524353027,-36.78004455566406,106.48056030273438
2384,-148.1710968017578,6.071727752685548,-34.16211700439453,108.03636169433594
2385,-145.6990203857422,15.47757625579834,-31.79475975036621,104.27401733398438
2386,-147.7410125732422,11.935891151428224,-26.01661491394043,110.78892517089844
2387,-149.1920928955078,16.599546432495114,-29.71911430358887,110.75152587890624
2388,-163.47850036621094,3.812828063964844,-35.4935188293457,108.54498291015624
2389,-165.86456298828125,6.6065330505371085,-36.04702758789063,107.78204345703124
2390,-154.24468994140625,19.797161102294922,-27.50883483886719,119.54777526855469
2391,-158.6764678955078,12.2276029586792,-32.32956695556641,110.84502410888672
2392,-161.62351989746094,6.262462615966798,-33.462753295898445,113.14132690429688
2393,-154.5738067626953,15.058707237243652,-27.81176567077637,112.23252868652344
2394,-150.48236083984375,8.854212760925293,-29.5956974029541,116.2229995727539
2395,-153.1676025390625,10.675544738769533,-27.34427833557129,120.58372497558594
2396,-156.11837768554688,5.035775184631348,-27.90152359008789,111.9632568359375
2397,-157.7041015625,16.124578475952152,-24.59545135498047,109.92874908447266
2398,-156.67562866210938,23.35380554199219,-23.884870529174805,107.47911834716795
2399,-147.12017822265625,13.23737621307373,-23.5221004486084,108.1485595703125
2400,-159.8321075439453,9.60593318939209,-26.39808464050293,101.19608306884766
2401,-151.96710205078125,20.65359687805176,-23.05461311340332,106.33470916748048
2402,-151.95587158203125,18.174043655395508,-24.75252723693848,107.03780364990234
2403,-156.35400390625,11.042054176330566,-24.50943374633789,111.13299560546876
2404,-156.17074584960938,12.769887924194336,-30.373598098754886,113.26100158691406
2405,-166.20115661621094,15.234482765197756,-31.36093139648437,116.2641372680664
2406,-160.9765167236328,10.413751602172852,-25.220014572143555,116.94853973388672
2407,-172.26727294921875,10.185617446899414,-35.572059631347656,112.87953186035156
2408,-170.0420379638672,8.618599891662598,-34.00130081176758,121.0586929321289
2409,-165.1951141357422,13.824540138244627,-32.81949234008789,119.23735809326172
2410,-155.40780639648438,15.485055923461914,-30.88222312927246,122.31903839111328
2411,-155.9239044189453,9.86772632598877,-32.520301818847656,121.7206573486328
2412,-158.631591796875,7.0534515380859375,-31.57036590576172,120.46778869628906
2413,-155.39283752441406,23.85308265686035,-22.317853927612305,122.33026123046876
2414,-151.0583038330078,13.95730686187744,-20.563838958740234,114.14361572265624
2415,-146.03561401367188,13.45989990234375,-16.954835891723633,104.8163070678711
2416,-158.3473663330078,9.274951934814453,-20.444162368774414,102.67708587646484
2417,-154.49526977539062,26.41865348815918,-25.291072845458984,103.30164337158205
2418,-152.56173706054688,16.264825820922848,-21.027587890625,111.88845825195312
2419,-163.15687561035156,13.942346572875975,-26.44296264648437,108.07376098632812
2420,-163.23915100097656,7.307764530181885,-28.081039428710934,116.27536010742188
2421,-164.88844299316406,18.49754524230957,-33.82178497314453,118.025634765625
2422,-160.1724395751953,10.438060760498047,-32.18370819091797,121.68699645996094
2423,-156.03610229492188,10.860669136047363,-35.53466033935547,121.39527893066406
2424,-152.43084716796875,6.369049549102782,-35.407501220703125,127.59603881835938
2425,-150.12332153320312,10.920507431030273,-30.160423278808594,129.62306213378906
2426,-153.61639404296875,7.674274921417236,-32.449241638183594,126.66854095458984
2427,-155.39283752441406,8.272658348083496,-31.03929901123047,127.9251480102539
2428,-158.92330932617188,-4.581377506256104,-27.325578689575195,126.78447723388672
2429,-157.8424835205078,10.830750465393066,-30.549373626708984,119.6749267578125
2430,-156.74668884277344,19.29788398742676,-19.95797538757324,117.18041229248048
2431,-157.21791076660156,18.183393478393555,-29.827571868896484,113.50409698486328
2432,-158.6727294921875,17.23345947265625,-29.685455322265625,110.10826110839844
2433,-158.03695678710938,15.61408233642578,-28.002500534057614,114.00524139404295
2434,-166.0178985595703,7.988426208496094,-33.32063674926758,119.06532287597656
2435,-169.41746520996094,12.95875358581543,-33.126163482666016,119.81330871582031
2436,-173.07508850097656,10.886848449707033,-38.33210372924805,113.24604034423828
2437,-165.1726837158203,23.052743911743164,-35.31400680541992,109.28548431396484
2438,-165.48683166503906,23.793243408203125,-37.25501251220703,114.40914916992188
2439,-159.1028289794922,15.030657768249512,-30.740108489990234,125.58396911621094
2440,-161.5749053955078,7.494759559631348,-29.88741111755371,121.34292602539062
2441,-156.87010192871094,20.225378036499023,-30.9046630859375,124.8509521484375
2442,-154.13998413085938,18.2170524597168,-32.927947998046875,127.685791015625
2443,-152.1503448486328,10.740992546081543,-31.80597877502441,134.15582275390622
2444,-160.1537322998047,10.247325897216797,-31.140277862548828,126.97147369384766
2445,-155.3704071044922,9.188934326171877,-25.096599578857425,122.42375183105469
2446,-152.4420623779297,19.080968856811523,-23.772674560546875,116.18933868408205
2447,-156.74295043945312,19.86634826660156,-30.81116485595703,121.01007080078124
2448,-161.03260803222656,8.942100524902344,-29.588218688964844,117.69651794433594
2449,-170.5469207763672,22.996644973754886,-22.89379692077637,115.90511322021484
2450,-175.69676208496094,25.82400894165039,-32.80453109741211,112.26618957519531
2451,-167.446533203125,23.22477912902832,-27.426555633544922,116.08836364746094
2452,-166.86685180664062,20.195459365844727,-27.63973045349121,113.4853973388672
2453,-164.21527099609375,21.21645164489746,-30.5119743347168,116.73536682128906
2454,-162.27052307128906,26.16434097290039,-28.75422096252441,123.18669128417969
2455,-169.1070556640625,23.681047439575195,-35.14570999145508,126.36560821533205
2456,-169.7017059326172,6.339130401611327,-34.891395568847656,123.4110870361328
2457,-160.1537322998047,24.64594078063965,-28.14461708068848,128.10466003417972
2458,-159.5291748046875,20.83124351501465,-29.47228240966797,127.1210708618164
2459,-152.43084716796875,16.792150497436527,-32.213626861572266,131.78099060058594
2460,-156.9037628173828,14.08820343017578,-27.50509452819824,129.81753540039062
2461,-155.81919860839844,25.67815399169922,-24.96570205688477,126.49650573730469
2462,-164.2264862060547,27.0955753326416,-29.468542098999023,117.89099884033205
2463,-154.0950927734375,13.523478507995605,-32.022891998291016,115.4563217163086
2464,-166.3582305908203,12.95875358581543,-34.117237091064446,113.04034423828124
2465,-165.9692840576172,24.08121490478516,-35.87125015258789,110.18680572509766
2466,-162.9998016357422,23.65486717224121,-28.484947204589844,113.03286743164062
2467,-161.82920837402344,21.758737564086914,-33.59365081787109,117.18789672851562
2468,-168.35159301757812,19.200645446777344,-35.14197158813477,110.81136322021484
2469,-158.9681854248047,25.857667922973636,-30.55685234069824,108.45896911621094
2470,-156.57090759277344,22.45435905456543,-27.407855987548828,107.66610717773438
2471,-157.22164916992188,18.628440856933594,-30.10432434082031,108.54498291015624
2472,-159.93307495117188,19.04357147216797,-32.318344116210945,113.4105987548828
2473,-161.37667846679688,17.547611236572266,-26.40182304382324,119.04288482666016
2474,-150.73292541503906,20.33009529113769,-31.402069091796875,121.24942779541016
2475,-154.84307861328125,13.28038501739502,-28.062339782714844,131.82960510253906
2476,-154.3905487060547,17.229719161987305,-28.17079734802246,122.52099609375
2477,-157.29644775390625,18.318029403686523,-24.50943374633789,126.94903564453124
2478,-154.08013916015625,21.97565269470215,-19.052919387817386,130.50193786621094
2479,-147.64376831054688,20.71530532836914,-25.694982528686523,129.00971984863278
2480,-156.9374237060547,23.60624885559082,-26.902971267700195,115.70315551757812
2481,-158.5455780029297,31.961185455322266,-21.715728759765625,122.5022964477539
2482,-149.24070739746094,27.170373916625977,-21.88402366638184,116.84756469726562
2483,-155.90895080566406,24.54870414733887,-29.42740249633789,109.18824768066406
2484,-147.84947204589844,32.858760833740234,-16.105878829956055,121.99740600585938
2485,-157.21417236328125,13.433720588684082,-26.46166229248047,106.79471588134766
2486,-148.05142211914062,18.157215118408203,-24.79366683959961,104.65923309326172
2487,-150.497314453125,24.253252029418945,-30.209041595458984,109.58094024658205
2488,-157.2440948486328,29.698545455932614,-30.25765991210937,108.81800079345705
2489,-153.0030517578125,25.16952705383301,-32.19866943359375,108.46270751953124
2490,-153.96420288085938,20.32261657714844,-34.91757583618164,107.73342895507812
2491,-152.84597778320312,15.12789535522461,-34.984893798828125,114.74200439453124
2492,-149.38656616210938,15.071796417236328,-34.416427612304695,117.55066680908205
2493,-155.17593383789062,6.851496696472168,-32.265987396240234,113.11140441894531
2494,-157.9172821044922,8.167941093444824,-37.77486038208008,112.31854248046876
2495,-157.65548706054688,3.743639945983887,-36.2751579284668,114.64850616455078
2496,-159.8695068359375,5.243339538574219,-35.90864944458008,116.48479461669922
2497,-175.0011444091797,14.899761199951172,-38.096492767333984,112.03805541992188
2498,-170.0869140625,4.820731163024902,-44.45431900024414,108.38043212890624
2499,-162.5659637451172,9.106656074523926,-38.35080337524414,118.29864501953124
2500,-165.99920654296875,16.72483253479004,-37.68510055541992,112.69253540039062
2501,-165.0791778564453,15.210172653198242,-41.72419357299805,106.0429916381836
2502,-164.09559631347656,14.66414737701416,-40.48628616333008,106.67877960205078
2503,-160.51651000976562,17.01280403137207,-38.91552734375,108.9975128173828
2504,-156.69058227539062,7.801431179046631,-46.38037109375,110.63932800292969
2505,-159.96299743652344,11.017745018005373,-35.803932189941406,114.4128875732422
2506,-154.41299438476562,10.65871524810791,-40.21701431274414,118.83718872070312
2507,-167.04637145996094,8.639168739318848,-49.01325988769531,107.5539093017578
2508,-161.8030242919922,2.5767910480499268,-46.47760772705078,112.69627380371094
2509,-157.9584197998047,9.402108192443848,-38.38072204589844,113.36571502685548
2510,-167.10995483398438,11.709627151489258,-41.30532455444336,109.12841033935548
2511,-167.18101501464844,13.119568824768065,-39.39049530029297,120.8193359375
2512,-170.8872528076172,10.999045372009276,-41.63817596435547,118.20514678955078
2513,-165.23251342773438,5.142362594604492,-41.544677734375,120.70713806152344
2514,-161.6459503173828,7.46858024597168,-40.23945236206055,122.73043060302734
2515,-154.38681030273438,12.689480781555176,-35.310264587402344,126.45162963867188
2516,-160.06024169921875,16.021732330322266,-33.986339569091804,126.8630142211914
2517,-159.46932983398438,4.315844535827637,-30.418476104736328,120.10875701904295
2518,-159.3571319580078,5.0413851737976065,-32.90177154541016,122.2218017578125
2519,-155.1534881591797,8.822423934936523,-30.994421005249023,123.1679916381836
2520,-160.5539093017578,6.679461479187013,-30.23522186279297,119.97412109375
2521,-157.21043395996094,5.2059407234191895,-27.452735900878906,112.33724212646484
2522,-153.51914978027344,17.91786003112793,-23.55575942993164,116.25292205810548
2523,-151.95213317871094,10.157567977905273,-26.68605613708496,115.71063232421876
2524,-155.64715576171875,12.210773468017578,-25.881977081298828,114.6709442138672
2525,-154.8730010986328,14.914721488952635,-18.506895065307614,119.30467987060548
2526,-158.47825622558594,15.210172653198242,-21.618492126464844,115.21322631835938
2527,-157.0384063720703,3.268672466278076,-22.033620834350586,121.758056640625
2528,-165.56910705566406,10.419361114501953,-17.95339012145996,124.48069763183594
2529,-158.73631286621094,10.004232406616213,-19.18381690979004,122.34521484375
2530,-162.5659637451172,15.68887996673584,-22.512327194213867,129.35752868652344
2531,-153.2498779296875,10.27724552154541,-32.00045394897461,131.1190185546875
2532,-158.6353302001953,6.092297077178955,-27.81176567077637,134.95989990234378
2533,-152.73377990722656,9.230072975158693,-24.34861946105957,133.15353393554688
2534,-148.40296936035156,12.83907699584961,-24.11300468444824,126.21227264404295
2535,-153.19378662109375,15.075536727905273,-25.57904624938965,132.59628295898438
2536,-150.09713745117188,16.06661033630371,-23.09201240539551,133.84915161132812
2537,-145.8748016357422,14.589349746704102,-25.02180099487305,121.0399932861328
2538,-146.02813720703125,8.280138969421388,-21.345478057861328,119.01296997070312
2539,-152.9880828857422,13.332743644714355,-21.704509735107425,116.06966400146484
2540,-147.4081573486328,6.660761833190918,-22.067279815673828,111.47706604003906
2541,-151.07699584960938,17.92534065246582,-23.25656700134277,105.01451873779295
2542,-151.78758239746094,13.538437843322756,-24.733827590942386,105.33615112304688
2543,-148.4927215576172,12.96249294281006,-26.293367385864254,113.33580017089844
2544,-153.91932678222656,18.620962142944336,-13.274774551391602,123.6878433227539
2545,-154.33445739746094,16.82954978942871,-13.042901039123535,132.14375305175778
2546,-153.466796875,8.440954208374022,-18.260061264038086,127.57360076904295
2547,-157.43482971191406,11.631089210510256,-23.694135665893555,136.39976501464844
2548,-154.99267578125,12.502485275268555,-22.59086608886719,139.80680847167972
2549,-151.5145721435547,7.94354772567749,-25.63514518737793,132.33448791503906
2550,-149.30429077148438,10.72229290008545,-23.85869216918945,126.52642822265624
2551,-147.80084228515625,10.187487602233887,-26.921669006347656,126.77326202392578
2552,-146.11041259765625,14.933420181274414,-22.160778045654297,128.99101257324222
2553,-143.35784912109375,1.9858869314193728,-19.31097412109375,122.47611236572266
2554,-151.58563232421875,0.6507425904273987,-22.45623016357422,118.99427032470705
2555,-150.57958984375,6.668241500854492,-22.70306205749512,123.05953979492188
2556,-146.65643310546875,4.8543901443481445,-14.718376159667967,123.7439422607422
2557,-148.9153289794922,7.363862991333008,-12.743709564208984,120.5164031982422
2558,-153.60891723632812,9.660161972045898,-18.768688201904297,115.32168579101562
2559,-168.69940185546875,12.203293800354006,-17.20541000366211,112.09789276123048
2560,-165.2960968017578,8.99071979522705,-19.052919387817386,111.9856948852539
2561,-162.6183319091797,18.50502586364746,-17.194190979003903,98.84368896484376
2562,-157.2403564453125,15.681400299072266,-19.438129425048828,104.58817291259766
2563,-148.2047576904297,16.466779708862305,-19.329673767089844,114.46898651123048
2564,-143.85899353027344,16.91556739807129,-19.251134872436523,126.3543930053711
2565,-141.18870544433594,6.709380626678468,-20.825632095336914,125.96917724609376
2566,-144.3376922607422,7.375082492828369,-23.406164169311523,129.49591064453122
2567,-151.57440185546875,3.6277029514312735,-28.45876884460449,131.60520935058594
2568,-154.9777069091797,4.454220771789551,-33.38795852661133,129.5108642578125
2569,-145.85983276367188,6.731820106506348,-26.67857551574707,130.01948547363278
2570,-144.44241333007812,3.612743377685547,-31.03556060791016,127.59230041503906
2571,-150.69178771972656,3.6838014125823975,-29.72659492492676,126.27584838867188
2572,-154.67103576660156,9.383408546447754,-30.84856414794922,127.5661163330078
2573,-155.88650512695312,10.16130828857422,-29.842531204223636,126.5600814819336
2574,-157.9210205078125,15.670181274414062,-31.742401123046875,122.9062042236328
2575,-162.18075561523438,9.5629243850708,-34.53610610961914,121.9001693725586
2576,-164.30502319335938,10.105209350585938,-35.60197830200195,121.74309539794922
2577,-169.9560089111328,10.393181800842283,-32.026634216308594,108.66466522216795
2578,-165.075439453125,14.394874572753904,-27.179723739624023,109.7567138671875
2579,-162.43133544921875,23.340715408325195,-24.10178565979004,109.88387298583984
2580,-158.10052490234375,19.26796531677246,-25.328472137451172,103.10717010498048
2581,-153.0853271484375,28.04924964904785,-24.14292335510254,103.27920532226562
2582,-164.6116943359375,15.64026165008545,-26.3681640625,109.47248077392578
2583,-159.25242614746094,19.76911163330078,-25.63888359069824,114.30443572998048
2584,-151.4734344482422,16.982885360717773,-24.718868255615234,114.34931182861328
2585,-155.8790283203125,16.706132888793945,-28.29047393798828,114.06134033203124
2586,-151.1630096435547,13.949827194213867,-31.40954971313477,116.65309143066406
2587,-151.97084045410156,15.213912963867188,-27.40411758422852,128.64320373535156
2588,-157.8013458251953,9.360969543457033,-32.617538452148445,130.45332336425778
2589,-154.38307189941406,11.466533660888672,-30.44465637207031,132.82441711425778
2590,-159.84332275390625,13.070950508117676,-28.85519790649414,134.86640930175778
2591,-163.81509399414062,13.478599548339846,-33.705848693847656,137.24124145507812
2592,-170.0831756591797,19.731712341308594,-31.72744178771973,132.76457214355472
2593,-170.05699157714844,24.26821136474609,-26.39060401916504,133.52003479003906
2594,-168.57972717285156,18.82291603088379,-29.850011825561523,119.49541473388672
2595,-167.3193817138672,19.06600952148437,-27.90900421142578,113.15628051757812
2596,-166.11888122558594,23.093881607055664,-26.719715118408203,114.08751678466795
2597,-172.85816955566406,26.10076141357422,-27.99502182006836,102.05252075195312
2598,-174.75430297851562,27.031997680664066,-31.170196533203125,91.50226593017578
2599,-159.80218505859375,23.63616752624512,-27.97258186340332,98.92596435546876
2600,-151.87733459472656,23.5277099609375,-29.184309005737305,97.80773162841795
2601,-155.84536743164062,21.75499725341797,-24.39723777770996,101.8094253540039
2602,-155.32553100585938,14.98577880859375,-31.09539794921875,105.75128173828124
2603,-150.4524383544922,18.755598068237305,-26.49158096313477,121.73187255859376
2604,-149.734375,13.70673370361328,-25.14147758483887,133.91647338867188
2605,-155.9987030029297,9.491866111755373,-28.12217712402344,128.80403137207028
2606,-155.56861877441406,10.322123527526855,-31.64516258239746,136.99440002441406
2607,-156.83270263671875,14.417314529418945,-28.944955825805664,138.19117736816406
2608,-163.9422607421875,12.5062255859375,-26.585079193115234,139.93771362304688
2609,-168.23565673828125,10.34082317352295,-31.948095321655273,141.82635498046875
2610,-162.89881896972656,17.502731323242188,-32.62127685546875,135.34510803222656
2611,-176.93466186523438,21.855976104736328,-33.96390151977539,128.19442749023438
2612,-164.46209716796875,19.825210571289066,-31.132797241210934,123.94963073730469
2613,-165.51861572265625,16.726701736450195,-28.045509338378906,119.041015625
2614,-163.61502075195312,24.55431365966797,-25.40888023376465,111.77812957763672
2615,-158.65216064453125,25.7697811126709,-28.520477294921875,100.99974060058594
2616,-160.30520629882812,21.304340362548828,-25.64075469970703,94.1295394897461
2617,-163.1363067626953,24.72260856628418,-27.96697235107422,84.28986358642578
2618,-158.3006134033203,21.278160095214844,-27.383546829223636,84.8919906616211
2619,-146.06739807128906,22.04483985900879,-25.20318603515625,96.41088104248048
2620,-152.81417846679688,25.42197036743164,-25.468719482421875,104.99768829345705
2621,-157.54515075683594,26.323286056518555,-20.939699172973636,113.57701873779295
2622,-157.96401977539062,17.80379295349121,-27.383546829223636,124.34793090820312
2623,-159.21688842773438,13.555267333984375,-28.509258270263672,140.66511535644528
2624,-159.37022399902344,15.256921768188475,-28.66259384155273,149.90640258789062
2625,-165.21568298339844,4.785202026367188,-32.959739685058594,142.24710083007812
2626,-164.3629913330078,14.879192352294922,-29.50781059265137,145.6990203857422
2627,-169.67738342285156,13.727302551269533,-34.541717529296875,144.9024200439453
2628,-169.59136962890625,8.00899600982666,-27.09931564331055,143.99737548828125
2629,-167.3661346435547,9.205763816833496,-28.63641357421875,137.63954162597656
2630,-167.79248046875,8.573720932006836,-27.42468643188477,132.16058349609378
2631,-166.29278564453125,10.664324760437012,-31.19076538085937,121.60284423828124
2632,-159.14208984375,18.260061264038086,-25.21066474914551,115.08794403076172
2633,-157.51898193359375,15.52619457244873,-27.592981338500977,104.7508544921875
2634,-163.1288299560547,21.644670486450195,-25.21440505981445,98.2209930419922
2635,-155.56674194335938,24.91708374023437,-23.198598861694336,99.12604522705078
2636,-154.80755615234375,19.617645263671875,-25.1882266998291,90.06053161621094
2637,-150.74227905273438,22.239315032958984,-29.62748718261719,81.40640258789062
2638,-145.38673400878906,30.95702171325684,-29.545209884643555,87.75301361083984
2639,-154.85243225097656,23.41738319396973,-30.38668632507324,90.45696258544922
2640,-149.4370574951172,23.503400802612305,-27.708919525146484,106.4487762451172
2641,-161.78245544433594,19.569026947021484,-25.47619819641113,115.51055145263672
2642,-160.03219604492188,18.656490325927734,-27.686479568481445,126.40861511230469
2643,-159.55722045898438,14.00031566619873,-26.964677810668945,142.1835174560547
2644,-158.895263671875,14.617399215698242,-27.02825736999512,144.3900604248047
2645,-163.02037048339844,15.57481288909912,-24.17097282409668,143.48500061035156
2646,-160.86244201660156,15.058707237243652,-22.259883880615234,139.90965270996094
2647,-160.2827606201172,3.7230703830718994,-30.880353927612305,137.26554870605472
2648,-155.2039794921875,15.855305671691895,-30.00147819519043,135.75462341308594
2649,-153.1171112060547,14.770734786987305,-26.59816932678223,127.29497528076172
2650,-154.58316040039062,9.183324813842773,-31.284263610839844,119.90867614746094
2651,-153.22183227539062,4.355113506317139,-34.03308868408203,117.7544937133789
2652,-147.33523559570312,11.804994583129885,-35.83572006225586,112.8776626586914
2653,-150.76470947265625,15.877745628356935,-33.79373550415039,100.0049285888672
2654,-149.2799835205078,19.87569808959961,-35.53279113769531,86.85169982910156
2655,-153.0946807861328,31.32353210449219,-33.04575729370117,88.51595306396484
2656,-147.24172973632812,25.02180099487305,-23.400554656982425,89.88101196289062
2657,-147.3988037109375,26.01661491394043,-25.09098815917969,84.615234375
2658,-150.81333923339844,23.26030731201172,-30.7344970703125,89.25645446777344
2659,-151.83433532714844,29.229188919067386,-20.67042732238769,107.39496612548828
2660,-154.6205596923828,13.18127727508545,-22.514198303222656,118.92881774902344
2661,-156.77847290039062,25.92311668395996,-23.292097091674805,122.62757873535156
2662,-159.04859924316406,18.424617767333984,-26.82256317138672,123.2147445678711
2663,-159.38143920898438,19.3259334564209,-33.07193374633789,128.28604125976562
2664,-158.9738006591797,18.484455108642575,-30.35302734375,131.98106384277344
2665,-164.25079345703125,13.510388374328613,-30.57368278503418,129.41923522949222
2666,-159.96861267089844,-0.6488726139068604,-28.340961456298828,135.74714660644528
2667,-154.740234375,4.583247184753418,-28.980484008789066,138.30897521972656
2668,-160.1630859375,23.60063934326172,-29.34699440002441,129.67355346679688
2669,-168.2711944580078,35.47481918334961,-29.08520126342773,118.34913635253906
2670,-163.2933807373047,27.5125732421875,-26.568248748779297,114.56061553955078
2671,-161.6440887451172,37.47566604614258,-24.197153091430664,116.52032470703124
2672,-165.22691345214844,40.16091537475586,-27.49948501586914,102.97814178466795
2673,-163.67111206054688,39.32317733764648,-28.56161689758301,97.11024475097656
2674,-163.5589141845703,49.18529510498047,-33.22901153564453,83.54188537597656
2675,-169.67738342285156,57.87682342529297,-31.13840675354004,87.0611343383789
2676,-165.98611450195312,51.41427612304688,-27.34988784790039,92.4615478515625
2677,-161.58798217773438,51.73590469360352,-20.849943161010746,89.90719604492188
2678,-164.8192596435547,48.33633804321289,-24.716999053955078,86.04761505126953
2679,-160.6417999267578,52.02761840820313,-19.391382217407227,94.72418975830078
2680,-163.19239807128906,50.18758773803711,-22.68623352050781,108.27384185791016
2681,-171.6221466064453,42.49461364746094,-25.483678817749023,110.6711196899414
2682,-170.4627685546875,41.00239181518555,-28.38957977294922,120.29014587402344
2683,-169.37071228027344,44.24114608764648,-31.33662223815918,132.78889465332028
2684,-170.8404998779297,31.417030334472656,-31.834028244018555,139.52070617675778
2685,-170.7170867919922,40.61344528198242,-33.42348480224609,139.31875610351562
2686,-170.49642944335938,28.96365547180176,-33.718936920166016,135.13754272460938
2687,-167.51199340820312,31.67508316040039,-36.123695373535156,136.09121704101562
2688,-162.41824340820312,32.34452438354492,-37.97868347167969,126.87984466552734
2689,-163.79078674316406,32.456722259521484,-37.219486236572266,113.8238525390625
2690,-164.9539031982422,31.15897560119629,-39.84489440917969,101.58689880371094
2691,-159.3590087890625,38.76967239379883,-33.962032318115234,100.55843353271484
2692,-164.97259521484375,38.79211044311523,-29.212358474731445,100.1919174194336
2693,-161.83856201171875,45.74832534790039,-31.284263610839844,90.00069427490234
2694,-167.94955444335938,38.94544982910156,-36.7258186340332,76.29396057128906
2695,-160.69041442871094,49.31245040893555,-33.247711181640625,82.01600646972656
2696,-173.40232849121094,47.47241973876953,-32.088340759277344,89.63043975830078
2697,-164.47145080566406,56.24248504638672,-24.817975997924805,93.85279083251952
2698,-164.12738037109375,43.29495239257813,-27.26012992858887,102.4208984375
2699,-169.68487548828125,46.27191162109375,-31.770450592041016,115.05054473876952
2700,-162.60897827148438,37.49810791015625,-29.305856704711914,131.05731201171878
2701,-163.78330993652344,41.1519889831543,-30.061315536499023,136.9813232421875
2702,-167.25767517089844,35.85629272460937,-30.016437530517575,139.26264953613278
2703,-166.2254638671875,24.894643783569336,-27.959491729736328,143.6271209716797
2704,-163.91419982910156,25.309772491455078,-28.752351760864254,143.81785583496094
2705,-164.68087768554688,21.674591064453125,-33.55438232421875,133.42092895507812
2706,-170.9713897705078,20.515220642089844,-36.74825668334961,125.26795196533205
2707,-169.905517578125,34.17333602905273,-31.55353546142578,127.90457916259766
2708,-165.6308135986328,25.242454528808594,-28.370880126953125,128.28230285644528
2709,-158.1996307373047,33.126163482666016,-30.820514678955078,110.67859649658205
2710,-165.01373291015625,35.216766357421875,-29.10764122009277,99.17840576171876
2711,-164.65097045898438,29.80887222290039,-26.96841812133789,102.82855224609376
2712,-161.16163635253906,32.841930389404304,-23.385595321655273,106.98731994628906
2713,-161.67774963378906,46.45890808105469,-19.922447204589844,107.14439392089844
2714,-170.01397705078125,41.94110870361328,-28.12778663635254,104.65361785888672
2715,-166.93231201171875,37.96559524536133,-27.518184661865234,112.0548858642578
2716,-160.2490997314453,33.63853073120117,-22.34964179992676,117.54505920410156
2717,-160.47723388671875,42.70404815673828,-16.429380416870114,120.79502868652344
2718,-149.6614532470703,42.098182678222656,-16.08905029296875,120.40982055664062
2719,-152.17465209960938,44.37578201293945,-17.768264770507812,126.76390838623048
2720,-155.0356903076172,35.49726104736328,-18.56486320495605,133.87345886230472
2721,-158.70452880859375,25.71742248535156,-21.949472427368164,130.55990600585938
2722,-159.04859924316406,26.63743782043457,-24.23455238342285,125.11087036132812
2723,-160.66796875,32.00045394897461,-24.23455238342285,129.83436584472656
2724,-156.4867706298828,30.63539123535156,-23.531450271606445,127.87840270996094
2725,-165.82904052734375,32.505340576171875,-19.440000534057614,122.5527801513672
2726,-161.38229370117188,26.663616180419922,-23.198598861694336,119.27662658691406
2727,-163.98526000976562,27.6472110748291,-31.542316436767575,121.89456176757812
2728,-169.56520080566406,31.016860961914066,-32.398754119873054,113.21051025390624
2729,-167.545654296875,36.66785049438477,-25.412620544433594,112.1969985961914
2730,-177.4152374267578,23.18177032470703,-33.59552001953125,106.1159210205078
2731,-167.4932861328125,29.76773452758789,-30.584901809692386,116.99903106689452
2732,-171.67076110839844,34.450088500976555,-31.508657455444336,109.83712005615234
2733,-156.40447998046875,31.8732967376709,-32.222976684570305,113.03473663330078
2734,-160.0434112548828,30.343677520751953,-28.56535530090332,117.73953247070312
2735,-161.6852264404297,32.94664764404297,-28.08664894104004,118.8016586303711
2736,-156.0043182373047,28.656984329223636,-20.64424705505371,128.34962463378906
2737,-160.18177795410156,30.945802688598636,-20.02716445922852,122.06659698486328
2738,-156.70367431640625,33.799346923828125,-23.890480041503906,127.06310272216795
2739,-155.99684143066406,24.550573348999023,-27.005817413330078,129.41923522949222
2740,-158.19215393066406,19.83455848693848,-24.44772529602051,133.12173461914062
2741,-160.03219604492188,20.41424369812012,-30.035137176513672,130.75064086914062
2742,-154.59437561035156,19.09031867980957,-23.94657897949219,125.9486083984375
2743,-157.64239501953125,17.766395568847656,-32.21175765991211,120.5220184326172
2744,-169.1089324951172,17.242809295654293,-38.872520446777344,120.0994110107422
2745,-173.63046264648438,18.895845413208008,-38.77902221679688,116.4717025756836
2746,-176.3643341064453,22.011180877685547,-41.86069869995117,114.68777465820312
2747,-166.4386444091797,20.668556213378906,-40.319862365722656,119.51972198486328
2748,-162.5304412841797,17.553220748901367,-42.5077018737793,109.33597564697266
2749,-157.47409057617188,28.06608009338379,-35.56644821166992,110.36071014404295
2750,-161.8983917236328,26.282146453857425,-34.50057601928711,103.9879150390625
2751,-161.10928344726562,30.33993911743164,-34.773590087890625,106.71430206298828
2752,-149.44827270507812,28.46250915527344,-27.955751419067386,110.56266021728516
2753,-150.8806610107422,34.408950805664055,-21.38848876953125,110.64119720458984
2754,-154.45973205566406,30.470834732055664,-20.943439483642575,111.94642639160156
2755,-151.66229248046875,29.93976974487305,-26.76272392272949,118.52864837646484
2756,-156.8944091796875,25.23123550415039,-23.254697799682614,119.63191986083984
2757,-155.4134063720703,32.800792694091804,-24.94513320922852,116.10145568847656
2758,-157.97898864746094,26.644916534423828,-30.005216598510746,114.8448486328125
2759,-157.67605590820312,22.26549530029297,-27.10305404663086,121.16153717041016
2760,-167.7139434814453,19.90935707092285,-25.16204643249512,121.44203186035156
2761,-165.2044677734375,26.110111236572266,-28.23624420166016,118.7231216430664
2762,-168.63021850585938,22.261754989624023,-32.387535095214844,118.60344696044922
2763,-164.79307556152344,20.3057861328125,-31.90882682800293,124.3591537475586
2764,-159.54600524902344,19.23617553710937,-29.05154228210449,123.536376953125
2765,-158.9364013671875,22.979814529418945,-27.69769859313965,115.44322967529295
2766,-151.2097625732422,20.90043067932129,-33.113075256347656,109.15646362304688
2767,-151.45286560058594,16.838899612426758,-31.748010635375977,111.30316162109376
2768,-147.6568603515625,14.587479591369627,-28.61397361755371,105.26322174072266
2769,-146.60220336914062,26.349464416503906,-24.17097282409668,108.03449249267578
2770,-156.12025451660156,22.946155548095703,-31.82280921936035,102.20024871826172
2771,-149.2650146484375,31.59654426574707,-22.36834144592285,116.65496063232422
2772,-152.86654663085938,23.297706604003906,-23.16119956970215,121.6252899169922
2773,-151.78944396972656,21.19588279724121,-22.71989250183105,123.5812530517578
2774,-152.56735229492188,24.195281982421875,-23.89422035217285,122.0478973388672
2775,-150.5440673828125,22.9648551940918,-21.49320411682129,133.01327514648438
2776,-158.3380126953125,15.514974594116213,-25.70433235168457,135.31332397460938
2777,-169.03787231445312,16.064741134643555,-26.643047332763672,130.84788513183594
2778,-167.35116577148438,19.46430969238281,-32.49972915649414,130.82917785644528
2779,-169.93170166015625,19.378292083740234,-30.801816940307614,133.40971374511722
2780,-162.1078338623047,25.41823005676269,-28.72991180419922,132.79263305664062
2781,-157.93411254882812,21.611011505126953,-23.71470642089844,124.69574737548828
2782,-156.5503387451172,17.115652084350586,-23.94283866882324,117.50391387939452
2783,-149.59039306640625,16.128318786621097,-27.23769187927246,118.37157440185548
2784,-144.96038818359375,22.7703800201416,-20.273998260498047,119.5010223388672
2785,-155.33486938476562,24.217721939086914,-18.34046936035156,109.51548767089844
2786,-149.36973571777344,17.893550872802734,-18.430227279663086,98.87173461914062
2787,-139.1298828125,24.232681274414066,-17.970218658447266,110.50282287597656
2788,-147.37637329101562,17.8000545501709,-17.03524398803711,109.04051971435548
2789,-141.0409698486328,22.370210647583008,-21.40718650817871,113.97344970703124
2790,-151.5164337158203,19.161376953125,-23.000385284423828,116.59138488769531
2791,-159.38143920898438,17.590620040893555,-25.756690979003906,128.33467102050778
2792,-158.98875427246094,21.19962310791016,-23.561368942260746,133.89590454101562
2793,-163.1363067626953,20.81441307067871,-23.22103881835937,132.0633544921875
2794,-167.93833923339844,17.923471450805664,-26.87866020202637,129.01533508300778
2795,-162.13027954101562,15.933843612670898,-27.368587493896484,140.07421875
2796,-165.87765502929688,16.154497146606445,-29.825702667236328,139.58055114746094
2797,-158.98501586914062,16.06100082397461,-26.654266357421875,133.96694946289062
2798,-159.76666259765625,9.763009071350098,-29.62374687194824,132.96466064453122
2799,-155.78366088867188,20.78075408935547,-31.905086517333984,128.1551513671875
2800,-151.3032684326172,20.253427505493164,-31.445077896118164,130.41404724121094
2801,-153.45370483398438,19.68496322631836,-24.35048866271973,122.7509994506836
2802,-152.0213165283203,13.1663179397583,-29.74716377258301,110.7496566772461
2803,-153.61825561523438,14.213489532470705,-29.66862678527832,105.60729217529295
2804,-144.1675262451172,20.05147361755371,-21.62784194946289,107.761474609375
2805,-148.11312866210938,30.85978507995605,-14.697806358337402,103.33717346191406
2806,-147.3165283203125,22.32533264160156,-16.908086776733402,105.61851501464844
2807,-140.69316101074222,20.33570671081543,-20.898561477661133,115.566650390625
2808,-144.8519287109375,25.94929504394531,-18.647140502929688,121.89081573486328
2809,-148.85362243652344,23.76145362854004,-18.056236267089844,127.70636749267578
2810,-158.40159606933594,21.81670570373535,-26.18303871154785,124.0001220703125
2811,-164.0151824951172,27.2956600189209,-27.64533996582031,127.48571014404295
2812,-161.61416625976562,25.840839385986328,-20.692867279052734,130.50007629394528
2813,-158.0949249267578,16.457429885864258,-23.991458892822266,134.09037780761722
2814,-162.18263244628906,15.87961483001709,-30.53067398071289,125.57836151123048
2815,-158.74940490722656,14.761384963989258,-32.19866943359375,131.56968688964844
2816,-158.70079040527344,11.047664642333984,-33.51885223388672,127.4744873046875
2817,-155.8696746826172,13.91242790222168,-34.00130081176758,120.72396850585938
2818,-155.40966796875,20.89108085632324,-38.31714630126953,107.27155303955078
2819,-152.5374298095703,15.516844749450685,-38.29096603393555,105.28565979003906
2820,-141.86375427246094,13.90120792388916,-30.35489845275879,101.49714660644531
2821,-146.5535888671875,16.608896255493164,-28.286733627319336,96.63153839111328
2822,-146.6358642578125,16.421899795532227,-23.963409423828125,101.74398040771484
2823,-145.46902465820312,15.479445457458494,-29.289026260375977,108.37482452392578
2824,-144.20867919921875,17.442893981933597,-23.611858367919922,116.92049407958984
2825,-144.3994140625,21.69515991210937,-20.081392288208008,122.82953643798828
2826,-150.5066680908203,26.61312866210937,-17.534521102905273,124.65086364746094
2827,-141.60943603515625,24.26821136474609,-10.529687881469727,133.82858276367188
2828,-151.4752960205078,16.713613510131836,-14.445363998413086,136.40536499023438
2829,-164.00770568847656,17.412973403930664,-18.92202377319336,134.46435546875
2830,-160.29397583007812,17.188579559326172,-15.174644470214846,137.32164001464844
2831,-160.6717071533203,12.5062255859375,-20.09635162353516,139.60671997070312
2832,-160.22293090820312,17.009065628051758,-23.9035701751709,134.59152221679688
2833,-153.1619873046875,5.953920841217041,-22.875097274780273,129.5576171875
2834,-154.00721740722656,10.752212524414062,-25.76230049133301,124.7443618774414
2835,-145.70089721679688,8.583070755004883,-29.348865509033203,130.156005859375
2836,-143.75241088867188,10.58765697479248,-24.632850646972656,124.98745727539062
2837,-148.16921997070312,11.167341232299805,-29.92854881286621,115.05054473876952
2838,-152.7393798828125,15.89083480834961,-23.5221004486084,113.87621307373048
2839,-141.8974151611328,6.915074825286865,-29.02349281311035,105.0276107788086
2840,-146.20578002929688,7.225486755371094,-27.07126617431641,101.48966217041016
2841,-150.43934631347656,7.584517002105713,-27.17224311828613,95.58436584472656
2842,-150.17007446289062,17.47281265258789,-26.82817268371582,98.95401000976562
2843,-149.8260040283203,11.806863784790039,-26.55889892578125,110.2634735107422
2844,-150.25608825683594,21.538084030151367,-17.168010711669922,122.56026458740234
2845,-152.440185546875,19.484878540039066,-18.174043655395508,123.8168716430664
2846,-160.05462646484375,26.89735984802246,-19.18381690979004,126.5282974243164
2847,-155.63780212402344,26.97589874267578,-16.46864891052246,137.95742797851562
2848,-153.8389129638672,20.094482421875,-17.429803848266598,142.58367919921875
2849,-160.57821655273438,24.93017387390137,-14.70715618133545,138.795166015625
2850,-160.00975036621094,15.6253023147583,-22.03736114501953,136.59983825683594
2851,-152.275634765625,17.457853317260742,-19.93927574157715,141.32333374023438
2852,-160.22293090820312,12.420207977294922,-19.011781692504886,136.92147827148438
2853,-159.5272979736328,18.49754524230957,-18.13664436340332,125.97479248046876
2854,-154.35128784179688,13.631935119628904,-28.967395782470703,123.0763702392578
2855,-148.48712158203125,21.941993713378906,-27.66217041015625,119.88997650146484
2856,-156.20626831054688,6.791658401489258,-33.062583923339844,113.19554901123048
2857,-149.7437286376953,16.691173553466793,-35.4822998046875,108.02700805664062
2858,-146.03749084472656,24.324308395385746,-29.2142276763916,100.57713317871094
2859,-148.40484619140625,20.78636360168457,-32.00045394897461,103.86824035644531
2860,-143.2886505126953,15.075536727905273,-33.354297637939446,101.99081420898438
2861,-147.02481079101562,22.50297737121582,-31.25247383117676,101.44852447509766
2862,-153.09841918945312,22.637615203857425,-30.41099739074707,104.2646713256836
2863,-151.66976928710938,14.74642562866211,-35.09334945678711,106.20568084716795
2864,-148.9807891845703,26.889881134033203,-24.748788833618164,109.43695068359376
2865,-153.82022094726562,34.235042572021484,-21.495075225830078,118.50621032714844
2866,-157.09262084960938,26.422393798828125,-25.62766456604004,115.38713073730469
2867,-155.75747680664062,23.17989921569824,-25.30603218078613,123.09880828857422
2868,-158.554931640625,18.699499130249023,-24.00080871582031,129.39680480957028
2869,-152.6608428955078,29.87432098388672,-24.15414428710937,122.23114776611328
2870,-158.3529815673828,16.650033950805664,-29.03845405578613,120.6080322265625
2871,-146.3778076171875,22.469318389892575,-21.992481231689453,134.93559265136722
2872,-160.21917724609375,11.43661403656006,-25.410749435424805,127.58668518066406
2873,-152.60101318359375,11.530111312866213,-26.39060401916504,119.57582092285156
2874,-152.80296325683594,12.098576545715332,-32.66241455078125,111.52008056640624
2875,-151.85302734375,12.883955001831055,-29.40496253967285,115.9518585205078
2876,-150.0279541015625,6.533605098724365,-36.376136779785156,108.4047393798828
2877,-156.23992919921875,10.39692211151123,-31.11783790588379,100.21435546875
2878,-155.95944213867188,12.547364234924315,-33.799346923828125,95.32257080078124
2879,-149.1827392578125,14.230319023132324,-35.4000244140625,99.23450469970705
2880,-138.5838623046875,19.25300407409668,-26.37564468383789,110.27468872070312
2881,-138.58012390136722,15.468226432800293,-23.701616287231445,111.07502746582031
2882,-145.5325927734375,14.593090057373047,-24.67399024963379,109.8633041381836
2883,-145.52511596679688,12.62590217590332,-26.562639236450195,118.1546630859375
2884,-144.58639526367188,16.679954528808597,-22.34029197692871,122.52286529541016
2885,-146.9799346923828,20.49839210510254,-23.31266593933105,124.23199462890624
2886,-150.5814666748047,22.028011322021484,-24.05690574645996,125.9448699951172
2887,-147.81393432617188,21.960693359375,-26.46540260314941,129.17988586425778
2888,-145.0239715576172,8.384855270385742,-27.70704841613769,133.85101318359378
2889,-152.0699462890625,8.766325950622559,-28.8215389251709,128.79841613769528
2890,-155.09925842285156,8.325016975402832,-34.046180725097656,124.70696258544922
2891,-161.3860321044922,9.342269897460938,-31.39833068847656,128.22247314453122
2892,-158.64842224121094,11.806863784790039,-31.877037048339844,123.09880828857422
2893,-168.64517211914062,24.73195838928223,-30.407257080078125,114.040771484375
2894,-169.92796325683594,14.245279312133787,-36.376136779785156,102.70886993408205
2895,-163.1737060546875,23.47161293029785,-35.06717300415039,111.32933807373048
2896,-165.05113220214844,15.984332084655762,-33.85918426513672,108.89840698242188
2897,-155.6714630126953,24.0737361907959,-30.272619247436523,108.21026611328124
2898,-158.0949249267578,19.454959869384766,-31.86581802368164,102.93700408935548
2899,-148.53199768066406,19.33902359008789,-34.15089797973633,111.1947021484375
2900,-139.79559326171878,11.073843955993652,-29.606918334960934,116.18746948242188
2901,-140.21072387695312,16.268564224243164,-29.292766571044922,116.34455108642578
2902,-142.0731964111328,15.150334358215332,-22.99103546142578,117.51139831542969
2903,-140.33039855957028,20.988319396972656,-22.033620834350586,123.81312561035156
2904,-141.65057373046875,21.145395278930664,-22.953636169433594,128.20002746582028
2905,-147.5184783935547,15.05309772491455,-19.617645263671875,133.11799621582028
2906,-151.49400329589844,14.436014175415039,-29.22170829772949,131.0423583984375
2907,-144.91177368164062,16.78093147277832,-25.519207000732425,132.92352294921878
2908,-154.11192321777344,14.694067001342773,-27.22460174560547,130.50381469726562
2909,-160.46975708007812,22.9293270111084,-17.12687110900879,122.7734375
2910,-161.5206756591797,23.70722579956055,-22.99103546142578,121.12787628173828
2911,-166.34140014648438,22.15142822265625,-20.047733306884766,121.58040618896484
2912,-166.85751342773438,25.45001983642578,-20.070173263549805,112.6607437133789
2913,-166.45733642578125,23.022823333740234,-17.24654769897461,102.59293365478516
2914,-167.39231872558594,22.56655693054199,-18.417137145996094,99.03255462646484
2915,-161.28878784179688,16.691173553466793,-26.13629150390625,101.48218536376952
2916,-158.9364013671875,14.361215591430664,-34.81285858154297,101.2727508544922
2917,-148.79005432128906,23.879261016845703,-31.52548599243164,96.6764144897461
2918,-152.956298828125,21.55304336547852,-25.691242218017575,94.0061264038086
2919,-145.52511596679688,10.94668674468994,-31.82841873168945,105.59233856201172
2920,-140.15461730957028,19.14080810546875,-27.441516876220703,119.38134765625
2921,-147.81393432617188,11.122462272644043,-33.608612060546875,119.63191986083984
2922,-142.7762908935547,11.395475387573242,-30.70644950866699,125.81023406982422
2923,-141.81887817382812,13.990965843200685,-31.18889617919922,130.30934143066406
2924,-146.69944763183594,6.88515567779541,-32.41184234619141,134.898193359375
2925,-151.2583770751953,21.538084030151367,-18.7799072265625,140.65016174316406
2926,-149.8072967529297,12.453866958618164,-29.49472045898437,131.91375732421878
2927,-145.7532501220703,12.70069980621338,-23.907310485839844,132.59815979003906
2928,-146.44139099121094,12.308011054992676,-21.895244598388672,129.89794921875
2929,-153.5471954345703,15.471965789794922,-20.541400909423828,114.37361907958984
2930,-159.57217407226562,22.11028861999512,-13.61884593963623,106.98731994628906
2931,-160.06210327148438,29.33577537536621,-16.244255065917972,106.48242950439452
2932,-170.5450439453125,28.853328704833984,-13.304694175720215,96.68389129638672
2933,-176.0576629638672,37.41395950317383,-15.324239730834961,91.53778839111328
2934,-173.8585968017578,31.21694564819336,-16.580846786499027,93.53863525390624
2935,-172.47109985351562,32.66428756713867,-15.851566314697266,102.18154907226562
2936,-164.31063842773438,24.69455909729004,-18.96316337585449,107.2752914428711
2937,-153.9286651611328,26.78890419006348,-14.19478988647461,103.08660125732422
2938,-154.20542907714844,18.860315322875977,-25.934335708618164,103.36709594726562
2939,-153.8800506591797,14.518291473388672,-28.96365547180176,114.6466293334961
2940,-152.02880859375,11.204740524291992,-28.46250915527344,125.226806640625
2941,-152.9114227294922,10.052850723266602,-29.44984245300293,126.93968200683594
2942,-148.86111450195312,10.198707580566406,-30.42969512939453,136.90277099609378
2943,-150.16259765625,7.498499393463135,-29.453582763671875,142.26205444335938
2944,-154.1867218017578,14.536991119384766,-29.67049598693848,146.23756408691406
2945,-147.22303771972656,13.332743644714355,-28.73178100585937,137.20570373535156
2946,-142.37237548828125,14.914721488952635,-28.09973907470703,135.238525390625
2947,-148.5469512939453,8.67282772064209,-21.094905853271484,135.15998840332028
2948,-147.30905151367188,7.1918277740478525,-23.49966049194336,128.69369506835938
2949,-149.7250213623047,20.36375617980957,-14.235929489135742,119.64688110351562
2950,-147.4960479736328,14.67536735534668,-17.369964599609375,104.369384765625
2951,-148.47589111328125,25.666933059692386,-22.45623016357422,98.5463638305664
2952,-152.07742309570312,23.22477912902832,-18.42087745666504,89.30880737304688
2953,-167.60548400878906,27.30875015258789,-22.98729515075684,76.43981170654297
2954,-161.71141052246094,29.919198989868164,-20.24220848083496,86.83300018310547
2955,-164.41909790039062,28.617713928222656,-24.980661392211914,95.77135467529295
2956,-157.39181518554688,22.428180694580078,-25.511728286743164,108.54685974121094
2957,-159.89007568359375,22.81712913513184,-29.59195899963379,116.00421905517578
2958,-162.51922607421875,17.48777198791504,-33.040145874023445,125.93365478515624
2959,-152.90768432617188,16.100269317626953,-34.334152221679695,131.03861999511722
2960,-154.88609313964844,11.186040878295898,-37.34477233886719,136.8466796875
2961,-150.4617919921875,2.314998149871826,-39.41667556762695,140.60153198242188
2962,-151.06016540527344,2.0307657718658447,-40.50872802734375,136.36796569824222
2963,-154.1979522705078,6.189534664154053,-34.524887084960945,144.87625122070312
2964,-148.57687377929688,17.255897521972653,-30.12302398681641,141.70106506347656
2965,-146.6096954345703,9.993012428283693,-33.05510711669922,132.02969360351562
2966,-149.42208862304688,15.632781982421875,-29.77521324157715,126.30390167236328
2967,-153.1358184814453,12.278091430664062,-28.74300193786621,117.9788818359375
2968,-143.86085510253906,17.506471633911133,-23.1406307220459,110.62249755859376
2969,-142.2714080810547,26.3737735748291,-24.96196174621582,99.80297088623048
2970,-144.59762573242188,22.77225112915039,-27.056306838989254,96.35104370117188
2971,-150.35333251953125,19.398860931396484,-31.03929901123047,90.5915985107422
2972,-145.56251525878906,32.81388092041016,-25.14147758483887,89.06198120117188
2973,-147.6194610595703,38.2703971862793,-18.951942443847656,88.16439819335938
2974,-158.4352569580078,26.646787643432614,-20.4815616607666,87.9661865234375
2975,-162.08538818359375,28.464378356933594,-19.73732185363769,112.41390991210938
2976,-157.11880493164062,22.933067321777344,-19.06414031982422,129.4229736328125
2977,-164.03762817382812,14.73520565032959,-20.11505126953125,138.05841064453122
2978,-155.51812744140625,11.784424781799315,-25.773521423339844,141.65992736816406
2979,-148.5993194580078,11.477752685546875,-28.37649154663086,148.971435546875
2980,-153.28541564941406,0.28423240780830383,-33.941463470458984,142.43409729003906
2981,-152.1970977783203,7.131989002227782,-32.57639694213867,143.43264770507812
2982,-154.96463012695312,14.787564277648926,-31.289873123168945,144.3152618408203
2983,-150.7048797607422,1.9671874046325684,-32.711036682128906,140.90072631835938
2984,-144.97535705566406,5.905302047729492,-31.813459396362305,139.66282653808594
2985,-143.0418243408203,4.708534240722656,-31.57036590576172,121.6065902709961
2986,-141.62066650390625,2.3299577236175537,-33.81056594848633,122.50790405273438
2987,-150.21868896484375,3.9044556617736816,-37.29989242553711,118.62962341308594
2988,-143.9207000732422,7.685494422912598,-28.398929595947266,116.90179443359376
2989,-157.84808349609375,15.270011901855467,-32.22110748291016,102.33488464355469
2990,-154.44851684570312,8.115582466125487,-37.79356002807617,98.31822967529295
2991,-152.5299530029297,18.770557403564453,-35.28782653808594,102.28626251220705
2992,-147.7802734375,21.134174346923828,-34.749279022216804,101.42608642578124
2993,-148.44972229003906,23.74088478088379,-32.520301818847656,95.88729858398438
2994,-156.6849822998047,24.0849552154541,-28.032419204711914,102.20024871826172
2995,-149.4370574951172,25.41636085510254,-25.560346603393555,115.9294204711914
2996,-157.00660705566406,13.635675430297852,-29.113250732421875,126.89480590820312
2997,-146.88270568847656,15.662700653076172,-25.70246315002441,127.66522216796876
2998,-155.69764709472656,17.255897521972653,-27.007686614990234,131.8875732421875
2999,-151.88294982910156,14.910981178283693,-33.91154098510742,135.82942199707028
3000,-147.09213256835938,8.268918991088867,-31.656383514404297,136.05381774902344
3001,-146.6807403564453,12.595983505249025,-30.1716423034668,136.04634094238278
3002,-152.64962768554688,8.646648406982424,-32.688594818115234,129.41175842285156
3003,-150.48048400878906,8.224040031433105,-38.851951599121094,126.9658660888672
3004,-155.44332885742188,17.28207778930664,-37.95437622070313,127.8933563232422
3005,-157.13751220703125,12.880215644836426,-40.763038635253906,122.19749450683594
3006,-149.66893005371094,5.785625457763673,-42.94713973999024,108.55433654785156
3007,-148.26272583007812,10.916768074035645,-38.0815315246582,110.0054168701172
3008,-145.4540557861328,13.897468566894533,-36.795005798339844,101.03339385986328
3009,-150.71609497070312,6.522385597229004,-39.83554458618164,95.81997680664062
3010,-148.74142456054688,6.499946117401122,-38.25356674194336,101.87113189697266
3011,-146.4750518798828,10.935467720031738,-38.03665161132813,105.22582244873048
3012,-146.0524444580078,15.198953628540039,-31.353450775146484,115.94063568115234
3013,-147.21180725097656,18.54616355895996,-25.190095901489254,119.05597686767578
3014,-150.3645477294922,16.014251708984375,-26.98898887634277,121.31861114501952
3015,-145.7925262451172,18.925764083862305,-23.48844146728516,131.63325500488278
3016,-151.79132080078125,14.067633628845215,-24.01950836181641,134.38581848144528
3017,-157.19921875,11.595560073852539,-21.46515655517578,136.17723083496094
3018,-160.98773193359375,10.4287109375,-33.83300399780273,134.15768432617188
3019,-159.29730224609375,10.784001350402832,-35.15319061279297,136.10243225097656
3020,-152.2662811279297,13.323393821716307,-31.25995445251465,140.93438720703125
3021,-161.11863708496094,15.974982261657715,-32.59509658813477,125.81023406982422
3022,-156.46620178222656,11.019615173339844,-24.11674499511719,125.13331604003906
3023,-163.7627410888672,14.415444374084473,-35.310264587402344,122.23489379882812
3024,-154.6112060546875,12.616552352905273,-33.05884552001953,123.12124633789062
3025,-159.40576171875,21.0687255859375,-31.40954971313477,115.52176666259766
3026,-151.06578063964844,13.734782218933105,-32.95412826538086,109.72118377685548
3027,-145.38861083984375,21.596052169799805,-31.96679496765137,108.49449920654295
3028,-144.66307067871094,16.334012985229492,-26.027833938598636,104.08141326904295
3029,-147.16880798339844,13.49916934967041,-23.772674560546875,101.88235473632812
3030,-148.5039520263672,16.550928115844727,-26.46914100646973,104.06271362304688
3031,-153.91184997558594,16.356452941894528,-27.6472110748291,120.1854248046875
3032,-152.33734130859375,17.164270401000973,-35.61693572998047,119.66931915283205
3033,-151.3013916015625,10.039761543273926,-29.51716041564941,125.60079956054688
3034,-159.46559143066406,18.43209648132324,-26.9141902923584,136.37545776367188
3035,-163.02223205566406,18.084285736083984,-27.134843826293945,140.825927734375
3036,-161.53001403808594,18.903324127197266,-29.30772590637207,138.36508178710938
3037,-159.32347106933594,14.853013038635256,-26.76459312438965,134.44940185546878
3038,-164.66030883789062,10.50350856781006,-25.88945770263672,133.27507019042972
3039,-161.20838928222656,15.627171516418455,-34.27805328369141,128.81336975097656
3040,-159.98544311523438,26.1923885345459,-31.04303932189941,120.06948852539062
3041,-155.4564208984375,26.74589538574219,-28.94121551513672,110.94786834716795
3042,-154.96649169921875,23.57071876525879,-21.955081939697266,104.63117980957031
3043,-147.8719024658203,22.082239151000977,-26.1923885345459,101.77389526367188
3044,-139.64785766601562,25.287334442138672,-23.26778793334961,108.80864715576172
3045,-153.23866271972656,19.27357482910156,-21.794267654418945,101.04087829589844
3046,-144.46859741210938,15.481315612792967,-25.12277793884277,100.16200256347656
3047,-145.2764129638672,18.14412498474121,-31.17393684387207,109.6089859008789
3048,-148.51516723632812,9.250642776489258,-36.70898818969727,107.81009674072266
3049,-147.41937255859375,13.49168872833252,-33.653488159179695,110.19989013671876
3050,-152.1840057373047,2.1261332035064697,-41.481101989746094,112.44757080078124
3051,-154.6486053466797,7.9379377365112305,-32.0902099609375,125.32405090332031
3052,-153.15264892578125,6.101646900177003,-31.15897560119629,132.68417358398438
3053,-158.23890686035156,7.59386682510376,-31.742401123046875,132.8973388671875
3054,-161.08123779296875,14.232189178466795,-27.11614418029785,132.21669006347656
3055,-150.00364685058594,14.546340942382812,-28.58966445922852,132.41864013671878
3056,-153.384521484375,12.818507194519045,-27.64347076416016,124.50501251220705
3057,-151.83619689941406,15.765548706054688,-24.60293197631836,110.813232421875
3058,-151.15179443359375,9.658291816711426,-33.29071807861328,98.33692932128906
3059,-142.9053192138672,13.78714084625244,-29.72659492492676,101.73275756835938
3060,-140.5379638671875,11.999468803405762,-25.88945770263672,100.3302993774414
3061,-143.57101440429688,17.104433059692386,-22.03736114501953,100.43875122070312
3062,-143.63833618164062,16.203117370605472,-24.96196174621582,106.4712142944336
3063,-149.3491668701172,9.47503662109375,-34.28179168701172,108.76750946044922
3064,-150.14202880859375,17.115652084350586,-24.662769317626953,117.69091033935548
3065,-150.8002471923828,8.158592224121094,-26.92914962768555,118.88394165039062
3066,-155.98001098632812,6.284902095794678,-35.09334945678711,112.85147857666016
3067,-152.9918212890625,7.4779300689697275,-33.59739303588867,127.58294677734376
3068,-153.75851440429688,7.597606658935548,-31.091657638549805,125.98226928710938
3069,-158.8111114501953,5.596760272979736,-33.556251525878906,128.15141296386722
3070,-157.79385375976562,11.374905586242676,-32.999008178710945,126.6479721069336
3071,-151.002197265625,9.149664878845217,-32.67737579345703,133.00579833984378
3072,-153.032958984375,6.1203460693359375,-29.913589477539066,130.42152404785156
3073,-145.5830841064453,14.138691902160645,-22.239315032958984,128.0205078125
3074,-142.84921264648438,13.143877983093262,-23.447301864624023,118.75678253173828
3075,-150.05975341796875,10.611966133117676,-28.443809509277344,115.49185180664062
3076,-143.74679565429688,15.283101081848145,-27.06004524230957,109.54914855957031
3077,-146.9444122314453,24.80862617492676,-20.99018859863281,102.50318145751952
3078,-143.51866149902344,15.241962432861328,-29.382524490356445,91.8631591796875
3079,-144.75656127929688,20.747095108032227,-27.70330810546875,101.2129135131836
3080,-144.67054748535156,19.65130424499512,-25.93807601928711,100.32655334472656
3081,-146.27122497558594,21.659629821777344,-21.035066604614254,101.4560089111328
3082,-164.60047912597656,24.84976577758789,-28.40641021728516,100.95860290527344
3083,-154.2334747314453,17.366226196289062,-28.51486778259277,115.87705993652344
3084,-153.19752502441406,16.479869842529293,-24.535614013671875,124.7817611694336
3085,-162.42759704589844,21.371658325195312,-28.51486778259277,125.57088470458984
3086,-166.9865264892578,20.81441307067871,-25.96051597595215,127.95319366455078
3087,-167.7494659423828,12.429557800292967,-33.85544586181641,130.6085205078125
3088,-162.199462890625,21.158483505249023,-32.67363739013672,133.6715087890625
3089,-155.01510620117188,17.8000545501709,-24.61041259765625,136.764404296875
3090,-160.27340698242188,11.733936309814453,-25.156436920166016,132.83003234863278
3091,-152.55052185058594,12.829727172851562,-23.907310485839844,139.10931396484378
3092,-157.33758544921875,15.26440143585205,-27.06004524230957,133.44337463378906
3093,-148.7993927001953,24.15788459777832,-19.815860748291016,128.05416870117188
3094,-146.31236267089844,22.246795654296875,-17.2540283203125,113.5994644165039
3095,-136.5474853515625,25.91563606262207,-17.628019332885742,108.55433654785156
3096,-141.24853515625,31.162715911865234,-22.011180877685547,97.49545288085938
3097,-144.53965759277344,48.28397750854492,-15.630911827087402,92.33812713623048
3098,-144.66307067871094,31.54044532775879,-19.89065742492676,93.10106658935548
3099,-138.89241027832028,27.800546646118164,-20.42546272277832,106.6133270263672
3100,-149.0537109375,43.65024185180664,-14.849272727966307,109.5641098022461
3101,-150.25048828125,42.3188362121582,-16.472389221191403,111.03762817382812
3102,-146.18894958496094,38.23112869262695,-18.83226585388184,109.87451934814452
3103,-150.56463623046875,45.61368942260742,-22.085979461669922,115.6264877319336
3104,-153.14141845703125,37.72624206542969,-26.80573272705078,119.63191986083984
3105,-150.2916259765625,30.055706024169922,-29.76025390625,114.0183334350586
3106,-157.16929626464844,27.83420562744141,-32.639976501464844,121.28121185302734
3107,-151.95587158203125,21.558652877807614,-36.32751846313477,121.17649841308594
3108,-150.31031799316406,26.18116950988769,-31.64890289306641,129.15744018554688
3109,-153.73233032226562,23.402423858642575,-33.559993743896484,127.3323745727539
3110,-154.79820251464844,18.32737922668457,-38.9043083190918,116.49788665771484
3111,-154.84307861328125,11.700277328491213,-34.562286376953125,110.5290069580078
3112,-156.19317626953125,21.046287536621094,-36.75012588500977,103.5690460205078
3113,-158.27630615234375,16.838899612426758,-27.03386688232422,99.14474487304688
3114,-151.71278381347656,13.603885650634766,-29.049673080444336,94.07718658447266
3115,-155.9613037109375,29.09829139709473,-28.17453575134277,96.15282440185548
3116,-158.6054229736328,18.00200843811035,-26.84313201904297,102.09178924560548
3117,-155.52374267578125,24.48325538635254,-21.895244598388672,99.63467407226562
3118,-158.62411499023438,24.584232330322266,-21.98126220703125,104.2422332763672
3119,-153.32093811035156,18.9444637298584,-20.29830741882324,115.80599975585938
3120,-154.79820251464844,13.36827278137207,-20.986448287963867,112.58969116210938
3121,-163.56826782226562,12.223862648010256,-26.1213321685791,121.26251983642578
3122,-148.5076904296875,14.77821445465088,-28.22689437866211,121.1091766357422
3123,-147.00050354003906,0.6974913477897644,-35.8114128112793,125.7840576171875
3124,-152.1428680419922,-2.1111736297607417,-34.09105682373047,127.25383758544922
3125,-145.12307739257812,8.506402015686035,-28.952436447143555,131.06105041503906
3126,-152.3597869873047,-8.405425071716309,-37.50184631347656,124.7443618774414
3127,-154.21102905273438,2.421585321426392,-36.15548324584961,131.87635803222656
3128,-151.7389678955078,-3.0947673320770264,-40.28433227539063,122.99034881591795
3129,-147.6587371826172,1.2809157371520996,-38.96040725708008,118.782958984375
3130,-158.2650909423828,3.382739543914795,-39.196022033691406,109.67256927490234
3131,-155.50503540039062,1.1088802814483645,-39.005287170410156,104.2272720336914
3132,-144.72665405273438,3.872666358947754,-33.444053649902344,103.34839630126952
3133,-152.2326202392578,7.657444953918457,-30.137983322143555,98.33692932128906
3134,-153.84078979492188,8.304448127746582,-27.57241249084473,99.3317413330078
3135,-145.18666076660156,13.342093467712402,-22.613304138183594,113.70791625976562
3136,-150.5945587158203,12.825986862182615,-25.029279708862305,114.12678527832031
3137,-147.4829559326172,15.66831111907959,-23.772674560546875,115.44322967529295
3138,-147.25108337402344,9.134705543518066,-23.084531784057614,127.47823333740234
3139,-144.8201446533203,-2.369226694107056,-28.825279235839844,127.78490447998048
3140,-143.39151000976562,-0.6900115609169006,-28.125917434692386,130.57861328125
3141,-143.92257690429688,5.8473334312438965,-22.317853927612305,124.81168365478516
3142,-144.5134735107422,-1.4529510736465454,-33.156082153320305,118.04246520996094
3143,-147.71482849121094,4.302754878997804,-31.764841079711914,126.4684600830078
3144,-143.6345977783203,-4.426171779632568,-31.15149688720703,125.84015655517578
3145,-135.81446838378906,-3.652012348175049,-28.57844543457031,127.60538482666016
3146,-147.00424194335938,-4.673005104064941,-36.68655014038086,120.19664764404295
3147,-151.91099548339844,11.838653564453125,-36.89972305297852,117.8741683959961
3148,-153.66500854492188,1.034082293510437,-36.06572341918945,110.75713348388672
3149,-147.04164123535156,8.644779205322267,-29.161869049072266,103.35213470458984
3150,-148.96395874023438,9.59471321105957,-30.82238578796387,98.63238525390624
3151,-158.82232666015625,10.391311645507812,-32.33704376220703,106.04486083984376
3152,-150.4187774658203,5.80619478225708,-29.23666763305664,113.74905395507812
3153,-154.4765625,12.624032020568848,-34.046180725097656,108.8834457397461
3154,-156.61578369140625,5.836113929748535,-30.35863876342773,120.67909240722656
3155,-146.36846923828125,1.561408281326294,-27.131103515625,125.03233337402344
3156,-143.7991485595703,3.0498883724212646,-26.14751052856445,130.52998352050778
3157,-147.0640869140625,12.373458862304688,-21.12108421325684,131.22186279296878
3158,-142.62857055664062,2.975090503692627,-20.791973114013672,131.3714599609375
3159,-149.16964721679688,3.4201385974884038,-28.204456329345703,129.88298034667972
3160,-149.07241821289062,0.5366756319999695,-27.441516876220703,131.57716369628906
3161,-150.97976684570312,6.026848793029785,-28.09599876403809,127.60164642333984
3162,-151.8137664794922,-0.8321277499198914,-31.00564002990723,121.31861114501952
3163,-152.33360290527344,4.1606388092041025,-26.394344329833984,126.6891098022461
3164,-154.25592041015625,9.41519832611084,-25.33221244812012,119.22427368164062
3165,-158.5119171142578,14.561300277709961,-23.75023460388184,106.41885375976562
3166,-163.03346252441406,21.633451461791992,-21.214582443237305,100.99225616455078
3167,-165.5391845703125,10.10707950592041,-31.671342849731445,104.74337768554688
3168,-158.23143005371094,12.048088073730467,-27.665910720825195,111.01892852783205
3169,-156.5970916748047,7.612566471099853,-28.159576416015625,113.04595947265624
3170,-157.38621520996094,11.300107955932615,-32.88681030273437,113.63311767578124
3171,-148.3319091796875,12.448257446289062,-31.52548599243164,118.78670501708984
3172,-149.32298278808594,5.922131538391112,-32.879329681396484,117.90782928466795
3173,-146.61903381347656,8.244609832763674,-26.85809135437012,116.91675567626952
3174,-154.32696533203125,0.5404155254364014,-35.029773712158196,117.52635955810548
3175,-148.89663696289062,0.8209080696105957,-32.355743408203125,131.85391235351562
3176,-144.70046997070312,8.876652717590332,-25.33221244812012,135.51153564453122
3177,-142.29197692871094,7.563947677612305,-24.65903091430664,130.7843017578125
3178,-152.1615753173828,7.990296363830566,-28.49242782592773,127.48197174072266
3179,-152.37474060058594,-2.3916659355163574,-29.67797660827637,129.76704406738278
3180,-152.9955596923828,9.52365493774414,-28.039899826049805,125.49982452392578
3181,-150.9760284423828,11.868572235107422,-20.586278915405273,115.76112365722656
3182,-153.6837158203125,10.712943077087402,-22.3889102935791,98.606201171875
3183,-155.68081665039062,4.811381340026856,-25.997915267944336,99.49629974365234
3184,-156.41383361816406,11.195390701293944,-28.286733627319336,102.14041137695312
3185,-160.09390258789062,18.3984375,-27.624771118164066,102.58545684814452
3186,-163.69168090820312,14.838052749633787,-29.042192459106445,108.23270416259766
3187,-152.5318145751953,8.697136878967285,-32.36696243286133,115.31607818603516
3188,-152.9918212890625,12.451996803283693,-31.192636489868164,119.1644287109375
3189,-158.5941925048828,14.116251945495605,-29.087072372436523,114.8224105834961
3190,-151.6865997314453,10.649365425109863,-37.50184631347656,112.79912567138672
3191,-145.98326110839844,4.897398948669434,-38.71357345581055,122.42936706542969
3192,-148.65354919433594,4.661785125732422,-33.18600082397461,123.64857482910156
3193,-153.98289489746094,5.907172203063965,-38.38072204589844,126.19544219970705
3194,-149.48753356933594,6.812227725982666,-37.14655685424805,123.01653289794922
3195,-145.94212341308594,12.590373039245605,-36.795005798339844,129.57630920410156
3196,-150.56837463378906,5.656598567962647,-36.00962829589844,124.58728790283205
3197,-152.7075958251953,12.444517135620115,-28.2755126953125,127.2313995361328
3198,-150.2803955078125,11.595560073852539,-30.73636817932129,124.4189910888672
3199,-155.05625915527344,13.974136352539062,-34.367809295654304,116.24730682373048
3200,-155.7593536376953,15.578553199768065,-27.08248519897461,109.11906433105469
3201,-162.7604522705078,15.507494926452635,-20.032773971557614,107.35382843017578
3202,-159.31973266601562,15.956283569335938,-28.11469841003418,102.83229064941406
3203,-158.90460205078125,14.19105052947998,-29.3787841796875,108.1392059326172
3204,-156.3053741455078,10.215537071228027,-23.510881423950195,120.23030090332031
3205,-151.67538452148438,11.468402862548828,-31.607765197753906,121.72252655029295
3206,-154.02403259277344,22.74420166015625,-33.40665817260742,121.89081573486328
3207,-153.20126342773438,16.352712631225586,-32.66989517211914,123.14742279052734
3208,-155.6322021484375,22.30663299560547,-31.92939567565918,128.12149047851562
3209,-160.12380981445312,19.419429779052734,-27.340538024902344,122.66871643066406
3210,-156.36148071289062,24.85350608825684,-27.419076919555664,119.43744659423828
3211,-154.0165557861328,12.414597511291506,-27.396636962890625,132.53083801269528
3212,-159.20379638671875,14.497722625732422,-25.74734115600586,130.45892333984378
3213,-157.9060516357422,21.596052169799805,-25.44440841674805,127.3286361694336
3214,-157.81256103515625,15.80294704437256,-29.644317626953125,119.11955261230469
3215,-158.69891357421875,21.09116554260254,-29.61813735961914,122.62757873535156
3216,-164.15916442871094,20.15806007385254,-22.83769989013672,120.55567169189452
3217,-163.09703063964844,28.16144752502441,-19.554067611694336,111.78560638427734
3218,-161.18594360351562,32.099559783935554,-19.759761810302734,104.23849487304688
3219,-165.72244262695312,23.58380889892578,-20.795713424682614,100.65567016601562
3220,-161.3841552734375,37.559814453125,-13.439330101013185,106.74422454833984
3221,-151.23780822753906,32.11825942993164,-17.31760597229004,103.21749877929688
3222,-151.70904541015625,34.437000274658196,-19.307233810424805,105.30435943603516
3223,-153.3284149169922,17.158660888671875,-20.41050338745117,113.1394500732422
3224,-158.4221649169922,22.222484588623047,-23.33884620666504,122.04415893554688
3225,-158.02572631835938,13.097129821777346,-30.65035057067871,115.5068130493164
3226,-153.1713409423828,17.98891830444336,-31.27117347717285,122.29473114013672
3227,-155.8939971923828,13.833889961242676,-37.3597297668457,129.46784973144528
3228,-152.24758911132812,18.968772888183594,-31.2749137878418,130.09242248535156
3229,-157.87612915039062,19.638214111328125,-33.24209976196289,132.56076049804688
3230,-158.1828155517578,12.55484390258789,-35.022293090820305,123.77572631835938
3231,-153.39199829101562,21.351089477539066,-28.690643310546875,126.76016998291016
3232,-146.93319702148438,16.27978515625,-27.617290496826172,123.60743713378906
3233,-158.03695678710938,20.135622024536133,-24.73008918762207,117.48896026611328
3234,-166.0104217529297,10.535298347473145,-38.68739318847656,105.1510238647461
3235,-173.22842407226562,16.762231826782227,-36.11060333251953,104.33946990966795
3236,-167.85792541503906,27.02077674865723,-27.849164962768555,107.8213119506836
3237,-170.7526092529297,29.777084350585934,-30.49701499938965,96.10047149658205
3238,-165.65513610839844,29.08520126342773,-27.33305931091309,101.72154235839844
3239,-156.24554443359375,20.247817993164066,-25.212535858154297,109.00686645507812
3240,-152.31117248535156,23.531450271606445,-22.48614883422852,112.38773345947266
3241,-154.0165557861328,31.142147064208984,-22.826478958129886,112.40269470214844
3242,-161.81051635742188,28.79348945617676,-21.367918014526367,116.43804168701172
3243,-153.57151794433594,30.92523193359375,-20.37684440612793,125.9673080444336
3244,-155.4190216064453,24.73195838928223,-16.528488159179688,125.41006469726562
3245,-158.82232666015625,16.810850143432614,-24.05690574645996,123.67101287841795
3246,-154.80941772460938,16.53409767150879,-27.602331161499023,124.20955657958984
3247,-154.50274658203125,13.261685371398926,-23.46600151062012,130.37664794921878
3248,-151.5220489501953,9.39836883544922,-22.400131225585934,133.36109924316406
3249,-148.29824829101562,16.713613510131836,-22.822738647460934,125.30535125732422
3250,-155.39283752441406,18.347949981689453,-23.21916961669922,118.77174377441406
3251,-147.34457397460938,13.119568824768065,-19.46805000305176,116.95415496826172
3252,-151.5444793701172,13.942346572875975,-19.3670711517334,115.95933532714844
3253,-149.84657287597656,18.05997657775879,-22.74420166015625,98.71466064453124
3254,-154.92909240722656,9.342269897460938,-27.793066024780273,88.81514739990234
3255,-149.19956970214844,13.572096824645994,-27.864124298095703,95.55070495605469
3256,-144.72665405273438,8.654128074645996,-20.649858474731445,104.90419006347656
3257,-142.1835174560547,12.345409393310547,-21.143524169921875,108.0382308959961
3258,-140.8221893310547,12.599722862243652,-22.38517189025879,106.6133270263672
3259,-129.49403381347656,4.820731163024902,-21.67085075378418,124.43021392822266
3260,-128.38328552246094,3.47810697555542,-21.102384567260746,121.56170654296876
3261,-130.88902282714844,3.893235921859741,-19.116498947143555,119.33272552490234
3262,-131.55845642089844,0.5535051822662354,-15.78798770904541,122.71733856201172
3263,-124.99119567871094,3.8782763481140137,-13.903078079223633,130.03631591796878
3264,-132.26530456542972,2.472073793411255,-15.28684139251709,127.13790130615234
3265,-137.17579650878906,0.13837629556655884,-18.102985382080078,119.8413543701172
3266,-140.79226684570312,-1.4585609436035156,-18.83600616455078,120.9670639038086
3267,-136.23707580566406,-2.0307657718658447,-16.528488159179688,120.74266815185548
3268,-139.78997802734378,1.5034397840499878,-17.007194519042972,116.16503143310548
3269,-145.17918395996094,3.9530742168426514,-24.225202560424805,110.92543029785156
3270,-144.24794006347656,2.7338669300079346,-24.83854484558105,108.0382308959961
3271,-142.1909942626953,-2.6777684688568115,-23.963409423828125,113.19929504394531
3272,-143.7916717529297,-4.106410026550293,-26.644916534423828,109.3060531616211
3273,-139.80119323730472,7.842570304870605,-24.72260856628418,108.96946716308594
3274,-150.54966735839844,7.898668766021728,-35.57579803466797,108.22522735595705
3275,-142.68092346191406,4.398122310638428,-29.64805603027344,116.62129974365234
3276,-141.8843231201172,13.2691650390625,-19.415691375732425,129.01907348632812
3277,-149.0911102294922,1.7203539609909058,-27.43029594421387,119.95729064941406
3278,-152.29994201660156,2.606710195541382,-29.53211975097656,120.308837890625
3279,-153.49671936035156,6.978653430938722,-28.76918029785156,126.2029266357422
3280,-151.3836669921875,4.259746074676514,-30.43343544006348,129.94282531738278
3281,-147.08653259277344,17.16240119934082,-23.144371032714844,126.9097671508789
3282,-155.14227294921875,11.20847988128662,-26.62995719909668,122.63506317138672
3283,-148.78070068359375,14.013404846191404,-25.04424095153809,128.52540588378906
3284,-148.02149963378906,14.372435569763185,-21.487594604492188,128.15141296386722
3285,-164.63040161132812,15.857175827026367,-20.627418518066406,119.63939666748048
3286,-157.77142333984375,26.08580207824707,-21.371658325195312,115.46941375732422
3287,-156.23431396484375,24.634721755981445,-24.41593742370605,120.6304702758789
3288,-155.920166015625,23.935359954833984,-22.381431579589844,117.34683990478516
3289,-157.6255645751953,31.486217498779297,-26.97028923034668,110.89551544189452
3290,-168.74053955078125,24.10739517211914,-28.55974578857422,103.59149169921876
3291,-160.35943603515625,17.932819366455078,-30.272619247436523,109.62394714355469
3292,-158.15663146972656,22.338422775268555,-24.479515075683594,109.17516326904295
3293,-154.7308807373047,25.255544662475586,-26.13629150390625,108.46831512451172
3294,-146.6414794921875,25.827749252319336,-23.92226982116699,118.9811782836914
3295,-161.90774536132812,22.53289794921875,-27.501354217529297,123.66727447509766
3296,-154.8131561279297,21.066856384277344,-22.620784759521484,130.54121398925778
3297,-157.1019744873047,21.7849178314209,-22.142078399658203,125.40632629394531
3298,-155.8004913330078,23.639907836914066,-20.085132598876953,123.71215057373048
3299,-153.66127014160156,19.3203239440918,-24.20650291442871,130.03257751464844
3300,-159.92559814453125,19.873828887939453,-24.374797821044922,122.0291976928711
3301,-166.68359375,20.232858657836914,-22.953636169433594,118.74930572509766
3302,-163.901123046875,25.629533767700195,-16.700523376464847,117.56749725341795
3303,-160.333251953125,24.36918830871582,-16.17319679260254,123.91036224365234
3304,-163.23915100097656,23.651126861572266,-14.209750175476074,130.63096618652344
3305,-165.74114990234375,24.675859451293945,-17.90477180480957,122.65375518798828
3306,-163.39996337890625,23.18737983703613,-22.58712577819824,120.27144622802734
3307,-151.83245849609375,18.920154571533203,-23.35380554199219,126.01966857910156
3308,-155.56861877441406,20.894821166992188,-18.656490325927734,120.76510620117188
3309,-154.58876037597656,15.389688491821287,-23.00599479675293,115.71998596191406
3310,-156.0809783935547,24.76561737060547,-26.99272727966309,110.91421508789062
3311,-158.1641082763672,19.017391204833984,-30.081884384155273,111.63227081298828
3312,-159.8246307373047,15.88709545135498,-28.60088539123535,115.98178100585938
3313,-151.7239990234375,27.02077674865723,-25.530427932739254,118.07611846923828
3314,-152.539306640625,17.502731323242188,-31.30109214782715,117.8928680419922
3315,-154.6934814453125,25.52855682373047,-27.89404296875,125.9261703491211
3316,-162.21441650390625,19.45870018005371,-31.88077735900879,126.53577423095705
3317,-160.73341369628906,24.642200469970703,-26.499061584472656,124.74810028076172
3318,-168.71063232421875,19.230566024780273,-29.43488311767578,121.91326141357422
3319,-167.52508544921875,12.001338958740234,-33.754467010498054,122.70985412597656
3320,-161.0999298095703,15.580423355102539,-30.291318893432614,126.61804962158205
3321,-163.560791015625,14.87732219696045,-34.28927230834961,123.08010864257812
3322,-159.53665161132812,13.598276138305664,-33.61983108520508,132.17929077148438
3323,-165.20260620117188,13.302824020385742,-40.99865341186523,123.68971252441406
3324,-156.28668212890625,13.205586433410645,-32.037853240966804,116.99529266357422
3325,-161.20465087890625,14.11438274383545,-28.93747520446777,117.07756805419922
3326,-153.59768676757812,21.646541595458984,-32.19866943359375,107.09203338623048
3327,-152.15408325195312,19.709272384643555,-30.470834732055664,109.81094360351562
3328,-153.19752502441406,14.828702926635742,-31.51052665710449,109.51174926757812
3329,-154.9515380859375,22.00931167602539,-29.61813735961914,103.96173858642578
3330,-150.98350524902344,16.522878646850586,-24.73008918762207,104.37313079833984
3331,-150.93113708496094,18.99869155883789,-28.320392608642575,111.3891830444336
3332,-147.4081573486328,17.558830261230472,-29.5956974029541,112.6420440673828
3333,-153.4256591796875,16.765972137451172,-26.1923885345459,114.22028350830078
3334,-154.56259155273438,15.43456745147705,-29.565778732299805,117.31317901611328
3335,-155.0712127685547,14.963339805603027,-27.89404296875,127.17903900146484
3336,-161.67587280273438,16.77345085144043,-32.62501907348633,125.54096221923828
3337,-168.82656860351562,17.83184242248535,-32.890548706054695,125.92243194580078
3338,-166.33578491210938,10.905548095703123,-37.63274383544922,128.37954711914062
3339,-166.6424560546875,11.339376449584961,-46.76931762695313,131.1246337890625
3340,-161.61978149414062,12.360369682312012,-45.58750915527344,130.7431640625
3341,-161.0101776123047,13.437460899353027,-37.14655685424805,132.2279052734375
3342,-167.90280151367188,10.875629425048828,-38.5228385925293,125.67559814453124
3343,-161.7394561767578,13.69925308227539,-40.953773498535156,121.89830017089844
3344,-159.992919921875,16.362062454223633,-34.62586212158203,118.96621704101562
3345,-160.4192657470703,15.528064727783205,-32.44550323486328,110.62249755859376
3346,-154.3157501220703,23.04900360107422,-32.265987396240234,105.80177307128906
3347,-152.9955596923828,17.816883087158203,-26.663616180419922,105.28192138671876
3348,-151.2191162109375,23.78950309753418,-21.88776397705078,102.12918853759766
3349,-154.3531494140625,24.44772529602051,-18.88462448120117,97.73480224609376
3350,-148.73956298828125,21.003278732299805,-15.892704963684082,101.317626953125
3351,-156.32034301757812,28.61397361755371,-16.405071258544922,111.84918975830078
3352,-152.3186492919922,18.471364974975586,-12.433297157287598,122.3134307861328
3353,-161.9975128173828,14.802523612976074,-16.405071258544922,117.1336669921875
3354,-164.71267700195312,12.711919784545898,-20.930349349975586,125.71299743652344
3355,-166.58636474609375,15.064316749572756,-21.300600051879886,131.64448547363278
3356,-158.01824951171875,7.846310138702393,-20.668556213378906,133.46206665039062
3357,-159.828369140625,9.046817779541016,-22.56094741821289,131.06852722167972
3358,-158.96444702148438,11.930280685424805,-24.374797821044922,130.59730529785156
3359,-163.10826110839844,9.547965049743652,-34.24065399169922,132.84124755859378
3360,-165.22129821777344,12.682001113891602,-31.233774185180664,128.69369506835938
3361,-162.85394287109375,11.829303741455078,-31.34223175048828,121.91326141357422
3362,-159.0205535888672,11.67222785949707,-32.393142700195305,121.49813079833984
3363,-152.72254943847656,13.90120792388916,-25.79595947265625,120.48835754394531
3364,-151.10317993164062,18.42648696899414,-27.617290496826172,105.18468475341795
3365,-146.85464477539062,27.970712661743164,-22.415090560913086,96.57917785644531
3366,-142.9464569091797,20.60310935974121,-19.116498947143555,97.47675323486328
3367,-152.92825317382812,17.151180267333984,-26.94784927368164,89.11807250976562
3368,-154.68600463867188,24.94513320922852,-25.93059539794922,99.1858901977539
3369,-154.21852111816406,23.856821060180664,-24.079345703125,103.45685577392578
3370,-153.39947509765625,18.64340209960937,-27.598590850830078,112.95246124267578
3371,-158.27256774902344,21.837276458740234,-24.43837547302246,119.79647827148438
3372,-157.0758056640625,14.256498336791992,-21.820446014404297,124.31053161621094
3373,-158.01451110839844,20.053342819213867,-21.667110443115234,126.6330108642578
3374,-163.6393280029297,11.926541328430176,-32.415584564208984,128.05790710449222
3375,-175.36016845703125,14.802523612976074,-32.045333862304695,138.5894775390625
3376,-166.6050567626953,9.289911270141602,-29.64805603027344,136.13983154296878
3377,-157.80508422851562,10.883109092712402,-31.22255516052246,135.06648254394528
3378,-154.7308807373047,11.474013328552244,-30.81116485595703,130.09242248535156
3379,-148.5338592529297,4.7459330558776855,-35.788970947265625,128.16636657714844
3380,-152.75621032714844,5.93148136138916,-34.603424072265625,121.58040618896484
3381,-156.58587646484375,12.693220138549805,-26.62621688842773,112.3578109741211
3382,-148.62362670898438,13.355182647705078,-27.665910720825195,102.59667205810548
3383,-161.859130859375,15.617822647094727,-32.39688491821289,101.66918182373048
3384,-157.6180877685547,15.412127494812012,-26.62995719909668,100.78282165527344
3385,-157.2852325439453,16.84450912475586,-23.27526664733887,99.87776947021484
3386,-156.5634307861328,23.35941505432129,-25.04424095153809,110.4317626953125
3387,-160.2061004638672,18.946332931518555,-26.65239715576172,112.74676513671876
3388,-155.6284637451172,16.833290100097653,-25.751081466674805,118.96621704101562
3389,-157.25157165527344,17.356876373291016,-23.31640625,123.536376953125
3390,-153.48548889160156,11.948980331420898,-27.131103515625,127.88961791992188
3391,-154.89169311523438,8.654128074645996,-29.75277328491211,131.90626525878906
3392,-151.52952575683594,13.587056159973145,-26.371904373168945,132.8150634765625
3393,-154.78323364257812,5.636029243469237,-26.798254013061523,128.959228515625
3394,-157.39369201660156,10.939207077026367,-25.672542572021484,135.44795227050778
3395,-157.9097900390625,5.138622760772705,-28.189495086669922,141.27845764160156
3396,-156.7616424560547,4.11014986038208,-34.2967529296875,130.33177185058594
3397,-147.1089630126953,6.552304744720459,-31.12905693054199,122.1152114868164
3398,-149.1808624267578,10.26602554321289,-24.84976577758789,118.96621704101562
3399,-141.9778289794922,8.448433876037598,-28.182016372680664,117.28326416015624
3400,-147.2436065673828,14.709026336669922,-26.794513702392575,112.37277221679688
3401,-150.39259338378906,11.07758331298828,-22.598344802856445,106.24308013916016
3402,-150.96853637695312,16.025470733642578,-21.78678703308105,108.32994079589844
3403,-148.38427734375,15.913274765014648,-23.144371032714844,118.74930572509766
3404,-155.74440002441406,13.07843017578125,-20.141231536865234,113.10953521728516
3405,-158.10052490234375,21.52312469482422,-21.988740921020508,114.1679229736328
3406,-153.77346801757812,10.51659870147705,-19.531627655029297,117.93026733398438
3407,-144.9547882080078,10.1500883102417,-20.76579475402832,125.05851745605469
3408,-153.5902099609375,15.475706100463867,-23.33884620666504,128.10653686523438
3409,-140.19015502929688,8.508272171020508,-16.161977767944336,130.76185607910156
3410,-147.11270141601562,4.420561790466309,-18.06558609008789,121.44577026367188
3411,-145.33999633789062,9.525525093078613,-18.028186798095703,134.13899230957028
3412,-150.31031799316406,-3.006879568099976,-27.66964912414551,130.3616943359375
3413,-149.20704650878906,4.259746074676514,-18.720069885253906,129.78948974609378
3414,-151.36497497558594,0.8863562941551208,-26.55142021179199,126.0271453857422
3415,-147.88311767578125,2.4346749782562256,-27.16850280761719,120.15550231933594
3416,-148.5076904296875,5.2919583320617685,-30.86352348327637,117.07756805419922
3417,-150.69178771972656,6.322300910949707,-30.98320198059082,107.17805480957031
3418,-157.81629943847656,5.604239940643311,-33.444053649902344,103.5017318725586
3419,-158.208984375,10.09585952758789,-29.464801788330078,108.7375946044922
3420,-155.3367462158203,10.96351718902588,-28.118438720703125,110.09517669677734
3421,-159.19631958007812,9.721869468688963,-26.1923885345459,109.9268798828125
3422,-164.6565704345703,16.827680587768555,-24.77870750427246,109.27239990234376
3423,-154.29331970214844,19.57276725769043,-19.969196319580078,117.4515609741211
3424,-151.45098876953125,16.22929573059082,-17.145570755004886,121.29991149902344
3425,-153.11898803710938,22.03736114501953,-22.104679107666016,120.34998321533205
3426,-151.49212646484375,11.924671173095705,-29.827571868896484,117.26456451416016
3427,-144.8575439453125,7.118899345397949,-28.03615951538086,126.10194396972656
3428,-149.1733856201172,14.931550979614258,-20.272127151489254,126.33382415771484
3429,-149.79795837402344,9.699430465698242,-23.67169761657715,120.73145294189452
3430,-144.92860412597656,4.43739128112793,-24.718868255615234,125.04729461669922
3431,-143.34661865234375,6.838407039642334,-24.61415100097656,131.89131164550778
3432,-145.13055419921875,10.664324760437012,-21.36043930053711,129.55387878417972
3433,-150.2392578125,4.089580535888672,-27.86038398742676,116.95789337158205
3434,-155.18341064453125,7.328333854675293,-31.772319793701172,115.78356170654295
3435,-159.34217834472656,9.897644996643066,-35.00359344482422,117.86294555664062
3436,-154.54762268066406,5.918391704559326,-28.60088539123535,118.07238006591795
3437,-159.46559143066406,7.410611629486084,-31.402069091796875,109.09661865234376
3438,-161.4402618408203,1.7446633577346802,-26.323286056518555,110.7907943725586
3439,-160.2921142578125,7.275975227355957,-27.340538024902344,112.12593841552734
3440,-161.9002685546875,14.295767784118652,-29.954729080200195,117.68343353271484
3441,-171.3173370361328,14.052674293518065,-35.11579132080078,115.63770294189452
3442,-163.4224090576172,16.449949264526367,-31.480607986450195,114.17166900634766
3443,-157.53955078125,14.082592964172365,-32.05655288696289,123.31198120117188
3444,-152.3074188232422,12.410858154296875,-30.923362731933594,122.29098510742188
3445,-144.7790069580078,13.910557746887207,-25.66506385803223,124.57606506347656
3446,-148.4104461669922,10.346433639526367,-27.856645584106445,118.75678253173828
3447,-143.18954467773438,11.24774932861328,-27.87534523010254,122.67993927001952
3448,-143.89639282226562,7.208657264709473,-23.29396629333496,123.36808013916016
3449,-153.78842163085938,13.140138626098633,-27.194683074951172,118.28181457519531
3450,-150.04104614257812,8.311927795410156,-28.26803398132324,117.1561050415039
3451,-151.8511505126953,13.214936256408693,-26.1923885345459,122.3695297241211
3452,-148.6722412109375,14.531381607055664,-24.93952369689941,118.14344024658205
3453,-154.13998413085938,12.006948471069336,-23.76145362854004,112.96367645263672
3454,-161.45147705078125,9.018768310546877,-34.05365753173828,106.5983657836914
3455,-153.7510223388672,5.147972106933594,-27.157283782958984,116.0490951538086
3456,-162.9474334716797,6.591573715209961,-28.619585037231445,110.88055419921876
3457,-163.52713012695312,8.723316192626951,-29.51716041564941,110.71599578857422
3458,-170.91342163085938,10.3202543258667,-33.690887451171875,111.30316162109376
3459,-166.36196899414062,8.207210540771483,-34.51366806030273,122.8781509399414
3460,-164.41348266601562,13.158838272094727,-31.74614143371582,128.36459350585938
3461,-167.35678100585938,11.39360523223877,-31.15897560119629,129.31451416015622
3462,-160.9765167236328,8.382986068725586,-26.16995048522949,128.00929260253906
3463,-155.39657592773438,7.246056079864503,-26.783292770385746,127.0743179321289
3464,-151.64920043945312,6.75986909866333,-25.0068416595459,122.62384033203124
3465,-152.21766662597656,14.617399215698242,-26.04653358459473,117.9975814819336
3466,-148.5862274169922,15.881484985351562,-24.00828742980957,120.30136108398438
3467,-150.1532440185547,12.732489585876465,-22.867618560791016,119.48980712890624
3468,-154.6972198486328,12.983062744140625,-21.581092834472656,119.23175048828124
3469,-158.7699737548828,11.917191505432127,-20.593759536743164,112.9748992919922
3470,-162.8015899658203,9.73682975769043,-20.189849853515625,116.5128402709961
3471,-150.7404022216797,8.540061950683594,-19.546586990356445,123.31198120117188
3472,-148.7283477783203,9.179584503173828,-15.52619457244873,130.03631591796878
3473,-155.70326232910156,12.713789939880373,-18.56673240661621,121.52804565429688
3474,-156.35400390625,7.87809944152832,-18.061847686767575,120.24152374267578
3475,-157.83499145507812,5.7650556564331055,-25.82961845397949,121.69634246826172
3476,-158.126708984375,11.113112449645996,-33.01770782470703,122.4705047607422
3477,-164.68275451660156,11.307587623596193,-30.95702171325684,117.79188537597656
3478,-161.9451446533203,6.501816272735597,-36.55191040039063,117.51887512207031
3479,-155.46389770507812,8.334366798400879,-31.79850006103516,127.18651580810548
3480,-162.0723114013672,-3.1770451068878174,-33.96016311645508,131.76416015625
3481,-159.6114501953125,5.667818546295166,-30.11928367614746,125.8438949584961
