,T7,F8,Cz,P4
2000,-147.20433044433594,-39.42041397094727,-26.98898887634277,94.5203628540039
2001,-146.9761962890625,-27.078744888305664,-14.688457489013672,116.76154327392578
2002,-151.74082946777344,-29.270326614379886,-17.093212127685547,97.3103256225586
2003,-162.65011596679688,-32.049072265625,-27.740707397460934,90.46630859375
2004,-155.0356903076172,-32.59509658813477,-19.086580276489254,95.54883575439452
2005,-141.40374755859375,-14.789434432983398,-8.839253425598145,106.13275146484376
2006,-154.317626953125,-36.26768112182617,-15.327980041503904,99.27751159667969
2007,-153.39012145996094,-37.82721710205078,-22.718021392822266,85.36134338378906
2008,-149.11541748046875,-38.37698364257813,-23.60063934326172,100.48176574707031
2009,-157.1075897216797,-17.459722518920902,-15.926363945007324,117.3823699951172
2010,-160.30706787109375,-17.510211944580078,-19.948625564575195,102.34049224853516
2011,-174.75430297851562,-30.59986114501953,-24.51130485534668,87.11910247802734
2012,-150.31405639648438,-16.365802764892578,-16.332143783569336,106.6039810180664
2013,-151.1630096435547,-6.70564079284668,-2.475813865661621,124.17776489257812
2014,-152.65524291992188,-24.141054153442386,-16.384502410888672,103.27546691894531
2015,-159.86203002929688,-35.069042205810554,-22.697452545166016,87.25747680664062
2016,-160.01910400390625,-30.60360145568848,-28.857067108154297,97.40008544921876
2017,-146.6377410888672,-15.74871826171875,-16.997844696044922,110.5159149169922
2018,-155.85284423828125,-28.69251251220703,-23.45291328430176,89.23588562011719
2019,-167.55499267578125,-30.62604141235352,-27.74257850646973,80.55557250976562
2020,-160.13877868652344,-31.063608169555664,-26.3326358795166,84.02994537353516
2021,-144.74534606933594,-13.347702980041506,-14.98203945159912,105.75875854492188
2022,-151.4771728515625,-23.7034854888916,-18.16469383239746,91.9547882080078
2023,-175.0048828125,-29.197399139404297,-30.15481376647949,76.20980834960938
2024,-170.61424255371094,-16.253604888916016,-27.08061599731445,81.64762878417969
2025,-163.7290802001953,-8.99445915222168,-12.794198036193848,104.67044830322266
2026,-166.2684783935547,-17.11378288269043,-11.260838508605955,89.53133392333984
2027,-168.75177001953125,-21.14165496826172,-22.51045799255371,78.57342529296875
2028,-164.66030883789062,-13.867548942565918,-23.33697509765625,94.2211685180664
2029,-139.94705200195312,-1.2566063404083252,-6.664501667022705,110.50843048095705
2030,-154.68226623535156,-26.69540596008301,-20.05708312988281,88.48416137695312
2031,-153.52662658691406,-30.92523193359375,-19.129589080810547,86.64787292480469
2032,-153.78094482421875,-23.39681434631348,-17.356876373291016,102.36666870117188
2033,-138.96345520019528,-10.44554042816162,-9.44324779510498,112.89823150634766
2034,-156.8439178466797,-31.88638687133789,-16.717351913452152,98.10318756103516
2035,-165.8870086669922,-36.17605209350586,-26.96841812133789,74.45954132080078
2036,-154.74583435058594,-27.955751419067386,-25.76043128967285,87.91195678710938
2037,-147.09027099609375,-16.608896255493164,-13.538437843322756,105.642822265625
2038,-158.2239532470703,-25.341562271118164,-25.13586807250977,87.18641662597656
2039,-166.2198486328125,-33.78999710083008,-30.020177841186523,76.01533508300781
2040,-164.11802673339844,-33.550643920898445,-30.4876651763916,85.81013488769531
2041,-155.30682373046875,-16.799631118774414,-11.948980331420898,109.5173568725586
2042,-166.0178985595703,-18.482585906982425,-10.677413940429688,96.39405059814452
2043,-171.86709594726562,-25.79034996032715,-23.44917297363281,79.56449890136719
2044,-167.13986206054688,-16.78093147277832,-23.673566818237305,96.0836410522461
2045,-157.5694580078125,-16.721092224121097,-13.85258960723877,120.98763275146484
2046,-157.42735290527344,-30.86539459228516,-18.104856491088867,106.7909698486328
2047,-166.41432189941406,-34.478137969970696,-25.539775848388672,88.38692474365234
2048,-165.96554565429688,-21.65402030944824,-22.734851837158203,96.88024139404295
2049,-138.30897521972656,-21.92329406738281,-9.44324779510498,116.82886505126952
2050,-143.48126220703125,-31.665733337402344,-15.023178100585938,96.50251007080078
2051,-157.3675079345703,-41.15011978149414,-24.22707176208496,84.93125915527344
2052,-148.3356475830078,-26.343854904174805,-12.551104545593262,101.18860626220705
2053,-130.05502319335938,-21.76995849609375,-6.369049549102782,112.4868392944336
2054,-145.1193389892578,-32.04346466064453,-5.9688801765441895,101.40925598144531
2055,-161.93392944335938,-40.34978103637695,-19.933666229248047,77.75813293457031
2056,-151.06204223632812,-42.48152542114258,-20.33383560180664,92.25772094726562
2057,-148.29824829101562,-23.696006774902344,-6.772958755493164,112.37090301513672
2058,-155.00762939453125,-30.53628349304199,-10.748472213745117,93.353515625
2059,-160.0901641845703,-34.511795043945305,-22.704933166503906,84.20571899414062
2060,-161.70579528808594,-26.53458976745605,-21.900854110717773,95.5824966430664
2061,-162.13961791992188,-17.222238540649414,-8.007125854492188,113.62003326416016
2062,-161.3018798828125,-19.32780265808105,-7.663054943084718,106.6264190673828
2063,-165.5017852783203,-35.487911224365234,-26.86370086669922,89.92776489257812
2064,-159.40576171875,-28.34470176696777,-19.97480583190918,99.28499603271484
2065,-139.44964599609378,-15.142854690551758,-4.25226640701294,124.0880126953125
2066,-150.39633178710938,-20.734004974365234,-12.00507926940918,104.94346618652344
2067,-162.08352661132812,-33.12803268432617,-15.89083480834961,94.09027099609376
2068,-148.28329467773438,-23.763324737548828,-5.673428058624268,104.3151626586914
2069,-130.54495239257812,-13.12704849243164,4.3943824768066415,125.52413177490234
2070,-151.5220489501953,-32.99713897705078,-3.6576220989227295,104.28150177001952
2071,-150.47486877441406,-40.00571060180664,-12.334190368652346,95.31696319580078
2072,-148.01028442382812,-35.47294998168945,-15.920754432678224,100.8632354736328
2073,-138.12197875976562,-18.325510025024414,-4.2821855545043945,119.44679260253906
2074,-151.7239990234375,-32.447372436523445,-13.153227806091307,100.50420379638672
2075,-161.15603637695312,-37.92632675170898,-16.380762100219727,94.5016632080078
2076,-160.22105407714844,-29.885540008544922,-21.893373489379886,99.52434539794922
2077,-157.07205200195312,-20.31887626647949,-14.402355194091795,115.5011978149414
2078,-152.75994873046875,-25.20318603515625,-13.553397178649902,96.15470123291016
2079,-156.24554443359375,-40.72377014160156,-18.37038803100586,85.85127258300781
2080,-154.2671356201172,-33.10559463500977,-16.556537628173828,103.02863311767578
2081,-137.75173950195312,-22.704933166503906,0.23935359716415405,117.61424255371094
2082,-141.4654541015625,-32.89242172241211,-5.086264133453369,107.56139373779295
2083,-157.50962829589844,-28.40080070495605,-14.409834861755373,92.13056182861328
2084,-154.5738067626953,-27.23769187927246,-19.159507751464844,100.78095245361328
2085,-143.0698699951172,-17.450372695922848,-6.851496696472168,112.7897720336914
2086,-155.38536071777344,-27.09931564331055,-5.067564487457275,98.43229675292969
2087,-144.00485229492188,-33.90219497680664,-14.701546669006348,89.02645111083984
2088,-145.6242218017578,-31.261823654174805,-16.904348373413086,97.09715270996094
2089,-141.44302368164062,-23.62120819091797,-13.059730529785154,119.09898376464844
2090,-148.8517608642578,-40.024410247802734,-17.222238540649414,101.2858428955078
2091,-160.7184600830078,-38.745365142822266,-19.724231719970703,84.66572570800781
2092,-156.49610900878906,-29.997737884521484,-10.812050819396973,98.15928649902344
2093,-148.64231872558594,-16.044170379638672,-13.426240921020508,112.29236602783205
2094,-158.48573303222656,-24.76561737060547,-10.883109092712402,94.80085754394531
2095,-157.80882263183594,-31.47125816345215,-18.92389297485352,80.75379180908203
2096,-144.33395385742188,-21.6091423034668,-13.052250862121582,85.67176055908203
2097,-138.24166870117188,-15.87961483001709,-4.6599154472351065,107.03780364990234
2098,-150.17942810058594,-37.55607604980469,-13.332743644714355,91.25917053222656
2099,-158.62411499023438,-33.94333267211914,-17.66354751586914,82.57138061523438
2100,-155.3330078125,-26.7440242767334,-18.867795944213867,100.3471221923828
2101,-138.76150512695312,-8.713967323303223,-0.20569449663162231,120.22469329833984
2102,-147.00424194335938,-37.20078659057617,-10.202446937561037,99.67394256591795
2103,-160.3369903564453,-26.84126281738281,-11.844263076782227,97.24301147460938
2104,-148.0289764404297,-32.66428756713867,-19.05479049682617,89.81930541992188
2105,-131.99603271484378,-12.543624877929688,1.9073489904403689,117.63668060302734
2106,-147.12767028808594,-34.11910629272461,-6.881415843963622,100.70989227294922
2107,-159.54039001464844,-47.05916213989258,-18.961292266845703,85.0658950805664
2108,-148.53761291503906,-33.973251342773445,-17.648588180541992,102.73692321777344
2109,-144.37509155273438,-25.805309295654297,-1.8849096298217771,120.29949188232422
2110,-165.09788513183594,-30.700838088989254,-10.606356620788574,106.828369140625
2111,-169.77650451660156,-42.477783203125,-21.990612030029297,87.08544158935547
2112,-150.57211303710938,-24.619760513305664,-12.274352073669435,98.18172454833984
2113,-136.32308959960938,-23.50527191162109,-4.069011211395264,116.7054443359375
2114,-158.87095642089844,-25.326602935791016,-6.481246471405028,99.64402770996094
2115,-159.0242919921875,-36.78939437866211,-12.528664588928224,81.89820098876953
2116,-150.36642456054688,-34.83342742919922,-13.594536781311035,94.38198852539062
2117,-143.22320556640625,-15.59164333343506,-5.995059490203857,109.54354095458984
2118,-145.93089294433594,-14.514552116394045,-10.101469993591307,92.88602447509766
2119,-162.4014129638672,-37.155906677246094,-18.875274658203125,85.9073715209961
2120,-158.58297729492188,-29.34699440002441,-24.37292861938477,98.38367462158205
2121,-147.0678253173828,-19.06226921081543,-11.189780235290527,117.93587493896484
2122,-154.1885986328125,-26.63556671142578,-8.908441543579102,109.3939437866211
2123,-163.8076171875,-35.592628479003906,-22.660053253173828,97.13829040527344
2124,-160.32577514648438,-23.624948501586914,-21.05563735961914,106.24494934082031
2125,-153.74728393554688,-17.379314422607422,-8.033305168151855,124.08052825927734
2126,-155.98748779296875,-29.06650161743164,-12.539884567260742,100.26858520507812
2127,-167.1211700439453,-32.23419952392578,-18.486326217651367,86.5468978881836
2128,-171.6389617919922,-32.55208969116211,-27.353628158569336,95.6647720336914
2129,-145.18292236328125,-18.325510025024414,-8.280138969421388,114.16605377197266
2130,-154.4765625,-27.30875015258789,-14.013404846191404,96.31925201416016
2131,-161.5973358154297,-34.78107070922852,-24.12983512878418,80.45459747314453
2132,-160.94659423828125,-21.575483322143555,-24.47764587402344,89.23213958740234
2133,-143.8851776123047,-22.62265396118164,-12.80541706085205,100.48924255371094
2134,-156.15951538085938,-23.363155364990234,-8.81494426727295,88.40188598632812
2135,-170.56935119628906,-27.22273254394531,-15.718799591064453,73.3001708984375
2136,-157.88735961914062,-28.16518592834473,-19.18942642211914,86.45339965820312
2137,-145.55316162109375,-24.42902565002441,-10.13886833190918,107.62123107910156
2138,-151.25277709960938,-27.43590545654297,-11.148641586303713,102.08992004394531
2139,-155.250732421875,-36.52386474609375,-20.509611129760746,94.33710479736328
2140,-154.9964141845703,-33.012096405029304,-21.56426239013672,105.9607162475586
2141,-152.6103515625,-21.05563735961914,-13.70673370361328,122.07594299316406
2142,-164.63040161132812,-27.17411231994629,-14.024624824523926,112.15399169921876
2143,-170.09439086914062,-43.33795928955078,-22.013051986694336,97.00365447998048
2144,-157.97711181640625,-37.45509719848633,-14.798784255981445,108.6721420288086
2145,-144.2741241455078,-23.250957489013672,-5.598630428314209,122.2816390991211
2146,-149.42396545410156,-37.66827392578125,-14.215359687805176,101.48779296875
2147,-155.54991149902344,-34.07048797607422,-23.94657897949219,88.8805923461914
2148,-147.47921752929688,-23.94657897949219,-18.733158111572266,93.5405044555664
2149,-153.09280395507812,-22.704933166503906,-9.772358894348145,108.32433319091795
2150,-140.96804809570312,-28.41950035095215,-9.020638465881348,86.63665008544922
2151,-153.1676025390625,-41.79338073730469,-18.54616355895996,76.61746215820312
2152,-159.7760009765625,-32.73534393310547,-22.40574073791504,84.6844253540039
2153,-154.72714233398438,-20.924739837646484,-12.18459415435791,103.6756362915039
2154,-156.71676635742188,-21.395967483520508,-13.785271644592285,95.1823272705078
2155,-167.09872436523438,-40.13286590576172,-31.99484443664551,81.06793975830078
2156,-163.63558959960938,-29.657405853271484,-27.069395065307614,97.5683822631836
2157,-158.47451782226562,-24.380407333374023,-13.108349800109865,120.09005737304688
2158,-161.07000732421875,-34.496837615966804,-15.415867805480955,106.06917572021484
2159,-166.2647247314453,-42.04769515991211,-27.55932235717773,90.77297973632812
2160,-165.3746337890625,-28.718690872192386,-18.75933837890625,110.02224731445312
2161,-155.05625915527344,-23.29583740234375,-14.753905296325685,123.7252426147461
2162,-156.600830078125,-31.23938369750977,-14.869842529296875,113.05904388427734
2163,-151.35374450683594,-35.50286865234375,-11.713366508483887,103.46620178222656
2164,-157.42735290527344,-31.284263610839844,-16.27978515625,105.48948669433594
2165,-147.38571166992188,-25.66319274902344,-5.247079849243164,121.12600708007812
2166,-140.661376953125,-34.30236053466797,-7.6480956077575675,112.4045639038086
2167,-161.0924530029297,-43.32674026489258,-15.48318576812744,87.39958953857422
2168,-158.23143005371094,-35.10269927978516,-14.907240867614744,93.82848358154295
2169,-137.59091186523438,-23.434213638305664,-1.4024624824523926,104.36751556396484
2170,-147.9093017578125,-33.60300064086914,-4.495359897613525,90.87770080566406
2171,-162.4462890625,-42.60493850708008,-18.142253875732425,74.86344909667969
2172,-146.48814392089844,-31.31792259216309,-14.08820343017578,95.3244400024414
2173,-145.31007385253906,-27.23769187927246,-6.058638095855713,114.44654846191406
2174,-157.04214477539062,-29.234798431396484,-8.859823226928711,104.7789077758789
2175,-168.10476684570312,-35.41311264038086,-22.5590763092041,91.07217407226562
2176,-167.22215270996094,-32.570789337158196,-22.81712913513184,105.56428527832031
2177,-152.46824645996094,-26.27653694152832,-14.989519119262695,123.66165924072266
2178,-153.8108673095703,-36.011497497558594,-22.364601135253906,109.36028289794922
2179,-164.63414001464844,-44.261714935302734,-28.55413627624512,99.27003479003906
2180,-158.6876983642578,-32.89242172241211,-25.63327407836914,110.89364624023438
2181,-147.49790954589844,-15.804817199707033,-6.133435726165772,130.08306884765622
2182,-160.1948699951172,-31.792888641357425,-16.246126174926758,108.80303955078124
2183,-156.86636352539062,-43.323001861572266,-12.82785701751709,101.79446411132812
2184,-148.69842529296875,-32.87746047973633,-10.669934272766113,99.76370239257812
2185,-139.43843078613278,-27.45086479187012,-0.2617929875850677,111.48080444335938
2186,-148.35061645507812,-34.03308868408203,-6.986133098602295,94.27726745605469
2187,-155.50877380371094,-47.82958221435547,-21.324909210205078,72.81398010253906
2188,-141.5888671875,-33.44966506958008,-18.83039665222168,93.78733825683594
2189,-140.30609130859378,-24.79553604125977,-5.239599704742432,111.32746887207031
2190,-157.25531005859375,-36.3331298828125,-12.49500560760498,99.09052276611328
2191,-162.67816162109375,-43.38657760620117,-15.61408233642578,91.98844909667969
2192,-166.66490173339844,-40.77238845825195,-21.306209564208984,95.31321716308594
2193,-157.80882263183594,-24.12983512878418,-6.911334991455077,123.91971588134766
2194,-164.26388549804688,-38.10583877563477,-11.545071601867676,107.72220611572266
2195,-162.78662109375,-42.36184692382813,-20.199199676513672,103.17449188232422
2196,-158.31370544433594,-39.4559440612793,-19.13332748413086,111.43218994140624
2197,-144.70046997070312,-26.9197998046875,-13.83014965057373,126.44789123535156
2198,-155.74813842773438,-38.82390213012695,-13.501038551330565,113.8893051147461
2199,-158.7288360595703,-48.5700798034668,-23.497791290283203,97.07471466064452
2200,-148.90785217285156,-38.3526725769043,-17.74956512451172,107.76334381103516
2201,-139.85356140136722,-24.911474227905273,-3.425748348236084,126.69471740722656
2202,-149.32672119140625,-34.900745391845696,-7.416221618652344,103.25676727294922
2203,-154.4391632080078,-50.0024642944336,-22.12898826599121,79.88239288330078
2204,-155.10113525390625,-34.489356994628906,-22.5889949798584,91.4461669921875
2205,-135.41055297851562,-19.870088577270508,-9.835936546325684,109.3378448486328
2206,-149.1397247314453,-36.29946899414063,-16.025470733642578,88.93295288085938
2207,-159.95925903320312,-41.20247650146485,-20.03090476989746,80.57427215576172
2208,-151.53700256347656,-38.61446762084961,-20.18798065185547,92.08568572998048
2209,-145.2838897705078,-22.91810607910156,-12.408987998962402,111.14421844482422
2210,-149.4314422607422,-27.869733810424805,-9.660161972045898,101.01282501220705
2211,-156.66253662109375,-34.44635009765625,-23.26030731201172,92.28390502929688
2212,-156.6849822998047,-31.03556060791016,-24.87968444824219,106.79471588134766
2213,-141.78521728515625,-15.97872257232666,-10.86627960205078,130.150390625
2214,-155.94821166992188,-34.53610610961914,-21.46515655517578,110.34014129638672
2215,-154.28396606445312,-34.094799041748054,-18.379737854003906,109.40890502929688
2216,-153.296630859375,-36.43971633911133,-24.06438636779785,108.7132797241211
2217,-144.63128662109375,-27.46769523620605,-10.518468856811523,120.17981719970705
2218,-152.0325469970703,-31.14775657653809,-16.18067741394043,100.97542572021484
2219,-153.86509704589844,-36.10312271118164,-16.068479537963867,86.38233947753906
2220,-150.03543090820312,-33.040145874023445,-18.87340545654297,91.59575653076172
2221,-130.38600158691406,-17.601839065551758,-1.0303424596786501,117.52448272705078
2222,-145.05389404296875,-40.29555130004883,-16.842639923095707,89.14986419677734
2223,-163.472900390625,-35.01481246948242,-19.69244384765625,82.07023620605469
2224,-155.39845275878906,-26.499061584472656,-20.22724914550781,96.13600158691406
2225,-146.0935821533203,-12.41833782196045,-11.401084899902346,107.93912506103516
2226,-146.46383666992188,-22.61704444885254,-3.749249696731568,99.99557495117188
2227,-160.57447814941406,-28.428850173950195,-19.965456008911133,85.7839584350586
2228,-153.74916076660156,-25.137737274169922,-22.77412033081055,96.40152740478516
2229,-140.40145874023438,-9.396498680114746,-6.602793216705322,119.1663055419922
2230,-147.64564514160156,-16.794021606445312,-11.341246604919435,107.16496276855469
2231,-160.60064697265625,-33.705848693847656,-25.54164695739746,87.48187255859375
2232,-160.4585418701172,-23.192989349365234,-23.60437774658203,101.8505630493164
2233,-148.8461456298828,-15.021307945251465,-12.02564811706543,124.19646453857422
2234,-156.9093780517578,-26.48410224914551,-22.598344802856445,104.92476654052734
2235,-155.2413787841797,-36.60053253173828,-24.81610679626465,89.93150329589844
2236,-160.18177795410156,-19.75602149963379,-20.1300106048584,98.04708862304688
2237,-145.0277099609375,-16.89499855041504,-4.669265270233153,124.0094757080078
2238,-155.63780212402344,-25.34343147277832,-11.027094841003418,108.21961212158205
2239,-161.1803436279297,-34.708141326904304,-22.250534057617188,90.93753814697266
2240,-154.06704711914062,-22.747941970825195,-19.277315139770508,101.74958801269531
2241,-153.636962890625,-24.07560539245605,-17.130611419677734,110.13070678710938
2242,-151.9914093017578,-29.87993049621582,-12.46695613861084,101.7907257080078
2243,-159.6956024169922,-29.842531204223636,-15.642131805419922,87.06300354003906
2244,-148.1243438720703,-24.670249938964844,-13.338353157043455,89.39295959472656
2245,-147.41751098632812,-14.770734786987305,-10.252935409545898,102.80049896240234
2246,-150.05413818359375,-22.36647224426269,-8.143631935119629,94.71857452392578
2247,-153.87257385253906,-28.8327579498291,-17.11191177368164,83.94766235351562
2248,-152.15969848632812,-29.318944931030273,-16.461170196533207,98.64173126220705
2249,-134.09971618652344,-15.425217628479006,-0.13276645541191098,121.5411376953125
2250,-137.9031982421875,-29.56203842163086,-7.9641170501708975,100.7024154663086
2251,-155.0655975341797,-38.0703125,-17.549480438232422,90.4214324951172
2252,-150.3720245361328,-25.459369659423828,-21.01262855529785,93.98929595947266
2253,-145.97764587402344,-19.142677307128906,-13.779661178588867,110.75152587890624
2254,-149.28372192382812,-31.98549461364746,-11.32254695892334,101.6860122680664
2255,-155.8061065673828,-32.759654998779304,-15.642131805419922,90.41020965576172
2256,-162.90069580078125,-27.50883483886719,-19.767240524291992,90.4850082397461
2257,-146.7742462158203,-18.690149307250977,-0.7760292291641235,124.9556655883789
2258,-152.9936981201172,-31.27117347717285,-13.910557746887207,103.12586975097656
2259,-155.48072814941406,-29.262847900390625,-14.508941650390625,90.5859832763672
2260,-154.87112426757812,-33.39917755126953,-12.739969253540039,96.5062484741211
2261,-135.84999084472656,-15.993681907653807,-2.189711332321167,117.09813690185548
2262,-144.66119384765625,-24.266340255737305,-7.133859157562256,100.19004821777344
2263,-155.47325134277344,-40.07489776611328,-20.56757926940918,79.93849182128906
2264,-158.82046508789062,-29.74529457092285,-19.02674102783203,88.02789306640625
2265,-137.94059753417972,-16.82394027709961,-6.124086380004883,106.92561340332031
2266,-143.79354858398438,-22.901277542114254,-8.71209716796875,96.94381713867188
2267,-161.39724731445312,-39.13244247436523,-24.97692108154297,72.1968994140625
2268,-151.62115478515625,-33.036407470703125,-21.192142486572266,88.54774475097656
2269,-127.71945190429688,-14.082592964172365,-5.428464889526367,118.8484115600586
2270,-142.40603637695312,-29.95098876953125,-17.901031494140625,99.48694610595705
2271,-145.09129333496094,-38.08526992797852,-19.714881896972656,98.40612030029295
2272,-149.95315551757812,-42.21411895751953,-15.694490432739258,103.8177490234375
2273,-147.2716522216797,-24.49821472167969,-8.076313972473145,127.82791137695312
2274,-154.15306091308594,-25.90441703796387,-12.100446701049805,106.73113250732422
2275,-154.6504669189453,-40.699462890625,-20.926610946655273,92.08568572998048
2276,-152.8291473388672,-30.74758720397949,-15.3466796875,103.88133239746094
2277,-131.34715270996094,-21.113605499267575,-3.0685880184173584,117.03082275390624
2278,-134.69810485839844,-30.47457504272461,-3.7268102169036874,108.89653778076172
2279,-144.62005615234375,-35.082130432128906,-9.837806701660156,95.39550018310548
2280,-147.54840087890625,-39.57374954223633,-14.983909606933596,99.1802749633789
2281,-128.190673828125,-24.217721939086914,-0.03552905097603798,116.75406646728516
2282,-142.26393127441406,-34.86147689819336,-4.994636535644531,99.29247283935548
2283,-139.67591857910156,-36.20036315917969,-4.1868181228637695,92.21658325195312
2284,-147.2379913330078,-34.895137786865234,-13.25233554840088,94.20995330810548
2285,-131.41447448730472,-20.07391357421875,-1.3856329917907717,109.19947052001952
2286,-144.66494750976562,-27.98754119873047,-4.6804847717285165,98.58937072753906
2287,-151.88668823242188,-44.5440788269043,-23.21916961669922,85.04719543457031
2288,-147.22677612304688,-27.348018646240234,-21.476375579833984,89.98760223388672
2289,-144.65371704101562,-27.04882621765137,-16.678083419799805,113.57888793945312
2290,-141.6730194091797,-35.845069885253906,-21.52499389648437,100.78095245361328
2291,-158.23329162597656,-43.65398406982422,-26.555160522460934,88.53278350830078
2292,-147.4362030029297,-38.02917098999024,-25.130258560180664,95.22346496582031
2293,-140.07981872558594,-19.221216201782227,-10.3202543258667,109.77167510986328
2294,-137.78726196289062,-28.10721778869629,-10.372612953186037,106.79471588134766
2295,-149.1864776611328,-41.64565658569336,-15.08862590789795,97.50479888916016
2296,-149.4370574951172,-30.41099739074707,-15.567333221435547,103.08847045898438
2297,-136.08186340332028,-25.57156562805176,-11.288887977600098,113.40311431884766
2298,-141.92733764648438,-34.77920150756836,-10.522208213806152,100.61640167236328
2299,-147.93360900878906,-43.49690628051758,-22.205656051635746,84.20198059082031
2300,-147.3539276123047,-27.576152801513672,-12.736228942871096,101.8917007446289
2301,-144.8481903076172,-16.393852233886722,-9.80788803100586,108.51880645751952
2302,-150.5290985107422,-28.690643310546875,-6.086687088012695,95.13370513916016
2303,-155.7873992919922,-32.774612426757805,-11.83491325378418,82.26097106933594
2304,-147.3726348876953,-26.18490982055664,-6.599053382873535,96.67828369140624
2305,-156.75978088378906,-20.69473648071289,-6.479376792907715,108.01766204833984
2306,-150.51788330078125,-24.85350608825684,-3.3416006565093994,105.81859588623048
2307,-156.3932647705078,-43.68016052246094,-16.543447494506836,85.70541381835938
2308,-159.2206268310547,-27.31061935424805,-18.099245071411133,97.74415588378906
2309,-138.25100708007812,-24.65903091430664,-8.637298583984375,124.27874755859376
2310,-149.72128295898438,-36.35369873046875,-20.82937240600586,102.03382110595705
2311,-160.45480346679688,-40.490028381347656,-24.84976577758789,96.3678741455078
2312,-156.12025451660156,-34.558544158935554,-24.079345703125,106.86203002929688
2313,-149.4781951904297,-19.6774845123291,-11.045794486999512,133.52751159667972
2314,-137.82839965820312,-30.53067398071289,-11.427264213562012,112.3896026611328
2315,-154.08575439453125,-36.23776245117188,-21.46141624450684,90.86273956298828
2316,-160.1256866455078,-33.919021606445305,-26.951589584350586,98.3948974609375
2317,-139.58988952636722,-18.53307342529297,-4.048441886901856,117.49082946777344
2318,-151.13870239257812,-29.042192459106445,-9.418937683105467,99.00076293945312
2319,-155.0693359375,-35.841331481933594,-13.308433532714846,91.2105484008789
2320,-143.41207885742188,-29.81635284423828,-11.098153114318848,96.69324493408205
2321,-146.3105010986328,-23.45852279663086,-6.097907066345215,105.29875183105469
2322,-148.6329803466797,-28.507387161254886,-9.493736267089844,96.06494140625
2323,-150.3234100341797,-27.67338943481445,-11.113112449645996,95.50021362304688
2324,-156.9841766357422,-32.879329681396484,-11.32254695892334,103.08099365234376
2325,-144.02915954589844,-18.099245071411133,-0.14772604405879974,123.7476806640625
2326,-159.59835815429688,-29.64057731628418,-11.517022132873535,112.69253540039062
2327,-158.8466339111328,-30.53067398071289,-15.163424491882324,103.11465454101562
2328,-166.19554138183594,-37.10541915893555,-23.05087280273437,103.94490814208984
2329,-147.54466247558594,-18.9856014251709,-12.530534744262695,124.7724151611328
2330,-153.5172882080078,-42.42355346679688,-21.633451461791992,109.22190856933594
2331,-158.4689178466797,-49.27131271362305,-32.456722259521484,94.08653259277344
2332,-150.55902099609375,-38.28722763061523,-31.028079986572266,101.83934783935548
2333,-146.78546142578125,-22.78160095214844,-26.65987777709961,117.81620025634766
2334,-154.46722412109375,-25.12277793884277,-23.664216995239254,105.26883697509766
2335,-147.76905822753906,-31.95931434631348,-30.287580490112305,90.13346099853516
2336,-156.1875762939453,-35.4299430847168,-29.143171310424805,90.75054168701172
2337,-144.8145294189453,-19.722362518310547,-11.76385498046875,106.05795288085938
2338,-141.7291259765625,-29.85375213623047,-13.648764610290527,92.6915512084961
2339,-158.1173553466797,-30.717668533325195,-16.094659805297848,83.68212890625
2340,-147.62693786621094,-30.74384689331055,-20.070173263549805,94.50914001464844
2341,-135.17308044433594,-21.117345809936523,-4.545848369598389,114.52134704589844
2342,-136.62789916992188,-28.87763786315918,3.128426313400269,111.65283966064452
2343,-151.5500946044922,-38.997806549072266,-16.330272674560547,97.05227661132812
2344,-152.00262451171875,-27.46395492553711,-11.389864921569824,104.4161376953125
2345,-138.378173828125,-10.76156234741211,0.5591150522232056,127.8840103149414
2346,-149.99429321289062,-23.1406307220459,-4.852519989013672,115.68445587158205
2347,-161.07936096191406,-45.85304260253906,-23.51462173461914,88.11017608642578
2348,-164.67340087890625,-28.00998115539551,-23.64925765991211,105.41094970703124
2349,-148.718994140625,-18.73128890991211,-11.075714111328123,123.1268539428711
2350,-149.32859802246094,-28.0585994720459,-19.800899505615234,109.8389892578125
2351,-160.83253479003906,-42.59933090209961,-28.35405158996582,93.98181915283205
2352,-164.4415283203125,-37.89827728271485,-35.841331481933594,88.1176528930664
2353,-147.29408264160156,-19.93179702758789,-22.09345817565918,109.17703247070312
2354,-152.22328186035156,-25.16017723083496,-20.75457572937012,94.5839385986328
2355,-159.67689514160156,-40.92011642456055,-25.44814872741699,81.6326675415039
2356,-151.31448364257812,-24.034467697143555,-24.03820610046387,81.35965728759766
2357,-142.39108276367188,-20.107572555541992,-13.484209060668945,99.3971939086914
2358,-159.0186767578125,-25.38457107543945,-11.408564567565918,88.1176528930664
2359,-153.14703369140625,-35.21302795410156,-22.56842613220215,75.18133544921875
2360,-143.0006866455078,-24.846025466918945,-19.93927574157715,85.4885025024414
2361,-140.45755004882812,-20.189849853515625,-11.812474250793455,107.76708984375
2362,-139.9339599609375,-25.257413864135746,-10.312773704528807,107.00788879394531
2363,-156.27359008789062,-37.50558853149414,-21.72320938110352,88.78709411621094
2364,-149.44827270507812,-29.25536727905273,-16.842639923095707,105.61664581298828
2365,-131.91561889648438,-23.60063934326172,-8.106233596801758,124.09548950195312
2366,-141.02975463867188,-31.11783790588379,-12.26126194000244,107.9503402709961
2367,-165.3802490234375,-42.09070587158203,-23.95218849182129,92.16422271728516
2368,-156.3895263671875,-44.24488830566406,-24.17284393310547,100.73233795166016
2369,-143.03060913085938,-24.76000785827637,-16.218076705932614,121.91513061523438
2370,-146.54237365722656,-34.491226196289055,-17.392404556274414,111.64910125732422
2371,-157.34693908691406,-51.83314514160156,-28.52234649658203,84.9836196899414
2372,-161.49822998046875,-38.11518859863281,-25.3883113861084,89.83800506591797
2373,-151.32943725585938,-19.905616760253906,-10.937337875366213,113.84068298339844
2374,-154.65420532226562,-33.13738250732422,-19.16885757446289,95.21598052978516
2375,-157.62742614746094,-42.9995002746582,-22.740461349487305,78.85765838623047
2376,-151.5126953125,-28.77666091918945,-24.03820610046387,85.42118835449219
2377,-143.9281768798828,-17.796314239501953,-13.143877983093262,103.27920532226562
2378,-148.74142456054688,-26.63743782043457,-13.416891098022461,83.3604965209961
2379,-159.17575073242188,-31.6676025390625,-19.59894561767578,72.25299835205078
2380,-157.50775146484375,-26.1213321685791,-17.69907569885254,80.58175659179688
2381,-141.7552947998047,-14.32568645477295,-5.899692058563232,104.02344512939452
2382,-147.275390625,-28.93373680114746,-6.168964862823486,92.6504135131836
2383,-144.8257598876953,-32.980308532714844,-15.769288063049315,89.22466278076172
2384,-156.7298583984375,-29.651796340942386,-23.03217315673828,91.64811706542969
2385,-138.06027221679688,-9.886425971984863,-0.7984686493873596,120.10501861572266
2386,-144.16004943847656,-28.802839279174805,-15.470096588134766,97.53472137451172
2387,-162.81092834472656,-40.36286926269531,-18.630311965942386,86.22526550292969
2388,-156.1800994873047,-28.86267852783203,-20.4404239654541,94.44182586669922
2389,-154.85243225097656,-17.078252792358402,-14.983909606933596,109.45751953125
2390,-160.8886260986328,-24.19902229309082,-16.090919494628903,101.17364501953124
2391,-170.83676147460938,-36.35743713378906,-26.1512508392334,86.60673522949219
2392,-166.28904724121094,-19.99911499023437,-24.13544464111328,92.19414520263672
2393,-142.64540100097656,-12.033127784729006,-10.754082679748537,116.02104949951172
2394,-149.85218811035156,-22.905017852783203,-7.986556529998778,101.93284606933594
2395,-145.55130004882812,-33.264541625976555,-16.794021606445312,82.88927459716797
2396,-143.77484130859375,-30.930843353271484,-13.876898765563965,82.86683654785156
2397,-145.34933471679688,-15.492535591125488,-0.3683801591396332,107.1313018798828
2398,-149.11915588378906,-28.944955825805664,-12.837206840515135,93.98181915283205
2399,-151.8081512451172,-40.28433227539063,-18.91454315185547,85.30899047851562
2400,-156.00057983398438,-39.03894424438477,-17.104433059692386,96.47258758544922
2401,-139.35801696777344,-19.658784866333008,-2.31686806678772,114.05760192871094
2402,-152.47384643554688,-17.912250518798828,-6.05676794052124,106.13648986816406
2403,-168.215087890625,-31.64516258239746,-20.777013778686523,81.48680877685547
2404,-159.9012908935547,-25.997915267944336,-16.124578475952152,93.65270233154295
2405,-146.26187133789062,-7.369472980499268,-7.395652294158935,112.97303009033205
2406,-155.06185913085938,-18.45453643798828,-8.992588996887207,102.8079833984375
2407,-161.1354522705078,-37.53924560546875,-20.70969581604004,92.99822235107422
2408,-155.25633239746094,-31.23751449584961,-21.827926635742188,103.03985595703124
2409,-145.52137756347656,-9.61715316772461,-9.250642776489258,128.10466003417972
2410,-150.89561462402344,-34.91757583618164,-16.083438873291016,98.4958724975586
2411,-161.79368591308594,-29.453582763671875,-24.44585609436035,92.3923568725586
2412,-149.57542419433594,-18.693889617919922,-15.546764373779295,100.89315032958984
2413,-136.00706481933594,-18.0169677734375,-9.963093757629396,109.56597900390624
2414,-144.0889892578125,-25.77725982666016,-8.156722068786621,98.30513763427734
2415,-161.8983917236328,-33.72080612182617,-20.326356887817386,76.74461364746094
2416,-156.5279083251953,-26.476621627807614,-20.805063247680664,87.4743881225586
2417,-136.72886657714844,-20.204809188842773,-5.9688801765441895,114.21841430664062
2418,-151.71839904785156,-21.001407623291016,-8.751365661621094,95.98640441894531
2419,-164.50137329101562,-35.87125015258789,-26.040924072265625,78.56221008300781
2420,-158.58859252929688,-27.31435966491699,-22.551597595214844,91.77153778076172
2421,-139.06257629394528,-4.500969409942627,-0.6806617975234985,119.21865844726562
2422,-155.12918090820312,-24.51317405700684,-18.06745719909668,98.4771728515625
2423,-161.37855529785156,-37.21013641357422,-23.10884094238281,96.76055908203124
2424,-159.9611358642578,-28.26055335998535,-21.639060974121094,102.6097640991211
2425,-139.78062438964844,-23.136890411376953,-7.483539581298827,115.15338897705078
2426,-148.71151733398438,-24.109264373779297,-8.844862937927246,109.6931381225586
2427,-158.53248596191406,-31.731182098388672,-19.540977478027344,90.91510009765624
2428,-159.9424285888672,-32.251026153564446,-17.54387092590332,94.1351547241211
2429,-141.64309692382812,-13.854459762573242,-7.449880599975586,117.07569885253906
2430,-152.35043334960938,-28.526086807250977,-16.881908416748047,97.6543960571289
2431,-160.81756591796875,-25.0068416595459,-16.73231315612793,89.09002685546875
2432,-163.16622924804688,-30.75132751464844,-23.639907836914066,93.92945861816406
2433,-148.09817504882812,-15.066186904907227,-10.539037704467773,108.62726593017578
2434,-157.94532775878906,-15.33545970916748,-10.497899055480957,104.58443450927734
2435,-164.73324584960938,-32.277206420898445,-21.418407440185547,80.20028686523438
2436,-160.409912109375,-25.119037628173828,-28.30356216430664,81.21379852294922
2437,-140.21446228027344,-11.06075382232666,-7.853789806365968,104.78638458251952
2438,-151.82684326171875,-23.15933036804199,-10.232366561889648,93.84343719482422
2439,-160.11073303222656,-25.96051597595215,-14.256498336791992,86.73763275146484
2440,-172.43370056152344,-29.247886657714844,-20.67042732238769,88.77961730957031
2441,-155.1254425048828,-9.792927742004396,-2.928341627120972,118.54174041748048
2442,-162.85955810546875,-23.398683547973636,-11.560030937194824,102.07122039794922
2443,-162.0704345703125,-27.89030456542969,-20.019683837890625,94.24735260009766
2444,-157.09637451171875,-36.90346145629883,-15.0680570602417,101.37934112548828
2445,-138.56517028808594,-22.72176170349121,-4.667395114898682,121.83284759521484
2446,-137.14773559570312,-26.835651397705078,-1.207987666130066,113.68360900878906
2447,-154.9833221435547,-37.37469100952149,-11.717106819152832,92.11560821533205
2448,-150.6263427734375,-32.24728775024414,-16.186286926269528,95.07012939453124
2449,-140.1097412109375,-24.995620727539066,-5.542531967163086,115.20201110839844
2450,-143.625244140625,-33.78064727783203,-6.926294803619385,105.36233520507812
2451,-160.6642303466797,-37.670143127441406,-15.894575119018555,87.67634582519531
2452,-166.47604370117188,-35.190589904785156,-20.10944175720215,88.92546844482422
2453,-151.95774841308594,-18.996822357177734,-4.532758712768555,116.79146575927734
2454,-152.50003051757812,-24.584232330322266,-5.6472487449646,102.83415985107422
2455,-161.71888732910156,-41.10710906982422,-17.285818099975586,83.88408660888672
2456,-156.77099609375,-30.09310531616211,-13.474859237670898,92.04828643798828
2457,-146.54611206054688,-31.64516258239746,-6.974913597106934,114.46898651123048
2458,-151.0863494873047,-26.38312339782715,-2.2663793563842773,106.06917572021484
2459,-155.503173828125,-40.39278793334961,-12.80541706085205,93.25627899169922
2460,-162.9119110107422,-28.60836410522461,-14.660408020019533,99.5617446899414
2461,-143.39710998535156,-14.404224395751953,-0.2692728042602539,120.0750961303711
2462,-148.1729736328125,-29.629358291625977,-8.044525146484375,106.40202331542969
2463,-155.9108123779297,-41.98224639892578,-16.092788696289062,92.13430786132812
2464,-163.68980407714844,-32.052810668945305,-21.672719955444336,99.4981689453125
2465,-152.9525604248047,-18.727548599243164,-10.497899055480957,111.75008392333984
2466,-152.3205108642578,-29.85375213623047,-11.197260856628418,97.59455871582031
2467,-158.70452880859375,-37.288673400878906,-16.728572845458984,87.53797149658203
2468,-160.45480346679688,-35.29904556274414,-27.08809471130371,93.14781951904295
2469,-137.55912780761722,-12.923224449157715,-7.43118143081665,113.74344635009766
2470,-141.3513946533203,-37.81599807739258,-9.663901329040527,101.19608306884766
2471,-150.4617919921875,-44.577735900878906,-16.792150497436527,88.86563110351562
2472,-167.70272827148438,-37.12785720825195,-25.85392761230469,97.83016967773438
2473,-146.32919311523438,-5.099353790283203,-6.772958755493164,124.63777923583984
2474,-161.87969970703125,-22.85639762878418,-16.25734519958496,99.4158935546875
2475,-164.9090118408203,-20.784494400024414,-24.047555923461914,88.39814758300781
2476,-165.91505432128906,-31.15149688720703,-27.18907356262207,90.07362365722656
2477,-146.22447204589844,-7.930458068847656,-14.394874572753904,114.13240051269531
2478,-155.9669189453125,-23.0994930267334,-11.167341232299805,101.1287612915039
2479,-153.78282165527344,-31.11783790588379,-16.212467193603516,83.4577407836914
2480,-157.72467041015625,-29.565778732299805,-16.25734519958496,91.66681671142578
2481,-131.64260864257812,-11.543201446533205,-2.9993996620178223,112.71497344970705
2482,-143.87582397460938,-19.770980834960934,-5.35927677154541,103.70555877685548
2483,-153.977294921875,-40.35538864135742,-13.994705200195312,87.8595962524414
2484,-157.45166015625,-30.75132751464844,-17.970218658447266,92.82244873046876
2485,-150.31967163085938,-18.88462448120117,-7.476059913635254,111.43218994140624
2486,-143.6738739013672,-25.72864151000977,-9.660161972045898,98.83246612548828
2487,-162.48556518554688,-37.82347869873047,-23.75210380554199,84.38896942138672
2488,-156.71115112304688,-28.825279235839844,-19.941146850585934,95.724609375
2489,-146.512451171875,-20.89295196533203,-5.572451114654541,114.94769287109376
2490,-149.87835693359375,-19.7186222076416,-3.28737211227417,107.2098388671875
2491,-159.0149383544922,-30.62417030334473,-13.658114433288574,93.095458984375
2492,-151.10879516601562,-25.33969306945801,-20.07204246520996,95.0252456665039
2493,-137.82839965820312,-13.798360824584961,-3.2275335788726807,125.76348876953124
2494,-139.54875183105472,-23.45104217529297,-2.928341627120972,112.41204071044922
2495,-160.09576416015625,-32.045333862304695,-12.775498390197756,99.3971939086914
2496,-154.2615203857422,-22.272974014282227,-8.669088363647461,102.09365844726562
2497,-135.1917724609375,-13.38323211669922,2.4047555923461914,118.26498413085938
2498,-135.59568786621094,-23.56324005126953,-0.5348057150840759,97.3701629638672
2499,-140.25559997558594,-33.975120544433594,-12.57728385925293,82.76959228515625
2500,-141.0858612060547,-29.75651359558105,-9.686341285705566,89.58369445800781
2501,-141.27285766601562,-18.783647537231445,-2.5917506217956543,115.63209533691406
2502,-150.18502807617188,-26.12507057189941,-2.875982999801636,104.52459716796876
2503,-154.6055908203125,-40.45636749267578,-20.438552856445312,84.14213562011719
2504,-147.8251495361328,-32.699813842773445,-15.389688491821287,96.00884246826172
2505,-145.0239715576172,-22.87883758544922,-6.952474117279053,109.46126556396484
2506,-149.91949462890625,-27.93144226074219,-8.08940315246582,104.38621520996094
2507,-160.5819549560547,-36.34247970581055,-14.978299140930176,90.94127655029295
2508,-150.8843994140625,-30.755067825317386,-12.734359741210938,94.53157806396484
2509,-146.66204833984375,-19.830820083618164,-2.0083262920379643,111.29381561279295
2510,-156.99539184570312,-37.79356002807617,-10.46798038482666,97.48236083984376
2511,-159.96487426757812,-41.9373664855957,-14.903501510620115,87.0143814086914
2512,-152.90768432617188,-30.25765991210937,-19.993505477905273,90.6832275390625
2513,-136.47456359863278,-8.19973087310791,-4.375682830810547,112.7299346923828
2514,-149.2276153564453,-31.001901626586914,-6.432628154754639,104.1393814086914
2515,-158.8541259765625,-38.48918151855469,-16.85198974609375,85.05093383789062
2516,-142.45091247558594,-29.954729080200195,-13.497299194335938,98.76514434814452
2517,-144.53778076171875,-18.847225189208984,-12.809157371520994,113.09644317626952
2518,-151.60244750976562,-26.783292770385746,-15.356029510498047,101.59999084472656
2519,-158.9326629638672,-31.734920501708984,-20.576929092407227,85.87744903564453
2520,-162.05921936035156,-34.311710357666016,-20.861162185668945,88.48416137695312
2521,-158.07247924804688,-16.431249618530273,-9.720000267028807,109.87638854980469
2522,-158.36419677734375,-28.223154067993164,-11.664748191833494,103.7317352294922
2523,-149.8671417236328,-32.019153594970696,-14.241539001464846,93.72750091552734
2524,-159.50486755371094,-20.874252319335934,-11.429134368896484,94.89434814453124
2525,-158.87655639648438,-18.592912673950195,-7.928587913513184,108.02887725830078
2526,-146.44139099121094,-14.434144020080565,-6.249372959136963,99.2176742553711
2527,-170.586181640625,-34.14715576171875,-16.549057006835938,89.56499481201172
2528,-164.63226318359375,-34.16959762573242,-17.558830261230472,96.7082061767578
2529,-145.35682678222656,-25.77725982666016,-7.3002848625183105,115.25811004638672
2530,-151.70716857910156,-29.311466217041016,-12.865256309509276,107.96530151367188
2531,-164.4976348876953,-33.22714233398437,-25.55847549438477,86.80494689941406
2532,-157.6124725341797,-19.10527801513672,-27.07687568664551,94.06783294677734
2533,-145.47650146484375,-9.968703269958496,-8.852343559265137,112.03805541992188
2534,-138.87184143066406,-18.80234718322754,-7.479799747467041,105.5979461669922
2535,-152.32424926757812,-34.794158935546875,-16.90060806274414,90.54110717773438
2536,-161.06814575195312,-27.83794593811035,-19.9299259185791,90.7655029296875
2537,-140.56974792480472,-23.33136558532715,-11.911581039428713,110.72534942626952
2538,-152.38409423828125,-31.93687629699707,-20.26277732849121,98.7127914428711
2539,-162.35092163085938,-29.51342010498047,-23.871782302856445,92.72521209716795
2540,-170.03268432617188,-36.10312271118164,-32.39127349853516,91.40128326416016
2541,-154.20542907714844,-15.720669746398926,-19.84764862060547,115.4413604736328
2542,-148.86859130859375,-21.947603225708008,-12.734359741210938,103.0323715209961
2543,-161.75254821777344,-39.618629455566406,-24.055036544799805,84.36279296875
2544,-145.162353515625,-24.87594413757324,-22.5889949798584,92.56065368652344
2545,-145.39048767089844,-22.669403076171875,-15.610342025756836,104.34133911132812
2546,-144.7733917236328,-25.72490119934082,-17.78322410583496,97.24301147460938
2547,-162.9979248046875,-41.5334587097168,-35.27847671508789,81.0342788696289
2548,-158.31558227539062,-32.441761016845696,-33.65909957885742,93.8359603881836
2549,-148.23280334472656,-17.717775344848633,-18.542423248291016,114.0725555419922
2550,-152.451416015625,-26.88053131103516,-23.954059600830078,100.83331298828124
2551,-149.88209533691406,-31.663862228393555,-21.855976104736328,91.5882797241211
2552,-146.61343383789062,-30.04822540283203,-23.912919998168945,97.1083755493164
2553,-122.41627502441406,-12.687610626220705,-6.69442081451416,121.1372299194336
2554,-136.66903686523438,-31.753620147705078,-7.386302471160889,106.57032012939452
2555,-146.46009826660156,-34.24813461303711,-16.384502410888672,82.64244079589844
2556,-146.6470947265625,-31.903217315673828,-20.99953842163086,94.55402374267578
2557,-128.34027099609378,-29.03471374511719,-11.848003387451172,110.9235610961914
2558,-142.80247497558594,-29.28528594970703,-15.980592727661133,97.19438934326172
2559,-152.88523864746094,-38.87065124511719,-21.900854110717773,79.47100067138672
2560,-142.5668487548828,-32.49037933349609,-16.13018798828125,90.86273956298828
2561,-138.92045593261722,-21.25198173522949,-13.96104621887207,110.0933074951172
2562,-138.80078125,-23.55201911926269,-6.103516578674316,106.6039810180664
2563,-147.9410858154297,-38.88187026977539,-16.679954528808597,86.01956939697266
2564,-159.2655029296875,-34.034957885742195,-18.437705993652344,96.92137908935548
2565,-141.50473022460938,-23.56324005126953,-6.806617736816406,115.73307037353516
2566,-142.1517333984375,-17.306386947631836,-6.275552272796631,113.58637237548828
2567,-154.564453125,-50.41197967529297,-24.88529396057129,93.59286499023438
2568,-136.11552429199222,-43.3398323059082,-21.63532066345215,102.2095947265625
2569,-127.67083740234376,-21.25198173522949,-10.254805564880373,121.07365417480469
2570,-139.31314086914062,-31.97801399230957,-17.98891830444336,103.45872497558594
2571,-151.95401000976562,-44.05414962768555,-27.69021987915039,86.84608459472656
2572,-152.369140625,-32.00419235229492,-21.339868545532227,88.92921447753906
2573,-127.71571350097656,-15.754328727722168,-8.706486701965332,122.97725677490234
2574,-150.94796752929688,-20.84059333801269,-17.300777435302734,102.1460189819336
2575,-160.53334045410156,-42.87234497070313,-31.82280921936035,90.7655029296875
2576,-152.7132110595703,-33.35055923461914,-29.33577537536621,94.1613311767578
2577,-137.82466125488278,-20.388065338134766,-11.548810958862305,122.12456512451172
2578,-146.52366638183594,-26.005393981933594,-10.31464385986328,106.2786102294922
2579,-148.53199768066406,-38.84820938110352,-20.2590389251709,85.09580993652344
2580,-148.56192016601562,-37.479408264160156,-20.6517276763916,97.6282196044922
2581,-136.12675476074222,-22.082239151000977,-3.0255789756774902,120.22095489501952
2582,-145.9925994873047,-30.900922775268555,-9.712520599365234,107.68106842041016
2583,-144.4031524658203,-41.05475234985352,-17.82062339782715,94.74849700927734
2584,-150.19625854492188,-34.984893798828125,-17.098823547363278,99.85346221923828
2585,-136.0482177734375,-20.732135772705078,-10.310904502868652,117.47960662841795
2586,-132.71969604492188,-27.66964912414551,-10.957906723022461,111.7089385986328
2587,-153.49110412597656,-38.391944885253906,-23.26217842102051,94.11270904541016
2588,-154.36997985839844,-38.096492767333984,-20.120662689208984,102.53496551513672
2589,-134.21565246582028,-24.105525970458984,-10.94668674468994,124.56671905517578
2590,-151.7296142578125,-32.632495880126946,-14.017145156860352,111.1404800415039
2591,-159.35153198242188,-34.93253707885742,-17.278337478637695,102.78553771972656
2592,-154.4036407470703,-33.67593002319336,-17.057683944702152,101.8468246459961
2593,-135.05714416503906,-19.73358154296875,-3.6538822650909424,125.34835815429688
2594,-148.35247802734375,-31.637683868408203,-1.2304270267486572,113.44051361083984
2595,-169.8232421875,-33.346817016601555,-12.5062255859375,97.92741394042969
2596,-154.93470764160156,-23.79511260986328,-12.106056213378904,104.79386901855469
2597,-152.4140167236328,-19.95797538757324,-7.2965450286865225,113.71726989746094
2598,-150.1139678955078,-24.026987075805664,-5.654728889465332,109.79037475585938
2599,-158.0350799560547,-38.78463363647461,-18.87901496887207,91.58454132080078
2600,-145.6934051513672,-32.277206420898445,-22.544116973876953,94.86443328857422
2601,-130.71885681152344,-20.283348083496094,-8.407295227050781,114.84297943115234
2602,-150.78341674804688,-26.603778839111328,-9.82471752166748,99.64776611328124
2603,-148.9695587158203,-38.71357345581055,-19.612035751342773,89.03766632080078
2604,-153.6407012939453,-35.51596069335937,-17.697206497192386,91.66307830810548
2605,-134.78038024902344,-19.449350357055664,-5.99131965637207,119.65996551513672
2606,-135.51341247558594,-34.652042388916016,-11.070103645324707,103.54473876953124
2607,-163.297119140625,-38.68739318847656,-22.60395622253418,89.6397933959961
2608,-147.76531982421875,-32.41184234619141,-21.620361328125,94.52410125732422
2609,-132.88050842285156,-32.651195526123054,-12.416467666625975,115.4338836669922
2610,-134.55598449707028,-30.639129638671875,-14.308856964111328,105.09305572509766
2611,-157.8368682861328,-44.83578872680664,-26.25783729553223,81.52046966552734
2612,-150.9666748046875,-44.85074996948242,-18.79299736022949,95.69468688964844
2613,-143.3877716064453,-30.661569595336914,-15.823516845703125,111.57991790771484
2614,-146.78733825683594,-32.931690216064446,-14.04332447052002,102.83602905273438
2615,-152.17279052734375,-38.06283187866211,-17.27459716796875,87.79041290283203
2616,-150.60577392578125,-34.476268768310554,-21.76995849609375,94.87752532958984
2617,-124.89769744873048,-14.026494979858398,-6.496206283569336,122.175048828125
2618,-136.93643188476562,-24.449596405029297,-9.525525093078613,99.10734558105469
2619,-138.94102478027344,-35.500999450683594,-17.839323043823242,82.37503814697266
2620,-158.6278533935547,-34.14715576171875,-23.651126861572266,84.46189880371094
2621,-142.89410400390625,-17.84867286682129,-8.871042251586914,112.6383056640625
2622,-142.4079132080078,-29.01975440979004,-11.735806465148926,100.42378997802734
2623,-146.01690673828125,-42.31509780883789,-23.74462509155273,86.64226531982422
2624,-145.01087951660156,-40.27311325073242,-19.91122817993164,89.48458862304688
2625,-129.5164794921875,-24.92082405090332,-10.273505210876463,113.10953521728516
2626,-151.75392150878906,-25.78848075866699,-13.549657821655273,102.81732940673828
2627,-154.28582763671875,-32.44550323486328,-20.26277732849121,83.4932632446289
2628,-158.4633026123047,-33.97886276245117,-27.07313537597656,79.48035430908203
2629,-139.52444458007812,-19.20999526977539,-13.22054672241211,101.78137969970705
2630,-156.06602478027344,-28.182016372680664,-20.883602142333984,95.07947540283205
2631,-150.6207275390625,-32.06777191162109,-20.131881713867188,81.63827514648438
2632,-151.0583038330078,-31.289873123168945,-17.809404373168945,94.3501968383789
2633,-139.63664245605472,-21.92516326904297,-10.583916664123537,115.88079833984376
2634,-146.5068359375,-22.71054267883301,-12.940053939819336,103.19132232666016
2635,-152.7487335205078,-40.77425765991211,-24.03259658813477,85.47541046142578
2636,-143.8739471435547,-31.74614143371582,-20.56945037841797,96.52307891845705
2637,-133.88467407226562,-17.844932556152344,-0.044878799468278885,117.06260681152344
2638,-145.63169860839844,-35.29530715942383,-12.128495216369627,102.54431915283205
2639,-152.08677673339844,-34.10227584838867,-20.296436309814453,88.42619323730469
2640,-153.21995544433594,-26.061492919921875,-19.77659034729004,91.93795776367188
2641,-146.03561401367188,-22.65444374084473,-14.024624824523926,107.07333374023438
2642,-148.126220703125,-30.57181167602539,-14.645448684692385,96.22014617919922
2643,-151.11813354492188,-29.580738067626953,-16.44808006286621,79.39807891845703
2644,-150.20933532714844,-25.77725982666016,-18.778038024902344,84.16271209716797
2645,-156.0398406982422,-14.082592964172365,-8.381115913391112,106.40763092041016
2646,-153.19752502441406,-17.089473724365234,-8.007125854492188,103.0791244506836
2647,-166.6387176513672,-31.14775657653809,-21.919553756713867,84.18141174316406
2648,-157.9210205078125,-26.8842716217041,-17.166141510009766,94.10710144042969
2649,-138.28654479980472,-11.670357704162598,-6.585963726043701,116.17999267578124
2650,-148.455322265625,-19.161376953125,-7.0310120582580575,104.97151184082031
2651,-152.21018981933594,-39.48773193359375,-15.658961296081545,90.40834045410156
2652,-141.89927673339844,-24.083086013793945,-20.99205780029297,92.3830108642578
2653,-132.7327880859375,-32.034114837646484,-9.394628524780273,111.16852569580078
2654,-134.64013671875,-32.7708740234375,-11.186040878295898,104.08889770507812
2655,-138.87370300292972,-46.13727569580078,-17.60744857788086,85.38191223144531
2656,-149.67079162597656,-37.04932022094727,-17.37557601928711,94.39507293701172
2657,-131.36398315429688,-16.655645370483402,-0.7367603182792664,116.0079574584961
2658,-139.300048828125,-25.560346603393555,-8.280138969421388,105.4315185546875
2659,-150.3365020751953,-35.53091812133789,-12.56606388092041,83.7887191772461
2660,-155.53121948242188,-38.76967239379883,-14.712766647338867,80.30686950683594
2661,-146.71253967285156,-26.054012298583984,-10.258545875549316,99.85906982421876
2662,-146.8097686767578,-31.53670692443848,-6.88515567779541,98.84929656982422
2663,-150.31031799316406,-31.054258346557614,-14.839922904968262,85.37069702148438
2664,-137.12342834472656,-33.32437896728516,-15.74497890472412,94.91492462158205
2665,-132.84498596191406,-19.161376953125,-6.436367988586426,111.1760025024414
2666,-133.68272399902344,-27.299400329589844,-8.283878326416017,101.68788146972656
2667,-153.40321350097656,-39.73082733154297,-21.35482788085937,91.99405670166016
2668,-144.8949432373047,-35.29904556274414,-12.955013275146484,103.11652374267578
2669,-137.47872924804688,-31.312313079833984,-8.141761779785156,119.38134765625
2670,-149.04249572753906,-26.17742919921875,-8.444694519042969,107.60440063476562
2671,-151.17050170898438,-39.70464706420898,-15.210172653198242,88.41871643066406
2672,-150.90122985839844,-36.38735580444336,-14.903501510620115,95.96208953857422
2673,-139.54315185546878,-20.93782997131348,-0.18325509130954745,123.56629180908205
2674,-138.96720886230472,-27.20216178894043,-1.6081570386886597,101.65422058105469
2675,-144.6481170654297,-36.6154899597168,-8.414774894714355,90.89453125
2676,-142.12741088867188,-27.59485244750977,-5.841723918914795,83.95327758789062
2677,-143.5111846923828,-13.884378433227539,0.5834243893623352,110.08021545410156
2678,-145.4447021484375,-30.343677520751953,-5.392935752868652,92.4391098022461
2679,-156.95985412597656,-36.095645904541016,-11.68344783782959,85.6137924194336
2680,-152.80482482910156,-34.524887084960945,-14.824963569641113,93.55733489990234
2681,-148.18231201171875,-19.18381690979004,-12.951273918151855,107.41366577148438
2682,-152.26254272460938,-39.09504318237305,-12.883955001831055,109.0629653930664
2683,-152.98060607910156,-41.619476318359375,-18.841615676879886,89.8959732055664
2684,-141.94790649414062,-39.77944564819336,-16.032951354980472,105.3529815673828
2685,-137.48246765136722,-23.55575942993164,-6.686941146850586,119.27288818359376
2686,-135.29461669921878,-31.61150360107422,-5.867903232574463,106.50861358642578
2687,-139.61795043945312,-33.27949905395508,-4.757152557373047,101.85243225097656
2688,-143.5037078857422,-37.748680114746094,-9.241292953491213,103.23619842529295
2689,-135.08518981933594,-20.219768524169922,-2.909642219543457,122.16383361816406
2690,-148.58248901367188,-35.79645156860352,-11.107502937316896,95.38614654541016
2691,-143.2493896484375,-37.703800201416016,-8.942100524902344,85.06028747558594
2692,-144.9024200439453,-35.946048736572266,-13.142008781433105,83.70269775390625
2693,-144.7303924560547,-19.658784866333008,0.7031012177467346,105.03508758544922
2694,-141.7197723388672,-23.08827209472656,-0.9574143886566162,99.88150787353516
2695,-149.66705322265625,-35.8936882019043,-5.576190948486328,86.21217346191406
2696,-151.82872009277344,-35.57953643798828,-18.613481521606445,86.84795379638672
2697,-128.289794921875,-13.794620513916016,-8.392335891723633,117.4777374267578
2698,-146.43577575683594,-26.846872329711914,-6.342870235443115,103.68872833251952
2699,-162.97361755371094,-36.30881881713867,-20.247817993164066,89.21905517578125
2700,-151.86611938476562,-31.80971908569336,-17.742084503173828,97.84700012207031
2701,-134.62144470214844,-18.12542533874512,-9.892035484313963,123.74954986572266
2702,-141.03536987304688,-27.546232223510746,-11.249619483947754,114.88224792480469
2703,-151.06951904296875,-43.4520263671875,-23.30331611633301,88.35887908935547
2704,-149.49876403808594,-32.269725799560554,-21.130434036254886,95.06451416015624
2705,-137.86767578125,-22.96111488342285,-3.7997384071350098,120.78006744384766
2706,-147.24734497070312,-30.612951278686523,-7.4087419509887695,110.99649047851562
2707,-143.22320556640625,-43.051856994628906,-12.049957275390625,97.98538208007812
2708,-137.70310974121094,-33.032665252685554,-14.634228706359865,93.92010498046876
2709,-134.38957214355472,-24.41967582702637,-3.915675163269043,108.54685974121094
2710,-143.98240661621094,-30.29505920410156,-1.7502732276916504,94.8326416015625
2711,-155.63967895507812,-38.88187026977539,-11.664748191833494,90.636474609375
2712,-156.75042724609375,-37.10167694091797,-16.896867752075195,96.45201873779295
2713,-135.61251831054688,-30.33993911743164,-7.105809688568115,116.21365356445312
2714,-141.9404296875,-36.6379280090332,-10.774651527404783,108.7600326538086
2715,-152.18026733398438,-44.05041122436523,-17.577529907226562,92.8205795288086
2716,-140.85211181640625,-36.49581527709961,-13.84136962890625,98.25091552734376
2717,-130.72821044921878,-19.94675636291504,-1.578237771987915,122.30220794677734
2718,-146.764892578125,-32.28094482421875,-9.031858444213867,106.31039428710938
2719,-149.36785888671875,-38.84073257446289,-13.467379570007324,96.50437927246094
2720,-151.91847229003906,-43.238853454589844,-19.178207397460934,102.7013931274414
2721,-140.16023254394528,-26.600038528442386,-10.54277801513672,122.76221466064452
2722,-148.4216766357422,-32.972827911376946,-9.379669189453123,112.2568359375
2723,-145.7812957763672,-49.43960571289063,-14.428533554077148,95.75265502929688
2724,-145.1604766845703,-34.794158935546875,-11.530111312866213,97.91058349609376
2725,-138.09207153320312,-24.01202774047852,-7.5209388732910165,116.43804168701172
2726,-150.63943481445312,-28.49616813659668,-11.451573371887207,103.59149169921876
2727,-161.16725158691406,-38.896827697753906,-25.5996150970459,84.91816711425781
2728,-156.15951538085938,-42.13184356689453,-23.019084930419922,90.96558380126952
2729,-149.16590881347656,-29.77521324157715,-15.270011901855467,112.20447540283205
2730,-137.433837890625,-38.470481872558594,-11.395475387573242,110.49908447265624
2731,-140.4033203125,-49.88091659545898,-20.861162185668945,94.88126373291016
2732,-144.393798828125,-41.83264923095703,-26.145641326904297,91.9791030883789
2733,-129.58753967285156,-26.431743621826172,-6.114736557006836,114.12678527832031
2734,-126.78634643554688,-33.04762649536133,-10.46049976348877,104.84061431884766
2735,-153.2124786376953,-39.536354064941406,-27.828596115112305,87.89512634277344
2736,-149.5735626220703,-34.70066070556641,-23.8680419921875,97.4617919921875
2737,-135.77333068847656,-26.00165367126465,-12.337929725646973,118.46133422851562
2738,-144.40501403808594,-29.13943099975586,-14.136821746826172,112.32789611816406
2739,-156.75416564941406,-42.397377014160156,-18.074935913085934,95.0682601928711
2740,-151.06204223632812,-39.06138610839844,-14.787564277648926,94.22303771972656
2741,-135.79951477050778,-22.48614883422852,-7.0534515380859375,113.00481414794922
2742,-151.3013916015625,-28.27177429199219,-5.030165672302246,104.9303741455078
2743,-139.99942016601562,-31.316051483154297,-8.455913543701174,94.58580780029295
2744,-153.466796875,-41.00613403320313,-11.73206615447998,93.84530639648438
2745,-134.53915405273438,-23.98958778381348,2.4870333671569824,122.80335235595705
2746,-138.57450866699222,-35.59449768066406,-2.63288950920105,110.46168518066406
2747,-154.75706481933594,-38.67991638183594,-10.052850723266602,90.44573974609376
2748,-151.0882110595703,-41.1931266784668,-17.65606689453125,92.83927917480469
2749,-139.73388671875,-25.1826171875,-4.18120813369751,113.32644653320312
2750,-144.34518432617188,-34.88391494750977,-0.8826164007186891,106.54601287841795
2751,-151.3986358642578,-40.190834045410156,-9.215113639831543,86.41038513183594
2752,-148.1636199951172,-30.99816131591797,-10.01545238494873,92.05389404296876
2753,-135.00665283203122,-21.420276641845703,-3.7212004661560063,108.83483123779295
2754,-134.85331726074222,-23.21916961669922,-0.7367603182792664,104.96028900146484
2755,-156.41383361816406,-31.331012725830078,-16.870689392089847,88.429931640625
2756,-140.22006225585938,-29.07585144042969,-16.691173553466793,94.73540496826172
2757,-149.16590881347656,-19.363332748413086,-8.650388717651367,114.07442474365234
2758,-148.5899658203125,-26.49532127380371,-4.069011211395264,112.82156372070312
2759,-159.92933654785156,-35.91986846923828,-17.99639892578125,94.52223205566406
2760,-156.7279815673828,-42.06826400756836,-20.95465850830078,95.92843627929688
2761,-143.27931213378906,-26.29710578918457,-9.327310562133787,113.55458068847656
2762,-139.64411926269528,-38.02917098999024,-11.432873725891113,106.26177978515624
2763,-145.88601684570312,-49.794898986816406,-22.304763793945312,86.28323364257812
2764,-135.60502624511722,-46.78801727294922,-22.45809936523437,95.18793487548828
2765,-135.91545104980472,-31.53296661376953,-14.391135215759276,114.03328704833984
2766,-142.50514221191406,-42.92844009399414,-16.055391311645508,100.4499740600586
2767,-146.81724548339844,-46.47760772705078,-23.972759246826172,85.66614532470703
2768,-147.67369079589844,-45.30327987670898,-29.376914978027344,88.57579040527344
2769,-129.56509399414062,-21.951343536376953,-15.430827140808105,110.5290069580078
2770,-138.52215576171878,-36.33125686645508,-17.513952255249027,98.0639190673828
2771,-149.56982421875,-46.8553352355957,-22.63387489318848,85.36322021484375
2772,-147.83824157714844,-32.774612426757805,-22.90688705444336,83.43342590332031
2773,-133.63410949707028,-25.36213111877441,-7.236706256866455,98.77075958251952
2774,-147.83824157714844,-38.63877487182617,-15.284971237182615,89.0918960571289
2775,-159.72738647460938,-39.13244247436523,-25.43132019042969,86.42534637451172
2776,-148.86297607421875,-39.25960159301758,-26.80012321472168,99.12230682373048
2777,-127.24261474609376,-33.642269134521484,-16.46303939819336,119.25418853759766
2778,-147.33335876464844,-30.08562469482422,-11.657268524169922,114.7625732421875
2779,-144.75656127929688,-47.60331726074219,-22.301023483276367,99.2457275390625
2780,-143.1521453857422,-50.89816665649414,-21.35856819152832,100.98851776123048
2781,-132.42611694335938,-29.158130645751953,-7.311504364013673,126.48341369628906
2782,-137.269287109375,-41.825172424316406,-14.417314529418945,111.23584747314452
2783,-143.43264770507812,-45.69222640991211,-20.288957595825195,98.0826187133789
2784,-137.91255187988278,-42.54697036743164,-18.063716888427734,101.74024200439452
2785,-136.96261596679688,-30.231481552124023,-9.035598754882812,116.09771728515624
2786,-143.5448455810547,-31.77606010437012,-14.918460845947266,99.31678009033205
2787,-152.77491760253906,-38.76593399047852,-15.385948181152346,91.2161636352539
2788,-151.79879760742188,-34.39398956298828,-17.99639892578125,88.54586791992188
2789,-132.9085693359375,-26.46914100646973,-7.988426208496094,99.967529296875
2790,-143.0362091064453,-22.946155548095703,-11.67222785949707,91.53778839111328
2791,-145.8411407470703,-39.97391891479492,-20.37871551513672,77.11673736572266
2792,-136.70455932617188,-37.35224914550781,-20.509611129760746,89.16669464111328
2793,-131.53976440429688,-24.47577476501465,-10.3258638381958,112.09602355957031
2794,-128.76475524902344,-27.920223236083984,-5.5350518226623535,110.97779083251952
2795,-140.5379638671875,-42.21038055419922,-17.166141510009766,93.33668518066406
2796,-155.72943115234375,-28.35779190063477,-17.929080963134766,98.06765747070312
2797,-132.46725463867188,-29.550819396972656,-7.023531913757324,114.20158386230469
2798,-131.71928405761722,-30.51945304870605,-3.448187828063965,116.95040893554688
2799,-136.85789489746094,-50.9879264831543,-13.979745864868164,96.68763732910156
2800,-137.05610656738278,-37.2961540222168,-12.753058433532715,97.95919799804688
2801,-130.63096618652344,-26.345726013183594,-3.4182684421539307,112.98611450195312
2802,-139.10557556152344,-28.477468490600586,-0.5198460817337036,107.77643585205078
2803,-155.09739685058594,-45.77824401855469,-22.55533599853516,78.22000885009766
2804,-146.54049682617188,-34.39398956298828,-19.5372371673584,77.31494903564453
2805,-138.78021240234378,-20.39928436279297,-7.782732009887695,101.46722412109376
2806,-148.52264404296875,-22.90875625610352,-7.5732975006103525,97.22618103027344
2807,-144.20680236816406,-41.062232971191406,-14.024624824523926,82.46105194091797
2808,-142.76319885253906,-36.90346145629883,-17.409235000610348,95.44598388671876
2809,-129.49777221679688,-25.69872283935547,-10.217406272888184,115.906982421875
2810,-138.94850158691406,-32.0902099609375,-12.741839408874512,105.59981536865234
2811,-155.47512817382812,-37.32233047485352,-21.541824340820312,100.74168395996094
2812,-151.16676330566406,-36.278900146484375,-24.82545661926269,97.82830047607422
2813,-134.14273071289062,-23.024694442749023,-9.974312782287598,111.33308410644531
2814,-137.9443359375,-22.740461349487305,-8.693397521972656,102.08805084228516
2815,-138.75215148925778,-42.54323196411133,-18.70137023925781,85.40435791015625
2816,-137.98173522949222,-36.9371223449707,-13.222415924072266,88.68424987792969
2817,-128.40385437011722,-22.329072952270508,-4.6505656242370605,108.70393371582031
2818,-141.8562774658203,-17.485902786254886,-1.0378222465515137,104.3282470703125
2819,-164.01144409179688,-34.165855407714844,-22.396390914916992,79.19985961914062
2820,-145.73829650878906,-30.72140884399414,-11.614259719848633,88.23545837402344
2821,-143.47938537597656,-23.963409423828125,-14.70715618133545,99.48507690429688
2822,-143.40834045410156,-26.59629821777344,-5.967010498046875,97.45057678222656
2823,-142.0956268310547,-35.83011245727539,-18.319900512695312,84.69751739501953
2824,-144.91177368164062,-36.2153205871582,-14.729596138000488,85.9990005493164
2825,-135.2852783203125,-20.88547134399414,-7.21239709854126,107.49220275878906
2826,-132.47286987304688,-32.591358184814446,-6.456937313079834,103.21002197265624
2827,-138.69979858398438,-48.18300247192383,-16.678083419799805,85.69232940673828
2828,-140.10226440429688,-38.54528045654297,-20.548879623413086,93.40026092529295
2829,-131.53788757324222,-30.54189300537109,-8.300707817077638,111.13860321044922
2830,-137.84336853027344,-37.84965896606445,-10.57082748413086,101.47096252441406
2831,-149.54551696777344,-44.248626708984375,-20.668556213378906,83.82238006591797
2832,-146.83033752441406,-34.405208587646484,-17.669157028198242,87.64081573486328
2833,-139.51509094238278,-25.81839942932129,-9.849026679992676,103.71490478515624
2834,-137.55538940429688,-27.037607192993164,-4.1568989753723145,102.14788818359376
2835,-141.57952880859375,-37.34477233886719,-17.781354904174805,84.98175048828125
2836,-145.17730712890625,-37.0081787109375,-14.007795333862305,92.98139190673828
2837,-137.49554443359378,-24.049427032470703,-3.92502498626709,117.9190444946289
2838,-140.88763427734375,-37.139076232910156,-5.129272937774658,104.53020477294922
2839,-136.08561706542972,-45.6473503112793,-14.52390193939209,91.79584503173828
2840,-151.16114807128906,-36.42475509643555,-22.669403076171875,89.05449676513672
2841,-133.59109497070312,-25.26115417480469,-5.802454948425293,110.82071685791016
2842,-135.89488220214844,-34.27431488037109,-10.578307151794434,108.78994750976562
2843,-147.21929931640625,-43.388450622558594,-24.48325538635254,92.23341369628906
2844,-152.47010803222656,-44.21870803833008,-25.1826171875,95.42354583740234
2845,-129.64924621582028,-19.658784866333008,-7.373212814331055,123.26335906982422
2846,-137.2225341796875,-24.217721939086914,-15.698229789733887,107.24910736083984
2847,-148.2066192626953,-46.14475631713867,-28.87763786315918,84.95930480957031
2848,-144.0029754638672,-42.9995002746582,-27.49761390686035,91.15258026123048
2849,-141.51968383789062,-21.91768455505371,-12.754928588867188,112.76546478271484
2850,-136.4595947265625,-25.46684837341309,-7.537768363952638,106.658203125
2851,-152.37661743164062,-36.31255722045898,-13.229896545410154,86.99007415771484
2852,-147.96726989746094,-38.45552062988281,-16.558406829833984,87.64081573486328
2853,-143.59158325195312,-32.53900146484375,-3.506156206130981,116.24730682373048
2854,-147.1519775390625,-34.756759643554695,-7.496629238128662,102.62285614013672
2855,-151.9390411376953,-43.75870132446289,-14.609919548034668,88.87498474121094
2856,-149.4856719970703,-36.230281829833984,-19.617645263671875,90.98428344726562
2857,-131.81089782714844,-25.17513656616211,-3.681931495666504,115.05054473876952
2858,-143.44198608398438,-27.561193466186523,-1.8232011795043943,102.91456604003906
2859,-140.90634155273438,-54.52587127685547,-11.12059211730957,86.96763610839844
2860,-130.93951416015622,-35.80767059326172,-8.027695655822754,89.57808685302734
2861,-129.64924621582028,-34.99611282348633,-0.5628549456596375,109.2462158203125
2862,-122.7266845703125,-38.84820938110352,1.5165294408798218,109.8446044921875
2863,-156.82334899902344,-54.38375473022461,-13.630064964294435,84.71995544433594
2864,-150.4991912841797,-40.22823333740234,-12.889565467834473,93.93506622314452
2865,-137.97425842285156,-30.20530128479004,-7.017922401428223,113.31148529052734
2866,-134.44378662109378,-34.57350540161133,-10.671804428100586,101.30641174316406
2867,-145.6260986328125,-41.062232971191406,-17.07077407836914,75.14955139160156
2868,-138.66987609863278,-38.40690231323242,-14.04893398284912,77.58048248291016
2869,-131.418212890625,-28.24933433532715,-3.9773836135864262,93.26936340332031
2870,-141.90863037109375,-29.72285461425781,-4.826340675354004,89.95955657958984
2871,-148.95834350585938,-40.53490447998047,-14.939030647277832,79.35693359375
2872,-146.01878356933594,-27.419076919555664,-13.076560020446776,91.33209991455078
2873,-118.75865173339844,-25.07041931152344,4.141939163208009,118.90637969970705
2874,-129.76144409179688,-22.620784759521484,1.4192920923233032,110.6262435913086
2875,-146.2917938232422,-40.50498580932617,-15.791728019714355,82.40869903564453
2876,-144.8668975830078,-27.78184700012207,-19.767240524291992,87.83155059814453
2877,-131.73236083984378,-16.423770904541016,-6.913205146789551,103.31473541259766
2878,-125.01924896240234,-24.37853813171387,2.731997013092041,108.58051300048828
2879,-147.20059204101562,-34.06488037109375,-12.653951644897461,80.34426879882812
2880,-149.98681640625,-25.051719665527344,-13.136398315429688,88.80018615722656
2881,-137.13652038574222,-8.255828857421875,0.9854636192321776,109.11157989501952
2882,-131.95675659179688,-8.846733093261719,3.9848635196685787,106.44503021240234
2883,-143.0231170654297,-14.254629135131836,-7.893058776855469,84.48433685302734
2884,-133.60980224609378,-24.12796401977539,-9.92756462097168,76.74274444580078
2885,-109.30792236328124,1.3070950508117676,5.215290546417236,101.28397369384766
2886,-125.76348876953124,-20.601238250732425,-1.4454712867736816,92.51390838623048
2887,-140.58096313476562,-27.03386688232422,-10.828880310058594,81.26054382324219
2888,-136.94204711914062,-15.26440143585205,-5.907172203063965,88.59822845458984
2889,-123.7476806640625,-8.637298583984375,1.7297037839889526,108.4234390258789
2890,-124.8509521484375,-11.270188331604006,0.06544824689626694,103.183837890625
2891,-143.47564697265625,-27.06378555297852,-12.231343269348145,89.0881576538086
2892,-143.80850219726562,-17.661678314208984,-4.934797763824463,94.29035949707031
2893,-133.84541320800778,0.267402857542038,6.281161785125732,115.55916595458984
2894,-139.14859008789062,-27.007686614990234,-2.515082836151123,108.86848449707031
2895,-139.99380493164062,-29.079591751098636,-6.408318519592285,96.2949447631836
2896,-138.29963684082028,-25.27237319946289,-9.92756462097168,99.02133178710938
2897,-122.08716583251952,-17.403623580932614,3.1022469997406006,117.50391387939452
2898,-125.04542541503906,-18.66023063659668,3.240623235702514,104.05149841308594
2899,-134.17451477050778,-40.183353424072266,-11.01213550567627,82.17308044433594
2900,-138.28466796875,-26.89923095703125,-12.743709564208984,76.09200286865234
2901,-123.02961730957031,-9.467556953430176,3.005009651184082,98.87547302246094
2902,-122.41627502441406,-11.445963859558105,7.4218316078186035,95.96957397460938
2903,-146.57603454589844,-35.05221176147461,-16.285394668579098,74.41278839111328
2904,-140.64454650878906,-22.58712577819824,-11.113112449645996,87.03121185302734
2905,-120.54632568359376,-12.063047409057615,-0.948064625263214,114.0033721923828
2906,-125.66250610351562,-31.839637756347656,-11.827433586120605,114.0819091796875
2907,-146.2955322265625,-38.8220329284668,-14.666017532348633,94.20807647705078
2908,-144.8481903076172,-33.51885223388672,-21.97378158569336,94.89996337890624
2909,-136.19779968261722,-13.330873489379885,-7.197437286376952,120.55941772460938
2910,-140.82032775878906,-31.106616973876953,-2.5824010372161865,113.21051025390624
2911,-150.77967834472656,-41.36890411376953,-14.06389331817627,96.32485961914062
2912,-136.24269104003906,-21.652151107788086,-5.00959587097168,103.33343505859376
2913,-116.11080169677734,-21.573612213134766,5.230249881744385,117.90408325195312
2914,-131.59773254394528,-28.46998786926269,2.6833782196044917,108.78620910644531
2915,-147.20806884765625,-38.65373611450195,-10.092120170593262,88.54212951660156
2916,-144.69485473632812,-28.79536056518555,-3.7230703830718994,88.69920349121094
2917,-130.99560546875,-23.21916961669922,2.6422393321990967,90.54671478271484
2918,-134.69062805175778,-22.130857467651367,10.731642723083496,83.17163848876953
2919,-138.15377807617188,-33.05510711669922,2.776875734329224,69.17318725585939
2920,-141.10829162597656,-29.30772590637207,-3.334120750427246,74.08741760253906
2921,-134.810302734375,-16.03108024597168,8.109972953796388,98.69596099853516
2922,-136.85603332519528,-15.915143966674805,7.174998283386231,92.30821228027344
2923,-144.42184448242188,-35.112049102783196,-2.0588150024414062,87.1434097290039
2924,-138.59507751464844,-36.278900146484375,-7.97533655166626,94.13702392578124
2925,-153.4574432373047,-22.70306205749512,-7.354513168334961,115.02810668945312
2926,-149.78860473632812,-9.48625659942627,-3.0498883724212646,112.45879364013672
2927,-155.58544921875,-35.86751174926758,-16.25173568725586,98.04521942138672
2928,-146.7293701171875,-37.64396286010742,-18.189002990722656,104.21604919433594
2929,-135.30770874023438,-19.299753189086914,-1.6810849905014038,127.08927917480469
2930,-141.0372314453125,-26.012874603271484,0.6974913477897644,124.70696258544922
2931,-141.96099853515625,-29.54707908630371,-6.748649597167969,98.9914093017578
2932,-144.810791015625,-27.12736511230469,-7.904278755187987,106.1159210205078
2933,-132.14375305175778,-25.46684837341309,4.130719661712647,117.22716522216795
2934,-137.54417419433594,-21.693288803100586,7.459230422973633,105.12110900878906
2935,-147.9597930908203,-31.854597091674805,3.8801462650299072,72.71113586425781
2936,-152.3953094482422,-25.956775665283203,0.9667641520500184,65.83719635009766
2937,-136.58302307128906,-3.607133388519287,13.173797607421875,85.2323226928711
2938,-135.22917175292972,-18.712589263916016,7.174998283386231,71.88087463378906
2939,-154.63551330566406,-25.85205841064453,-7.597606658935548,52.19778442382813
2940,-161.07188415527344,-30.10058403015137,-21.913944244384766,63.7353744506836
2941,-133.86784362792972,-13.73852252960205,-6.557914733886719,97.21495819091795
2942,-138.56517028808594,-24.15040397644043,-8.798114776611328,94.709228515625
2943,-145.9589385986328,-42.326316833496094,-20.29082679748535,87.1022720336914
2944,-155.6639862060547,-39.68220901489258,-24.05316734313965,94.64190673828124
2945,-127.1996078491211,-29.61813735961914,-9.003808975219727,124.55362701416016
2946,-134.66444396972656,-28.77666091918945,-15.440176963806152,120.15924835205078
2947,-153.18817138671875,-52.19591522216797,-22.71054267883301,100.4537124633789
2948,-142.4770965576172,-37.789817810058594,-20.930349349975586,112.2381362915039
2949,-136.48951721191406,-30.051965713500977,-4.250396251678467,131.02365112304688
2950,-134.94868469238278,-34.67074203491211,-3.046148538589477,124.28809356689452
2951,-140.913818359375,-45.86052322387695,-13.932997703552244,101.45226287841795
2952,-137.66758728027344,-35.16440963745117,-8.188510894775389,95.60306549072266
2953,-132.77206420898438,-23.948450088500977,0.974243938922882,100.76412200927734
2954,-132.52522277832028,-26.97028923034668,5.024555683135986,91.10770416259766
2955,-142.92214965820312,-28.71682167053223,-7.68736457824707,59.13155746459961
2956,-142.59303283691406,-36.39483642578125,-10.200576782226562,49.21708297729492
2957,-132.39059448242188,-15.743108749389648,4.833820819854736,73.69098663330078
2958,-135.831298828125,-14.206009864807127,4.235436916351318,82.14690399169922
2959,-147.97474670410156,-38.07779312133789,-16.760360717773438,63.204307556152344
2960,-145.93650817871094,-37.0268783569336,-19.976675033569336,73.89668273925781
2961,-133.87907409667972,-27.015167236328125,-16.315313339233402,98.83059692382812
2962,-127.43148040771484,-35.86003112792969,-13.854459762573242,97.72732543945312
2963,-142.89222717285156,-49.37602996826172,-27.938922882080078,83.25017547607422
2964,-142.12554931640625,-46.82915878295898,-22.478668212890625,99.35792541503906
2965,-127.89148712158205,-38.36950302124024,-7.945417404174805,127.40343475341795
2966,-142.67530822753906,-47.435020446777344,-6.0679874420166025,123.94776153564452
2967,-144.6499786376953,-48.43357467651367,-8.25956916809082,111.56495666503906
2968,-145.69715881347656,-45.17986297607422,-8.95145034790039,117.02146911621094
2969,-135.55828857421878,-22.48240852355957,-2.7432165145874023,134.34468078613278
2970,-132.29708862304688,-39.338138580322266,4.527148723602295,119.31402587890624
2971,-148.883544921875,-42.41607666015625,-5.5182223320007315,99.95256805419922
2972,-153.23678588867188,-45.03400421142578,-7.017922401428223,90.80477142333984
2973,-128.12710571289062,-24.73008918762207,5.4621238708496085,111.1722640991211
2974,-138.44548034667972,-24.01950836181641,8.730796813964844,95.80501556396484
2975,-149.3846893310547,-35.54214096069336,-7.485409736633301,66.51786041259766
2976,-145.7869110107422,-34.77172088623047,-14.198530197143555,64.18416595458984
2977,-132.4803466796875,-23.589418411254886,-3.498676300048828,88.28034210205078
2978,-128.871337890625,-22.317853927612305,4.085840702056885,86.8629150390625
2979,-149.59039306640625,-39.6373291015625,-17.725255966186523,69.71173858642578
2980,-142.92962646484375,-40.16091537475586,-16.599546432495114,88.53839111328125
2981,-144.42184448242188,-27.523794174194336,-14.841793060302734,119.1644287109375
2982,-143.15402221679688,-39.38301467895508,-9.003808975219727,124.81168365478516
2983,-148.64419555664062,-53.56471633911133,-16.476129531860348,115.96308135986328
2984,-150.23739624023438,-53.456260681152344,-17.556961059570312,114.77752685546876
2985,-132.85433959960938,-44.596435546875,-5.705217361450195,133.82858276367188
2986,-146.71066284179688,-50.17262649536133,-6.75986909866333,129.45663452148438
2987,-157.84808349609375,-51.47037124633789,-15.27562141418457,107.6417999267578
2988,-160.2416229248047,-52.36795043945313,-14.00405502319336,105.44274139404295
2989,-142.9109344482422,-36.29011917114258,4.011042594909668,129.19483947753906
2990,-146.07862854003906,-30.83360481262207,7.077760696411133,118.38653564453124
2991,-153.6818389892578,-41.331504821777344,-4.886179447174072,90.7000503540039
2992,-146.62838745117188,-39.60367202758789,-10.410011291503906,78.9567642211914
2993,-135.44235229492188,-25.23123550415039,0.20756444334983826,92.08755493164062
2994,-134.05110168457028,-30.13424301147461,-2.631019592285156,71.34233093261719
2995,-143.7449188232422,-35.51596069335937,-13.947957038879395,46.9619255065918
2996,-145.01275634765625,-29.93228912353516,-10.481069564819336,54.09391403198242
2997,-128.46369934082028,-21.794267654418945,-1.5464485883712769,83.63164520263672
2998,-131.33219909667972,-32.48290252685547,0.22252404689788816,88.68424987792969
2999,-137.862060546875,-50.52417755126953,-8.001516342163086,85.07524108886719
3000,-138.14630126953122,-45.108802795410156,-11.004655838012695,97.8881378173828
3001,-127.02757263183594,-32.98778915405273,-9.179584503173828,117.91156768798828
3002,-143.3746795654297,-43.08551788330078,-16.464910507202152,119.99842834472656
3003,-149.72128295898438,-54.65676879882813,-25.88945770263672,111.5163345336914
3004,-152.62718200683594,-47.82023239135742,-21.59979248046875,117.6385498046875
3005,-141.3925323486328,-37.905757904052734,-13.701123237609865,136.22586059570312
3006,-143.3821563720703,-39.20724105834961,-14.770734786987305,125.7242202758789
3007,-150.76097106933594,-48.60560989379883,-22.938676834106445,108.87970733642578
3008,-144.46298217773438,-39.83554458618164,-17.175491333007812,102.43585968017578
3009,-130.48324584960938,-31.106616973876953,-5.420985221862793,108.84978485107422
3010,-139.57493591308594,-36.05824661254883,-6.6065330505371085,92.162353515625
3011,-148.5058135986328,-49.63034057617188,-15.327980041503904,67.10128784179689
3012,-133.46768188476562,-32.602577209472656,-11.307587623596193,73.37310028076172
3013,-129.91104125976562,-27.478914260864254,-2.3056483268737797,88.49725341796875
3014,-129.76144409179688,-26.94410896301269,2.2869489192962646,78.44440460205078
3015,-140.37527465820312,-41.59142684936523,-8.384855270385742,64.40481567382811
3016,-134.77290344238278,-29.821962356567386,-8.583070755004883,75.58338165283203
3017,-113.72100830078124,-25.25928497314453,3.9418544769287114,99.07369232177734
3018,-117.89473724365234,-29.63870620727539,0.9050557613372804,100.92494201660156
3019,-134.22688293457028,-39.77009582519531,-5.744486331939697,98.43042755126952
3020,-148.07199096679688,-46.69639205932617,-21.339868545532227,100.92120361328124
3021,-134.84770202636722,-33.98821258544922,-7.438661098480225,125.79901123046876
3022,-140.40145874023438,-37.077369689941406,-6.354090213775635,123.16986846923828
3023,-153.49110412597656,-49.46391677856445,-22.44688034057617,100.2517547607422
3024,-156.59896850585938,-36.007755279541016,-26.867441177368164,105.12110900878906
3025,-141.8488006591797,-26.29897689819336,-14.22283935546875,119.63565826416016
3026,-138.55767822265622,-35.57392883300781,-10.168787956237793,115.99299621582031
3027,-148.73394775390625,-38.65560531616211,-14.589349746704102,89.3499526977539
3028,-155.6303253173828,-34.646434783935554,-16.040430068969727,79.2335205078125
3029,-132.14375305175778,-27.41346740722656,-11.889142036437988,84.57035827636719
3030,-128.10092163085938,-26.542070388793945,-8.216560363769531,81.94120788574219
3031,-141.56082153320312,-35.86938095092773,-18.50128555297852,62.98739624023438
3032,-139.9339599609375,-33.22901153564453,-19.95236587524414,70.06702423095703
3033,-120.4191665649414,-23.856821060180664,-5.1274027824401855,96.85218811035156
3034,-131.00308227539062,-25.438798904418945,-7.505979061126709,98.9876708984375
3035,-140.8764190673828,-36.63605880737305,-11.380515098571776,90.22882843017578
3036,-143.45321655273438,-38.2928352355957,-12.05369758605957,98.95027160644531
3037,-133.96882629394528,-29.84066200256348,-7.07589054107666,116.06779479980469
3038,-138.12385559082028,-30.648479461669922,-4.5851173400878915,116.3482894897461
3039,-150.76846313476562,-46.69639205932617,-15.303670883178713,94.96353912353516
3040,-143.91322326660156,-47.06290054321289,-17.936559677124023,100.8725814819336
3041,-139.08126831054688,-28.19136619567871,-6.668241500854492,130.5374755859375
3042,-148.76760864257812,-34.590335845947266,-13.052250862121582,111.38543701171876
3043,-153.8164825439453,-45.60808181762695,-30.78685569763184,85.92046356201172
3044,-150.40194702148438,-42.85551452636719,-28.296083450317386,90.58786010742188
3045,-145.47650146484375,-25.962385177612305,-15.176513671875,107.41366577148438
3046,-133.35174560546878,-39.89351272583008,-4.626256465911865,100.14330291748048
3047,-151.06016540527344,-46.95818328857422,-13.598276138305664,74.77182006835938
3048,-148.18792724609375,-39.51578140258789,-16.967926025390625,78.92311096191406
3049,-133.14604187011722,-22.974205017089844,-2.371096611022949,98.25839233398438
3050,-130.397216796875,-30.32684898376465,-4.981546878814697,96.77365112304688
3051,-146.2581329345703,-41.613868713378906,-14.488372802734375,79.34571838378906
3052,-143.86085510253906,-35.719783782958984,-11.081323623657227,88.0484619140625
3053,-126.70967864990234,-27.11801528930664,-1.525879144668579,115.37965393066406
3054,-127.5810775756836,-25.29668235778809,5.497653007507324,111.88285064697266
3055,-150.8769073486328,-42.24216842651367,-9.069257736206056,93.95002746582031
3056,-152.80670166015625,-45.63425827026367,-16.926786422729492,93.3254623413086
3057,-135.13194274902344,-25.13212776184082,-9.454466819763184,120.07322692871094
3058,-145.31568908691406,-29.234798431396484,-7.786471843719482,113.55458068847656
3059,-151.6510772705078,-51.34508514404297,-19.780330657958984,96.02193450927734
3060,-143.34475708007812,-36.14239501953125,-16.616374969482422,104.54890441894531
3061,-143.3410186767578,-33.59926223754883,-12.034997940063475,110.16249084472656
3062,-127.38286590576172,-30.442785263061523,-2.4010157585144043,104.1636962890625
3063,-138.87184143066406,-39.51578140258789,-11.945240020751953,78.04423522949219
3064,-153.9249267578125,-39.73269653320313,-21.044416427612305,77.2251968383789
3065,-135.52462768554688,-33.69649887084961,-7.625656127929687,100.1919174194336
3066,-127.07618713378906,-36.06759643554688,-7.554597854614258,93.39278411865234
3067,-141.0484619140625,-42.29079055786133,-11.657268524169922,81.56721496582031
3068,-145.60365295410156,-45.20791244506836,-15.655220985412598,79.2933578491211
3069,-130.00453186035156,-29.70976448059082,-1.6642554998397827,111.01892852783205
3070,-136.62042236328122,-27.518184661865234,3.784778833389282,107.3613052368164
3071,-148.06825256347656,-38.6743049621582,-6.417668342590332,96.60535430908205
3072,-149.55673217773438,-37.163387298583984,-7.65931510925293,104.39930725097656
3073,-131.71366882324222,-20.15058135986328,3.586564064025879,122.30594635009766
3074,-138.64370727539062,-23.86056137084961,0.8639168739318848,119.7665557861328
3075,-162.0330352783203,-49.36668014526367,-17.319477081298828,97.8058624267578
3076,-152.70571899414062,-42.735836029052734,-17.37557601928711,108.70767211914062
3077,-142.59677124023438,-30.7344970703125,-13.77031135559082,128.65255737304688
3078,-142.8660430908203,-33.442184448242195,-14.465932846069336,113.79019927978516
3079,-146.16464233398438,-44.17943954467773,-23.73340606689453,92.6223602294922
3080,-147.0323028564453,-39.36992645263672,-20.012205123901367,93.55359649658205
3081,-131.6239013671875,-23.385595321655273,-10.034152030944824,106.77788543701172
3082,-136.20155334472656,-26.261577606201172,-10.927988052368164,103.26985931396484
3083,-152.92263793945312,-43.49503707885742,-19.76911163330078,78.42570495605469
3084,-152.30555725097656,-32.675506591796875,-21.339868545532227,88.00732421875
3085,-138.75590515136722,-25.76043128967285,-13.074689865112305,98.81189727783205
3086,-132.92539978027344,-30.45026588439941,-9.50308609008789,102.55179595947266
3087,-138.81199645996094,-40.85466766357422,-14.910981178283693,90.90200805664062
3088,-143.7150115966797,-44.42253112792969,-16.799631118774414,91.43307495117188
3089,-119.5963897705078,-28.434459686279297,0.8115583062171936,120.11062622070312
3090,-139.31687927246094,-35.050342559814446,-3.0592381954193115,112.84026336669922
3091,-144.84071350097656,-38.51723098754883,-9.076737403869627,99.69451141357422
3092,-148.4160614013672,-35.52904891967773,-8.246479034423826,111.38543701171876
3093,-141.62440490722656,-32.11825942993164,-5.209680557250977,124.4189910888672
3094,-145.37925720214844,-27.447126388549805,-0.5535051822662354,120.00216674804688
3095,-156.348388671875,-47.11151885986328,-15.75993824005127,90.62151336669922
3096,-145.00901794433594,-46.15410614013672,-15.004478454589846,91.0403823852539
3097,-133.73695373535156,-35.70482635498047,-3.6800615787506095,110.23728942871094
3098,-134.03240966796878,-36.879154205322266,-6.724339962005615,104.99768829345705
3099,-145.64105224609375,-39.8785514831543,-11.406694412231445,90.92818450927734
3100,-138.5015869140625,-43.85032653808594,-12.487525939941404,94.57833099365234
3101,-131.2012939453125,-31.871427536010746,-5.090003967285156,110.2859115600586
3102,-141.28407287597656,-29.466670989990234,-2.255159616470337,102.57423400878906
3103,-150.65626525878906,-49.3143196105957,-11.754505157470705,85.5950927734375
3104,-155.85472106933594,-43.031288146972656,-14.626749038696287,87.57349395751953
3105,-138.22483825683594,-27.64159965515137,-7.3002848625183105,103.93181610107422
3106,-130.37104797363278,-25.72677230834961,2.8647632598876958,111.90902709960938
3107,-150.82081604003906,-41.95045852661133,-12.689480781555176,85.24353790283203
3108,-141.07089233398438,-39.212852478027344,-11.806863784790039,91.77340698242188
3109,-141.0110626220703,-23.58754920959473,-2.0831241607666016,115.91819763183594
3110,-144.09274291992188,-24.881553649902344,1.069611430168152,114.55687713623048
3111,-149.45201110839844,-37.79916763305664,-11.144902229309082,96.04811096191406
3112,-156.5503387451172,-34.313583374023445,-12.337929725646973,93.53115844726562
3113,-140.67073059082028,-33.195350646972656,-4.734713554382324,117.67594909667969
3114,-140.9175567626953,-32.06216049194336,-6.653282165527344,101.5345458984375
3115,-146.13845825195312,-38.83138275146485,-15.041877746582033,90.9132308959961
3116,-146.2992706298828,-45.69035720825195,-17.659807205200195,99.07369232177734
3117,-133.79678344726562,-31.86394691467285,-7.363862991333008,117.60863494873048
3118,-130.54681396484378,-34.08170700073242,-3.2537128925323486,110.88803100585938
3119,-145.76446533203125,-53.83211898803711,-15.501885414123535,90.85338592529295
3120,-151.49026489257812,-41.310935974121094,-20.52831077575684,96.6352767944336
3121,-143.7636260986328,-28.857067108154297,-9.390889167785645,111.0899887084961
3122,-142.58929443359375,-31.81532859802246,-9.084217071533203,105.38290405273438
3123,-148.70028686523438,-44.17943954467773,-17.573789596557614,82.95845794677734
3124,-150.94049072265625,-38.064701080322266,-23.01160430908203,91.33209991455078
3125,-151.66976928710938,-23.43047332763672,-11.20847988128662,111.05632781982422
3126,-153.27418518066406,-20.550750732421875,-7.756552696228027,103.11278533935548
3127,-159.13087463378906,-34.82594680786133,-14.910981178283693,88.25789642333984
3128,-156.12399291992188,-27.27882957458496,-12.49500560760498,91.92300415039062
3129,-140.85772705078125,-20.868640899658203,-3.0554983615875244,114.38858032226562
3130,-136.53439331054688,-20.02342414855957,2.1841015815734863,112.70562744140624
3131,-153.62948608398438,-40.11042785644531,-14.839922904968262,91.68364715576172
3132,-153.4200439453125,-39.69155883789063,-16.077829360961914,97.27853393554688
3133,-140.43136596679688,-24.99749183654785,-5.16854190826416,122.59766387939452
3134,-147.1370086669922,-31.32914161682129,-6.18205451965332,114.6054916381836
3135,-157.30953979492188,-47.074119567871094,-21.60540199279785,94.5521469116211
3136,-141.32521057128906,-46.14662551879883,-18.7855167388916,96.80357360839844
3137,-134.03240966796878,-24.960092544555664,-4.873089790344238,123.43914031982422
3138,-143.06051635742188,-34.69879150390625,-2.804924964904785,123.26335906982422
3139,-157.13002014160156,-49.47887802124024,-17.824363708496094,94.43995666503906
3140,-158.30809020996094,-34.22382354736328,-21.814836502075195,97.0354461669922
3141,-135.88365173339844,-15.299930572509766,-8.025825500488281,113.73035430908205
3142,-155.19276428222656,-15.284971237182615,-12.37532901763916,104.17117309570312
3143,-161.23643493652344,-31.733051300048828,-24.13357353210449,79.91044616699219
3144,-153.83517456054688,-27.92957305908203,-20.83124351501465,81.09599304199219
3145,-146.83407592773438,-6.630842685699463,-8.055744171142576,100.98477935791016
3146,-148.5806121826172,-10.131388664245604,-1.1219699382781982,103.75230407714844
3147,-161.68896484375,-22.5478572845459,-10.344563484191896,85.34825897216797
3148,-164.1909637451172,-19.799030303955078,-11.215959548950195,92.34187316894531
3149,-141.00357055664062,-8.022085189819336,0.063578300178051,116.86065673828124
3150,-146.40773010253906,-19.00243186950684,-1.8362908363342283,115.78730010986328
3151,-148.6329803466797,-34.65765380859375,-16.276044845581055,94.19312286376952
3152,-153.91371154785156,-37.29802322387695,-27.83981513977051,93.78173065185548
3153,-144.70608520507812,-25.94742584228516,-17.29703712463379,113.58824157714844
3154,-141.86375427246094,-21.339868545532227,-14.409834861755373,108.1429443359375
3155,-147.0622100830078,-43.14722442626953,-26.66174697875977,83.73262023925781
3156,-143.6215057373047,-32.21923828125,-23.475351333618164,88.43741607666016
3157,-137.70124816894528,-28.60275459289551,-12.786718368530273,105.7082748413086
3158,-141.6730194091797,-25.80156898498535,-3.997952938079834,99.3317413330078
3159,-153.5995635986328,-31.57971572875977,-18.318029403686523,83.852294921875
3160,-160.1182098388672,-32.51095199584961,-20.76766395568848,87.06487274169922
3161,-143.08670043945312,-18.968772888183594,-11.567510604858398,103.69246673583984
3162,-139.45899963378906,-18.332988739013672,-1.2416467666625977,107.1369171142578
3163,-161.090576171875,-40.25254440307617,-16.593936920166016,81.51860046386719
3164,-160.27154541015625,-30.09123420715332,-18.24323272705078,78.4705810546875
3165,-140.80162048339844,-16.324663162231445,-6.844017028808594,104.35816955566406
3166,-151.18357849121094,-14.738945960998535,-3.208834171295166,106.23185729980469
3167,-150.51414489746094,-25.54725646972656,-11.896621704101562,90.71501159667969
3168,-148.86485290527344,-21.541824340820312,-12.438907623291016,98.99515533447266
3169,-142.2190399169922,-19.58211708068848,-3.2013542652130127,118.56230926513672
3170,-129.69786071777344,-27.58176231384277,-0.03365910053253174,126.77886962890624
3171,-138.25848388671878,-50.125877380371094,-13.272905349731445,100.9959945678711
3172,-152.71694946289062,-41.61012649536133,-23.954059600830078,98.60993957519531
3173,-125.41193389892578,-29.62000846862793,-12.622162818908693,115.80226135253906
3174,-142.02830505371094,-36.25085067749024,-12.079876899719238,105.55493927001952
3175,-150.56275939941406,-45.87735366821289,-24.993751525878906,79.1288070678711
3176,-151.0115509033203,-53.56284713745117,-27.95201301574707,82.72284698486328
3177,-134.13711547851562,-32.787704467773445,-13.205586433410645,100.9324188232422
3178,-140.30047607421878,-33.374866485595696,-14.652928352355955,90.36346435546876
3179,-155.85098266601562,-41.08654022216797,-19.16324806213379,75.91622924804688
3180,-155.1217041015625,-28.359661102294922,-19.604555130004886,89.36116790771484
3181,-141.08212280273438,-15.427087783813475,-9.596583366394043,108.3823013305664
3182,-145.8691864013672,-14.09194278717041,-5.123662948608398,109.19385528564452
3183,-158.10240173339844,-21.76247787475586,-11.10376262664795,94.26417541503906
3184,-162.94183349609375,-41.22865676879883,-20.894821166992188,90.41956329345705
3185,-136.90838623046878,-19.29788398742676,-9.364709854125977,111.834228515625
3186,-138.42678833007812,-23.755844116210934,0.32163140177726746,116.99903106689452
3187,-153.41256713867188,-40.29742050170898,-15.95067310333252,89.4733657836914
3188,-144.11891174316406,-31.58345603942871,-15.288710594177244,99.5860595703125
3189,-132.95156860351562,-15.105456352233887,-6.589703559875487,120.87730407714844
3190,-134.15956115722656,-30.86539459228516,-4.820731163024902,114.33248138427734
3191,-139.91900634765622,-39.13057327270508,-11.051403999328613,96.5380401611328
3192,-147.8326416015625,-35.480430603027344,-27.596721649169922,84.71995544433594
3193,-143.3410186767578,-36.55752182006836,-19.59333610534668,99.81419372558594
3194,-141.171875,-38.38633346557617,-15.801076889038086,98.0414810180664
3195,-157.698486328125,-48.944068908691406,-28.23624420166016,76.73152923583984
3196,-153.42752075195312,-30.592382431030273,-27.81737518310547,83.56806182861328
3197,-143.09791564941406,-34.31732177734375,-11.118722915649414,107.41740417480469
3198,-136.40724182128906,-37.67201232910156,-9.013158798217773,103.44189453125
3199,-150.51788330078125,-35.28595733642578,-9.641462326049805,89.94085693359375
3200,-146.3890380859375,-30.55498313903809,-15.195213317871096,90.97306823730469
3201,-136.20529174804688,-20.65920829772949,-1.4623008966445925,117.61237335205078
3202,-151.28456115722656,-37.4887580871582,-7.577037334442139,109.45191192626952
3203,-149.15281677246094,-39.26520919799805,-8.699007034301758,101.1119384765625
3204,-150.4056854248047,-42.66103744506836,-16.13766860961914,93.37034606933594
3205,-133.58735656738278,-31.06734848022461,0.6694421172142029,122.0927734375
3206,-133.66963195800778,-27.73135757446289,6.316690921783447,122.50041961669922
3207,-146.3329315185547,-40.97808456420898,-2.861023426055908,99.61971282958984
3208,-135.65925598144528,-34.52301788330078,-4.5028395652771,98.50896453857422
3209,-127.41278076171876,-29.496591567993164,0.9723739624023438,116.18746948242188
3210,-135.97341918945312,-33.393566131591804,-1.5969372987747192,107.02845764160156
3211,-139.37672424316406,-41.82704162597656,-11.717106819152832,89.30506896972656
3212,-138.72972106933594,-32.757781982421875,-8.190381050109862,89.01335906982422
3213,-144.8145294189453,-41.37451171875,-7.401261806488037,98.26960754394531
3214,-140.32666015625,-34.75489044189453,-5.370496273040772,97.93302154541016
3215,-160.4585418701172,-45.45100402832031,-19.574636459350586,80.42280578613281
3216,-159.63201904296875,-41.30158615112305,-28.133398056030273,77.0961685180664
3217,-147.8251495361328,-25.82961845397949,-15.320500373840332,110.46355438232422
3218,-139.93771362304688,-23.593158721923828,-8.532581329345701,106.83585357666016
3219,-159.9835662841797,-52.5025863647461,-23.27900695800781,90.7468032836914
3220,-148.01214599609375,-38.97910690307617,-20.99392890930176,88.85441589355469
3221,-140.48373413085938,-30.58677101135254,-12.504355430603027,106.21876525878906
3222,-134.73550415039062,-26.82069206237793,-5.910912036895753,106.05421447753906
3223,-141.8936767578125,-51.66484832763672,-13.861939430236815,83.37545776367188
3224,-143.14280700683594,-43.22389221191406,-10.92985725402832,87.75862121582031
3225,-118.96434783935548,-26.360685348510746,3.0648479461669917,107.55765533447266
3226,-133.13856506347656,-46.57110595703125,-1.782062292098999,96.69698333740234
3227,-137.41700744628906,-46.249473571777344,-8.697136878967285,86.94332122802734
3228,-138.31459045410156,-45.15742111206055,-10.279114723205566,80.11426544189453
3229,-135.9547119140625,-30.051965713500977,-1.3781530857086182,95.67598724365234
3230,-145.77195739746094,-19.509187698364254,-1.4753905534744265,97.6319580078125
3231,-140.84649658203125,-51.60501098632813,-10.567087173461914,84.65450286865234
3232,-146.92384338378906,-51.09264373779297,-20.07391357421875,80.70143127441406
3233,-136.73635864257812,-44.83205032348633,-9.804147720336914,102.66586303710938
3234,-140.94000244140625,-40.96125411987305,-10.144478797912598,100.46306610107422
3235,-156.46432495117188,-46.91517639160156,-26.921669006347656,80.77249145507812
3236,-147.98971557617188,-51.82940292358398,-31.53296661376953,83.68587493896484
3237,-141.7216339111328,-31.80597877502441,-17.781354904174805,109.4986572265625
3238,-126.9228515625,-38.807071685791016,-4.796421527862549,119.3121566772461
3239,-155.82106018066406,-64.28701019287111,-21.046287536621094,93.8396987915039
3240,-145.3231658935547,-34.82781982421875,-10.649365425109863,99.78240203857422
3241,-138.40434265136722,-42.670387268066406,-11.154252052307127,115.3740463256836
3242,-137.46563720703122,-40.21701431274414,-0.8508272171020508,109.1545867919922
3243,-142.33497619628906,-44.46179962158203,-0.7012312412261963,95.81063079833984
3244,-144.99404907226562,-41.49605941772461,-0.495536744594574,94.22865295410156
3245,-133.97630310058594,-18.712589263916016,12.167764663696287,112.67009735107422
3246,-142.30506896972656,-31.02433967590332,7.335813999176025,103.61579895019531
3247,-150.00177001953125,-34.87643814086914,2.82923436164856,82.26097106933594
3248,-148.2066192626953,-37.79729843139648,-4.37755298614502,80.6715087890625
3249,-146.82659912109375,-21.42401695251465,5.832374095916747,104.46101379394531
3250,-130.19900512695312,-11.984509468078613,10.978476524353027,107.41179656982422
3251,-156.59521484375,-35.11952972412109,-9.407718658447266,87.27991485595703
3252,-160.7203369140625,-46.30931091308594,-28.761699676513672,80.43215942382812
3253,-135.65177917480472,-24.04194641113281,-9.542354583740234,110.1568832397461
3254,-154.45225524902344,-25.926856994628906,-12.867125511169435,110.42615509033205
3255,-154.50836181640625,-37.22883224487305,-17.478422164916992,100.2798080444336
3256,-163.3868865966797,-40.32546997070313,-28.46250915527344,88.73099517822266
3257,-152.60475158691406,-21.72320938110352,-16.767841339111328,116.55585479736328
3258,-147.12953186035156,-23.080793380737305,-10.092120170593262,116.95227813720705
3259,-142.4359588623047,-39.36805725097656,-22.02614021301269,98.13684844970705
3260,-161.16537475585938,-32.76339340209961,-24.060646057128906,98.55945587158205
3261,-153.5397186279297,-11.947110176086426,-4.908618927001953,113.75466918945312
3262,-150.573974609375,-22.718021392822266,-1.755882978439331,108.2308349609375
3263,-167.95703125,-35.100830078125,-18.791128158569336,88.18122863769531
3264,-158.92892456054688,-29.375043869018555,-3.7829089164733887,97.9087142944336
3265,-144.57891845703125,-13.480469703674315,9.688210487365724,114.13240051269531
3266,-128.99101257324222,-29.72659492492676,6.782308578491211,107.69229125976562
3267,-143.1577606201172,-20.85929107666016,7.578907489776611,95.04768371582031
3268,-161.32994079589844,-36.21158218383789,-9.60967254638672,84.89759826660156
3269,-141.0409698486328,-13.592666625976562,4.493489742279053,113.4853973388672
3270,-134.95989990234378,-21.39409828186035,3.3416006565093994,115.49372100830078
3271,-155.67520141601562,-28.85893821716309,-17.366226196289062,90.3428955078125
3272,-150.65626525878906,-49.8846549987793,-25.605224609375,97.25796508789062
3273,-145.76820373535156,-20.06643295288086,-10.697983741760254,122.9884796142578
3274,-138.7596435546875,-24.187803268432614,-11.079453468322754,119.74598693847656
3275,-161.29254150390625,-41.181907653808594,-18.035667419433594,102.2282943725586
3276,-147.8700408935547,-34.940013885498054,-24.083086013793945,101.26714324951172
3277,-142.38734436035156,-19.561546325683594,-14.946510314941404,118.94564819335938
3278,-137.26742553710938,-31.40580940246582,-3.09102725982666,119.58142852783205
3279,-164.68463134765625,-34.375289916992195,-19.213735580444336,97.21682739257812
3280,-158.3417510986328,-24.748788833618164,-14.254629135131836,98.38367462158205
3281,-147.14450073242188,-20.63115882873535,-6.685070991516112,116.18933868408205
3282,-147.5371856689453,-18.009489059448242,3.969903707504273,106.20006561279295
3283,-161.3897705078125,-35.112049102783196,-10.080900192260742,82.44422149658203
3284,-143.0829620361328,-31.574106216430664,-3.8315274715423584,88.02041625976562
3285,-133.39662170410156,-12.440776824951172,6.198884010314941,105.65030670166016
3286,-139.63102722167972,-24.35983848571777,3.928764820098877,106.6862564086914
3287,-136.45585632324222,-39.36057662963867,3.3416006565093994,104.9023208618164
3288,-139.41786193847656,-48.42235565185547,-8.861693382263184,94.79711151123048
3289,-133.89402770996094,-5.312527656555176,2.679638385772705,120.737060546875
3290,-137.72367858886722,-30.414735794067386,-0.974243938922882,112.97303009033205
3291,-151.3855438232422,-52.42778778076172,-13.35705280303955,98.353759765625
3292,-141.79269409179688,-35.86376953125,-16.311573028564453,105.2015151977539
3293,-127.77555084228516,-36.82866668701172,-14.25088882446289,119.9965591430664
3294,-127.19213104248048,-33.15234375,-9.7742280960083,119.54777526855469
3295,-142.9408416748047,-52.738197326660156,-19.62138557434082,97.44122314453124
3296,-144.4330596923828,-36.47337341308594,-18.5742130279541,101.3419418334961
3297,-142.24148559570312,-41.294105529785156,-8.861693382263184,121.3765869140625
3298,-138.27719116210938,-32.87559127807617,-9.280561447143556,110.42241668701172
3299,-151.28082275390625,-38.29470443725586,-19.67000389099121,93.4731903076172
3300,-152.04376220703125,-42.38615798950195,-19.59146499633789,93.48815155029295
3301,-137.62271118164062,-23.03591346740723,0.267402857542038,114.7793960571289
3302,-141.3813018798828,-33.20844268798828,0.3646402359008789,112.92440795898438
3303,-149.0443572998047,-15.698229789733887,-1.7895420789718628,93.63774871826172
3304,-146.11602783203125,-44.56277847290039,-4.575767517089844,94.02295684814452
3305,-126.84805297851562,-21.4090576171875,1.6511658430099487,109.50988006591795
3306,-126.7396011352539,-26.622478485107425,7.470449924468994,105.25013732910156
3307,-141.171875,-28.80657958984375,-4.2952752113342285,97.4711456298828
3308,-152.84410095214844,-36.39109802246094,-11.50206184387207,88.15131378173828
3309,-127.51750183105469,-20.664817810058594,-2.4814236164093018,118.23880767822266
3310,-131.83334350585938,-32.72599411010742,-2.002716541290283,112.2848892211914
3311,-149.30615234375,-38.53779983520508,-19.655044555664066,94.2211685180664
3312,-144.93421936035156,-38.59763717651367,-16.004901885986328,88.86189270019531
3313,-158.76809692382812,-23.67169761657715,-7.388172149658202,117.93587493896484
3314,-134.09223937988278,-23.48470115661621,2.0737745761871342,124.72005462646484
3315,-148.31507873535156,-40.460105895996094,-12.055567741394045,98.4771728515625
3316,-170.33187866210938,-31.59654426574707,-24.872203826904297,94.64751434326172
3317,-148.0420684814453,-19.625125885009766,-13.345832824707033,113.36571502685548
3318,-141.9722137451172,-20.283348083496094,-7.960377216339111,112.34846496582031
3319,-144.7247772216797,-22.14955711364746,-25.0479793548584,86.34494018554688
3320,-147.3988037109375,-32.797054290771484,-18.12542533874512,94.08279418945312
3321,-129.67915344238278,14.007795333862305,-0.9405848383903505,114.71955871582031
3322,-157.8331298828125,-12.930704116821287,-6.1727046966552725,109.86143493652344
3323,-141.0484619140625,-35.5122184753418,-7.4218316078186035,78.50611114501953
3324,-153.87631225585938,-26.65987777709961,-13.790881156921387,70.16239166259766
3325,-135.46478271484378,-18.117944717407227,0.7236706614494324,92.67658996582031
3326,-127.9849853515625,9.920084953308104,20.586278915405273,109.28548431396484
3327,-148.2178497314453,-28.65324401855469,-3.8053481578826895,73.49838256835938
3328,-166.28530883789062,-14.998868942260742,-11.558160781860352,70.80565643310547
3329,-149.83721923828125,-7.810781002044678,-4.669265270233153,104.8200454711914
3330,-132.07269287109378,-28.103477478027344,-0.7722893357276917,112.31106567382812
3331,-151.84555053710938,-44.73107528686523,-12.26126194000244,102.28439331054688
3332,-159.00746154785156,-53.6881332397461,-19.767240524291992,108.77311706542969
3333,-157.6124725341797,-24.449596405029297,-8.775674819946289,129.46598815917972
3334,-146.78919982910156,-24.65903091430664,-1.4080723524093628,133.55743408203122
3335,-160.8848876953125,-58.89407348632813,-30.79246711730957,107.4678955078125
3336,-164.8379669189453,-46.0699577331543,-26.61499786376953,113.8893051147461
3337,-154.2353515625,-35.762794494628906,-20.010334014892575,124.89956665039062
3338,-152.9600372314453,-38.623817443847656,-22.41883087158203,110.1980209350586
3339,-160.0359344482422,-35.59449768066406,-23.1518497467041,98.23782348632812
3340,-156.183837890625,-41.903709411621094,-28.892597198486328,82.87057495117188
3341,-151.58375549316406,-38.242347717285156,-15.54863452911377,109.00125122070312
3342,-151.49400329589844,-34.71187973022461,-21.581092834472656,94.95419311523438
3343,-142.03579711914062,-40.78173828125,-14.70715618133545,81.53543090820312
3344,-152.81044006347656,-35.691734313964844,-17.8000545501709,73.79757690429688
3345,-129.41737365722656,-20.83685302734375,-4.7552828788757315,98.694091796875
3346,-137.69003295898438,-20.459123611450195,3.053628206253052,95.6236343383789
3347,-150.27853393554688,-45.09010314941406,-5.585540771484375,79.63929748535156
3348,-153.26296997070312,-43.96065521240234,-11.861092567443848,88.82449340820312
3349,-135.63308715820312,-28.054859161376953,-3.8801462650299072,110.4560775756836
3350,-151.7557830810547,-17.740215301513672,-7.750942707061768,112.33724212646484
3351,-158.73818969726562,-48.23162078857422,-16.99223518371582,97.84513092041016
3352,-161.3523712158203,-47.12834930419922,-18.390958786010746,104.19922637939452
3353,-147.42872619628906,-15.107325553894045,-6.236283302307129,130.58795166015622
3354,-152.38035583496094,-47.779090881347656,-13.42811107635498,124.15906524658205
3355,-159.49363708496094,-43.1004753112793,-20.40676498413086,105.59420776367188
3356,-160.93724060058594,-55.12051391601562,-27.983800888061523,94.33336639404295
3357,-137.40579223632812,-37.66266250610352,-7.227356433868407,119.81704711914062
3358,-139.38046264648438,-40.58726501464844,-15.19334316253662,106.87699127197266
3359,-155.7537384033203,-46.31304931640625,-24.367319107055664,81.7934799194336
3360,-161.53936767578125,-47.24802780151367,-25.650104522705078,78.9623794555664
3361,-143.99923706054688,-38.82950973510742,-9.576013565063477,99.15036010742188
3362,-141.7141571044922,-34.981155395507805,-4.833820819854736,89.42662048339844
3363,-154.08575439453125,-44.30846405029297,-20.91164970397949,59.219444274902344
3364,-158.7568817138672,-40.07489776611328,-23.30144691467285,55.02327728271485
3365,-129.09573364257812,-18.21144294738769,2.7806155681610107,83.9214859008789
3366,-131.758544921875,-29.008533477783203,3.1508657932281494,87.88951873779297
3367,-150.70114135742188,-33.02518844604492,-10.331473350524902,69.4854736328125
3368,-144.74722290039062,-36.89972305297852,-7.4442710876464835,92.40731811523438
3369,-139.31314086914062,-29.9360294342041,-8.805594444274902,119.64126586914062
3370,-148.2814178466797,-30.605470657348636,-10.458630561828613,107.61749267578124
3371,-162.99044799804688,-47.65193557739258,-19.004301071166992,101.98519897460938
3372,-154.9459228515625,-39.89164352416992,-22.119638442993164,114.13987731933594
3373,-138.65492248535156,-26.46166229248047,-10.802700996398926,126.38804626464844
3374,-154.141845703125,-12.519314765930176,-14.830573081970215,118.5716552734375
3375,-154.6841278076172,-56.23126602172852,-13.596405982971193,112.26618957519531
3376,-161.5244140625,-57.22982025146485,-25.115297317504886,113.11888122558594
3377,-138.08645629882812,-35.34018325805664,-9.303001403808594,122.3826141357422
3378,-149.47071838378906,-30.676528930664066,-1.6025471687316897,120.94649505615234
3379,-155.30120849609375,-48.347557067871094,-9.448857307434082,91.59575653076172
3380,-160.3650360107422,-39.40545654296875,-11.221570014953613,82.40308380126953
3381,-137.60774230957028,-32.654937744140625,-2.3617467880249023,94.29222869873048
3382,-136.52317810058594,-31.256214141845703,4.0821008682250985,97.26544952392578
3383,-160.7091064453125,-48.65422821044922,-20.8518123626709,57.25225830078125
3384,-146.57229614257812,-36.08442306518555,-8.693397521972656,71.34793853759766
3385,-140.34909057617188,-33.77316665649414,-6.000669479370117,88.9179916381836
3386,-145.43162536621094,-25.0479793548584,-8.614859580993652,90.4476089477539
3387,-161.40847778320312,-42.01216506958008,-20.22724914550781,75.67874908447266
3388,-152.17840576171875,-37.329811096191406,-19.01926040649414,84.10848236083984
3389,-128.95736694335938,-32.879329681396484,-9.54609489440918,118.190185546875
3390,-132.78701782226562,-32.568920135498054,1.969057321548462,126.10755920410156
3391,-146.65457153320312,-50.53913879394531,-11.5731201171875,118.90077209472656
3392,-157.79946899414062,-48.73650741577149,-22.422569274902344,111.75756072998048
3393,-147.028564453125,-27.624771118164066,-8.936491012573242,131.582763671875
3394,-144.33583068847656,-34.69692230224609,-3.416398525238037,129.36126708984378
3395,-164.59860229492188,-40.15717697143555,-16.95109748840332,105.6241226196289
3396,-169.17623901367188,-42.13558197021485,-26.824432373046875,101.57755279541016
3397,-144.45550537109375,-21.74190902709961,-6.2549824714660645,119.60387420654295
3398,-141.92733764648438,-23.6978759765625,-4.164378643035889,110.57575225830078
3399,-170.79188537597656,-40.60222244262695,-21.109865188598636,76.09013366699219
3400,-158.3417510986328,-31.03556060791016,-8.813074111938477,81.7112045288086
3401,-152.48133850097656,-11.876051902770994,-8.753235816955566,94.46800231933594
3402,-137.18513488769528,-8.31940746307373,1.374413251876831,99.0531234741211
3403,-156.82334899902344,-50.258644104003906,-19.808380126953125,71.96128845214844
3404,-143.55792236328125,-25.900676727294922,-8.454043388366701,88.8170166015625
3405,-152.50750732421875,-30.74758720397949,-14.871711730957033,93.1178970336914
3406,-132.74214172363278,-22.48988914489746,-1.4155521392822266,116.19308471679688
3407,-146.0935821533203,-44.70489501953125,-13.925517082214355,95.0439453125
3408,-159.25428771972656,-48.04462432861328,-19.20999526977539,95.49647521972656
3409,-138.72224426269528,-27.71078872680664,-1.9129588603973389,127.25944519042969
3410,-142.92588806152344,-37.28493118286133,-9.15340518951416,123.98703002929688
3411,-161.43838500976562,-38.67991638183594,-9.29552173614502,112.26618957519531
3412,-157.5713348388672,-39.87294387817383,-14.508941650390625,114.08751678466795
3413,-146.4675750732422,-26.895490646362305,0.8508272171020508,135.6966552734375
3414,-144.91177368164062,-31.331012725830078,2.8217544555664062,132.18115234375
3415,-159.67315673828125,-47.36022186279297,-14.609919548034668,101.7682876586914
3416,-158.14353942871094,-39.16610336303711,-9.789188385009766,106.69373321533205
3417,-145.39608764648438,-17.867372512817386,3.0760676860809326,120.46405029296876
3418,-159.24867248535156,-35.91238784790039,0.16268564760684967,106.2860870361328
3419,-167.6260528564453,-43.97561264038086,-6.284902095794678,88.24855041503906
3420,-163.0820770263672,-37.2774543762207,-13.91803741455078,83.44277954101562
3421,-137.72181701660156,-28.0585994720459,-0.8396075367927551,105.48948669433594
3422,-134.50550842285156,-22.68062400817871,6.741169452667236,111.05819702148438
3423,-149.992431640625,-41.58581924438477,-13.484209060668945,88.66368103027344
3424,-148.5076904296875,-38.52658081054688,-16.464910507202152,96.07615661621094
3425,-140.85585021972656,-36.608009338378906,-1.86434018611908,120.04143524169922
3426,-131.93992614746094,-35.30652618408203,0.6002539396286011,114.6933822631836
3427,-145.7513885498047,-40.89393615722656,-9.691950798034668,98.5557098388672
3428,-152.3186492919922,-52.19591522216797,-16.726701736450195,101.96276092529295
3429,-135.99024963378906,-36.15922164916992,-2.339307308197021,119.09524536132812
3430,-131.60708618164062,-33.264541625976555,4.033482074737549,126.76577758789062
3431,-146.3385467529297,-47.41258239746094,-7.788341522216798,106.7909698486328
3432,-152.71881103515625,-41.97102737426758,-14.935290336608887,103.64197540283205
3433,-136.07626342773438,-27.938922882080078,2.8741130828857417,120.31819152832031
3434,-145.4970703125,-29.95098876953125,2.298168420791626,110.41119384765624
3435,-159.52169799804688,-34.034957885742195,-3.278022289276123,87.95684051513672
3436,-152.7898712158203,-35.51969909667969,-12.3360595703125,80.38353729248047
3437,-142.6510009765625,-28.627063751220703,-0.5665948390960693,92.64667510986328
3438,-143.32044982910156,-29.47976112365723,-1.0901808738708496,91.99967193603516
3439,-141.7609100341797,-37.18769454956055,-10.084640502929688,84.1234359741211
3440,-145.26519775390625,-40.77425765991211,-11.079453468322754,85.13695526123047
3441,-121.38219451904295,-29.64805603027344,-5.185371398925781,106.25616455078124
3442,-128.51417541503906,-34.547325134277344,2.2645094394683842,108.48514556884766
3443,-151.8175048828125,-45.86800384521485,-9.400238990783693,96.4464111328125
3444,-145.93836975097656,-36.525733947753906,-4.7552828788757315,102.15723419189452
3445,-137.63954162597656,-33.51511383056641,-4.560808181762695,124.47322082519531
3446,-150.5945587158203,-39.35309600830078,-2.485163450241089,116.29032135009766
3447,-149.8316192626953,-42.39363479614258,-5.750096321105957,107.08642578125
3448,-161.89279174804688,-48.98707962036133,-16.319053649902347,99.08677673339844
3449,-144.5209503173828,-34.59594345092773,-5.690257549285889,126.7770004272461
3450,-140.73617553710938,-23.82503318786621,3.5585148334503174,123.92345428466795
3451,-166.2161102294922,-46.8441162109375,-13.985356330871582,93.8583984375
3452,-155.6770782470703,-37.21761322021485,-12.130365371704102,92.59805297851562
3453,-147.75596618652344,-20.41050338745117,-0.2374836504459381,103.57839965820312
3454,-141.51780700683594,-7.952897071838379,11.554420471191404,104.06084442138672
3455,-148.90785217285156,-26.577598571777344,1.0415620803833008,80.87346649169922
3456,-152.58792114257812,-25.88571739196777,-4.500969409942627,76.37810516357422
3457,-138.03596496582028,-18.23014259338379,3.3603000640869136,98.61555480957031
3458,-139.71891784667972,-20.126272201538086,-2.9115121364593506,98.64173126220705
3459,-152.76744079589844,-24.670249938964844,-9.60593318939209,84.14962005615234
3460,-140.63145446777344,-28.241853713989254,-9.710650444030762,88.68985748291016
3461,-125.27542877197266,-10.193097114562988,8.805594444274902,122.95108032226562
3462,-123.46157836914062,-19.060400009155273,3.517375946044922,122.75286865234376
3463,-143.97866821289062,-37.55046463012695,-13.977875709533693,95.2646026611328
3464,-145.72520446777344,-37.7000617980957,-18.757469177246094,102.41529083251952
3465,-140.21632385253906,-21.356698989868164,-13.697383880615234,120.57998657226562
3466,-147.51661682128906,-24.52065467834473,-10.230496406555176,119.12142181396484
3467,-147.55027770996094,-27.026386260986328,-10.230496406555176,110.5420913696289
3468,-154.11753845214844,-27.366718292236328,-17.044593811035153,103.90750885009766
3469,-158.2650909423828,-26.1213321685791,-13.102739334106445,103.952392578125
3470,-143.58224487304688,-22.70306205749512,0.6825317144393921,108.2906723022461
3471,-176.38116455078125,-31.8433780670166,-12.220123291015625,81.0716781616211
3472,-158.36605834960938,-26.84313201904297,-10.181878089904783,82.94537353515625
