,T7,F8,Cz,P4
2000,-148.373046875,-5.864162921905518,-21.11173439025879,113.25164794921876
2001,-148.73582458496094,-4.712274074554443,-14.757645606994627,109.93435668945312
2002,-163.0035400390625,-5.250819683074951,-19.06600952148437,99.40280151367188
2003,-153.7659912109375,-8.08940315246582,-22.3720817565918,101.54576110839844
2004,-143.09979248046875,-2.8909425735473637,-11.15986156463623,111.33682250976562
2005,-153.86322021484375,-3.4407079219818115,-12.536144256591795,112.514892578125
2006,-144.71542358398438,0.9536744952201844,-14.933420181274414,101.8973159790039
2007,-150.24673461914062,1.3538438081741333,-11.720846176147461,108.20652770996094
2008,-150.744140625,-12.63712215423584,-17.038984298706055,108.47579956054688
2009,-145.9159393310547,0.3702501058578491,-8.317537307739258,105.82794952392578
2010,-158.7643585205078,-5.90343189239502,-12.197683334350586,94.14263153076172
2011,-142.67904663085938,7.174998283386231,-8.644779205322267,102.78553771972656
2012,-146.3067626953125,-1.8007618188858032,-10.817660331726074,105.16411590576172
2013,-145.162353515625,0.24122354388237,-5.723917007446289,106.03177642822266
2014,-155.0319366455078,-1.6399461030960083,-14.475282669067385,97.3140640258789
2015,-154.22412109375,0.6226933598518372,-11.427264213562012,105.46704864501952
2016,-143.53175354003906,5.256429195404053,-11.891012191772461,111.85479736328124
2017,-141.27659606933594,-4.87869930267334,-10.017321586608887,111.2825927734375
2018,-149.97560119628906,-5.753836154937744,-16.012382507324222,103.46620178222656
2019,-152.4102783203125,-7.6985840797424325,-17.702816009521484,107.98026275634766
2020,-154.1044464111328,-10.275375366210938,-15.20456314086914,118.09294891357422
2021,-153.77908325195312,-5.626679420471191,-19.69618225097656,109.92127227783205
2022,-157.08888244628906,-2.3580069541931152,-18.46949577331543,101.15120697021484
2023,-151.52391052246094,-5.20033073425293,-20.8630313873291,97.33650970458984
2024,-152.88897705078125,-3.128426313400269,-21.977521896362305,103.2343292236328
2025,-143.48687744140625,-0.4768372476100922,-7.627525806427003,105.40721130371094
2026,-146.69944763183594,-5.828634262084961,-5.90343189239502,107.0677261352539
2027,-146.90513610839844,-11.737675666809082,-12.006948471069336,98.34628295898438
2028,-147.3614044189453,-12.79980754852295,-14.45284366607666,107.43797302246094
2029,-137.40205383300778,-7.765902042388916,-10.365132331848145,104.37126159667969
2030,-149.45948791503906,-8.786894798278809,-11.206610679626463,101.3643798828125
2031,-151.5500946044922,-3.5547749996185303,-17.598098754882812,102.79302215576172
2032,-144.35826110839844,-2.803055047988892,-17.168010711669922,109.58467864990234
2033,-143.64768981933594,-4.2129974365234375,-13.076560020446776,112.03057098388672
2034,-151.5575714111328,-8.435344696044924,-11.685317039489744,106.87325286865234
2035,-150.17007446289062,-6.580353736877441,-12.029388427734375,112.63643646240234
2036,-141.0522003173828,-6.341000556945801,-18.11046600341797,113.9304428100586
2037,-135.10202026367188,-12.72874927520752,-7.911758422851562,114.23711395263672
2038,-143.25125122070312,-12.463216781616213,-11.76011562347412,108.2906723022461
2039,-148.68907165527344,-11.980769157409668,-19.243656158447266,98.09944915771484
2040,-141.84506225585938,-9.48625659942627,-21.308080673217773,103.93743133544922
2041,-140.6669921875,-3.8801462650299072,-17.369964599609375,103.06603240966795
2042,-141.02227783203125,-20.50026130676269,-17.366226196289062,98.48091888427734
2043,-134.63827514648438,-15.443917274475098,-19.546586990356445,102.72943878173828
2044,-131.82960510253906,-15.724409103393555,-12.885825157165527,105.60916137695312
2045,-135.45730590820312,-12.732489585876465,-11.113112449645996,107.28089904785156
2046,-147.97100830078125,-17.76265525817871,-21.293121337890625,97.50479888916016
2047,-146.52740478515625,-14.628618240356445,-27.25826072692871,103.04733276367188
2048,-143.70004272460938,-20.41424369812012,-27.003948211669922,107.09764862060548
2049,-145.26332092285156,-19.580245971679688,-17.355005264282227,121.06243133544922
2050,-151.9091339111328,-24.296260833740234,-29.93228912353516,101.13998413085938
2051,-157.16741943359375,-20.107572555541992,-27.16476249694824,107.26219940185548
2052,-157.26092529296875,-18.14786529541016,-21.09864616394043,114.46898651123048
2053,-146.37033081054688,-17.209150314331055,-11.075714111328123,124.88461303710938
2054,-142.89596557617188,-24.427156448364254,-15.720669746398926,106.2636489868164
2055,-141.57577514648438,-22.05232048034668,-14.920331001281738,107.72220611572266
2056,-138.36320495605472,-19.752281188964844,-16.932397842407227,109.2742691040039
2057,-133.20588684082028,-19.31097412109375,-19.12771797180176,107.86058807373048
2058,-138.59881591796878,-26.89923095703125,-23.50714111328125,94.00799560546876
2059,-142.82864379882812,-21.92516326904297,-19.800899505615234,97.6282196044922
2060,-141.62814331054688,-20.919130325317386,-20.07391357421875,96.88397979736328
2061,-140.4500732421875,-19.060400009155273,-12.72500991821289,101.54389190673828
2062,-139.93022155761722,-23.40990447998047,-22.61704444885254,94.04165649414062
2063,-132.64115905761722,-21.326780319213867,-17.70655632019043,106.73113250732422
2064,-140.27803039550778,-30.33245849609375,-24.535614013671875,109.97362518310548
2065,-139.64225769042972,-26.40182304382324,-14.19478988647461,116.5371551513672
2066,-151.03024291992188,-33.14860153198242,-24.0681266784668,108.4888916015625
2067,-152.86280822753906,-28.223154067993164,-27.598590850830078,108.75067901611328
2068,-156.41197204589844,-25.71742248535156,-20.91164970397949,119.35704040527344
2069,-161.0494384765625,-29.247886657714844,-19.73732185363769,109.79411315917969
2070,-157.80320739746094,-20.78823471069336,-12.41833782196045,115.40396118164062
2071,-164.6210479736328,-21.760608673095703,-21.510034561157227,107.26219940185548
2072,-151.40797424316406,-19.51666831970215,-17.49338150024414,117.75636291503906
2073,-148.11312866210938,-22.69558334350586,-11.49832248687744,113.24604034423828
2074,-151.1761016845703,-19.7186222076416,-9.430157661437988,109.58467864990234
2075,-155.27130126953125,-20.6461181640625,-21.510034561157227,94.3221435546875
2076,-146.57977294921875,-18.61161231994629,-29.36382484436035,101.54015350341795
2077,-142.3536834716797,-19.842039108276367,-25.582786560058594,95.95648193359376
2078,-143.65516662597656,-11.150511741638184,-16.595806121826172,96.29681396484376
2079,-150.12893676757812,-26.050273895263672,-21.405317306518555,89.73329162597656
2080,-135.04591369628906,-17.239068984985348,-15.866525650024414,103.00245666503906
2081,-139.15232849121094,-15.701970100402832,-16.509788513183597,102.41155242919922
2082,-136.7587890625,-23.241607666015625,-12.552973747253418,109.10223388671876
2083,-146.06365966796875,-22.048580169677734,-18.41339683532715,110.1755828857422
2084,-149.41087341308594,-20.777013778686523,-22.89753723144531,112.0642318725586
2085,-156.1763458251953,-20.69473648071289,-20.35814476013184,114.56622314453124
2086,-148.69654846191406,-18.577953338623047,-17.594358444213867,113.80328369140624
2087,-152.0549774169922,-17.796314239501953,-16.464910507202152,116.93357849121094
2088,-150.9105682373047,-12.811027526855467,-19.89065742492676,121.241943359375
2089,-149.20143127441406,-20.395544052124023,-22.467449188232425,102.9500961303711
2090,-150.39820861816406,-9.123485565185547,-17.500862121582028,99.66646575927734
2091,-150.29348754882812,-5.376106262207031,-17.201669692993164,110.33639526367188
2092,-146.677001953125,-4.964717388153076,-17.938430786132812,110.9198226928711
2093,-153.31158447265625,-4.97219705581665,-19.59146499633789,97.7329330444336
2094,-140.79788208007812,-9.54609489440918,-18.435836791992188,87.10787963867188
2095,-139.94145202636722,2.025155782699585,-19.056659698486328,96.1247787475586
2096,-144.17127990722656,-3.8352673053741455,-19.815860748291016,93.776123046875
2097,-138.08645629882812,-2.2084109783172607,-2.2345902919769287,96.48007202148438
2098,-143.8459014892578,-3.147125720977783,-8.40168571472168,92.3736572265625
2099,-153.3415069580078,2.2009310722351074,-9.20202350616455,98.49961853027344
2100,-144.38070678710938,-3.1508657932281494,-3.1882646083831787,111.922119140625
2101,-153.61451721191406,4.740323066711426,-3.192004680633545,116.7241439819336
2102,-157.3282470703125,-5.174151420593262,-9.048687934875488,109.7604522705078
2103,-160.87741088867188,-3.4500577449798584,-14.06015396118164,111.67528533935548
2104,-153.31158447265625,2.0737745761871342,-5.9857096672058105,120.7819366455078
2105,-162.69873046875,-4.527148723602295,-7.702323913574219,114.19597625732422
2106,-159.82275390625,-3.304201602935791,-12.26126194000244,112.39708709716795
2107,-158.2931365966797,-4.5084495544433585,-17.654197692871094,107.8867645263672
2108,-155.23016357421875,-2.4253251552581787,-16.150758743286133,114.07630157470705
2109,-146.2693634033203,3.113466739654541,-15.402777671813965,109.715576171875
2110,-138.12385559082028,-4.583247184753418,-14.400485038757324,103.95986938476562
2111,-135.85372924804688,-4.0521817207336435,-16.434989929199222,104.46475219726562
2112,-152.7393798828125,-5.880992889404298,-25.03302001953125,95.97144317626952
2113,-137.71620178222656,-6.210103988647461,-11.685317039489744,106.52544403076172
2114,-139.60111999511722,-15.208303451538086,-16.532228469848633,100.94924926757812
2115,-147.71295166015625,-9.231943130493164,-21.188404083251953,101.46161651611328
2116,-149.6090850830078,-12.908265113830565,-19.752281188964844,106.85081481933594
2117,-153.65939331054688,-14.01527500152588,-18.51063537597656,111.10308074951172
2118,-150.07656860351562,-12.706310272216795,-12.98680305480957,117.87977600097656
2119,-154.6018524169922,-9.53487491607666,-17.003454208374027,115.99112701416016
2120,-161.07562255859375,-4.1606388092041025,-15.42147731781006,115.58348083496094
2121,-146.04122924804688,-1.7745825052261353,-11.214090347290039,111.05072021484376
2122,-150.3234100341797,-3.139646053314209,-15.133504867553713,112.41204071044922
2123,-155.4134063720703,-1.1051404476165771,-18.5742130279541,110.48225402832031
2124,-149.0555877685547,-1.157499074935913,-16.89499855041504,114.94769287109376
2125,-142.84361267089844,-1.194898009300232,-12.758668899536133,116.20803833007812
2126,-151.2920379638672,-16.143278121948242,-24.894643783569336,106.06169128417969
2127,-148.61801147460938,-11.404825210571287,-19.94675636291504,111.49950408935548
2128,-147.1071014404297,-19.314712524414066,-27.89030456542969,111.35739135742188
2129,-143.09791564941406,-14.303247451782227,-17.654197692871094,113.72100830078124
2130,-155.72007751464844,-18.555513381958008,-30.57181167602539,102.6284637451172
2131,-144.97909545898438,-18.581693649291992,-25.12651824951172,108.73946380615234
2132,-145.1922607421875,-12.399638175964355,-25.80718040466309,110.11200714111328
2133,-143.52801513671875,-6.666371822357178,-19.86073875427246,114.26703643798828
2134,-147.28660583496094,-9.14218521118164,-19.722362518310547,107.4903335571289
2135,-156.27359008789062,-6.434497833251952,-21.46515655517578,104.54329681396484
2136,-162.98297119140625,1.0266025066375732,-17.291427612304688,107.45667266845705
2137,-158.77932739257812,-2.814274787902832,-13.746002197265625,111.2601547241211
2138,-156.1053009033203,-2.0363755226135254,-18.97438240051269,102.8266830444336
2139,-159.68812561035156,-2.731997013092041,-22.762901306152344,110.0334701538086
2140,-151.0489501953125,-12.100446701049805,-18.465755462646484,106.7685317993164
2141,-145.78317260742188,-11.999468803405762,-12.98680305480957,108.14107513427734
2142,-148.47589111328125,-10.140738487243652,-16.734182357788086,105.69518280029295
2143,-144.3994140625,-22.011180877685547,-19.640085220336914,109.62581634521484
2144,-132.79823303222656,-14.879192352294922,-13.439330101013185,120.92031860351562
2145,-142.1779022216797,-15.73936939239502,-15.765548706054688,118.18644714355469
2146,-150.73480224609375,-21.928903579711914,-20.477821350097656,105.1753387451172
2147,-147.8775177001953,-16.341493606567386,-20.941570281982425,120.2920150756836
2148,-154.67665100097656,-21.36043930053711,-17.545740127563473,125.13518524169922
2149,-146.7181396484375,-22.10841941833496,-22.231834411621094,118.27994537353516
2150,-150.3682861328125,-14.531381607055664,-21.93638229370117,117.60676574707031
2151,-150.27853393554688,-18.865924835205078,-21.136045455932614,116.3613739013672
2152,-152.84410095214844,-17.033374786376953,-24.13918495178223,113.4928741455078
2153,-155.9669189453125,-5.566841125488281,-19.3259334564209,110.32518005371094
2154,-158.94761657714844,-10.335213661193848,-12.0219087600708,108.40287017822266
2155,-151.62489318847656,-10.24919605255127,-16.36393165588379,106.14397430419922
2156,-142.58929443359375,-17.938430786132812,-16.678083419799805,106.00933074951172
2157,-142.955810546875,-8.925271034240723,-16.782800674438473,106.91065216064452
2158,-147.89247131347656,-19.314712524414066,-22.048580169677734,95.2421646118164
2159,-149.0967254638672,-17.168010711669922,-27.40411758422852,101.61869049072266
2160,-153.9735565185547,-15.664570808410645,-27.198421478271484,105.76998138427734
2161,-140.51739501953122,-22.923717498779297,-24.26260185241699,107.5314712524414
2162,-143.80850219726562,-20.530179977416992,-21.02384757995605,110.74778747558594
2163,-152.58978271484375,-28.71308135986328,-32.81201171875,107.46041870117188
2164,-140.17332458496094,-19.984155654907227,-22.72176170349121,123.04084014892578
2165,-149.33233642578125,-19.531627655029297,-21.39409828186035,117.15423583984376
2166,-155.69764709472656,-26.83191299438477,-26.33450508117676,104.38996124267578
2167,-154.75892639160156,-18.85844612121582,-25.17887687683105,109.61833953857422
2168,-152.94882202148438,-14.838052749633787,-22.87883758544922,113.19741821289062
2169,-152.5748291015625,-13.274774551391602,-22.213136672973636,104.3563003540039
2170,-166.0908203125,-17.560699462890625,-28.477468490600586,93.35725402832031
2171,-156.23619079589844,-15.137245178222654,-25.2536735534668,95.99388122558594
2172,-147.4025421142578,-9.669511795043944,-16.962316513061527,107.56513214111328
2173,-148.07199096679688,-8.738276481628418,-15.043747901916506,94.41564178466795
2174,-144.0515899658203,-14.157391548156738,-17.392404556274414,88.05781555175781
2175,-140.30421447753906,-10.148218154907227,-16.334012985229492,93.73123931884766
2176,-146.78919982910156,-10.09585952758789,-17.265247344970707,104.71907043457031
2177,-143.460693359375,-17.175491333007812,-11.980769157409668,109.6146011352539
2178,-139.10745239257812,-13.472990036010742,-11.786294937133787,115.1010284423828
2179,-149.06680297851562,-21.51377487182617,-18.043148040771484,113.87434387207031
2180,-144.79957580566406,-18.57047271728516,-18.690149307250977,121.33170318603516
2181,-149.61656188964844,-25.631404876708984,-15.380338668823242,123.66165924072266
2182,-151.83058166503906,-23.95966911315918,-13.36827278137207,117.44969177246094
2183,-150.75723266601562,-15.279361724853516,-19.93179702758789,117.6404266357422
2184,-148.74891662597656,-12.41833782196045,-9.74056911468506,127.36042022705078
2185,-163.88803100585938,-11.412304878234865,-14.785694122314453,109.60337829589844
2186,-157.56759643554688,0.009349750354886057,-17.52330207824707,100.6837158203125
2187,-167.33995056152344,-12.739969253540039,-17.65045738220215,99.01197814941406
2188,-151.9764404296875,-7.896798610687256,-12.72500991821289,101.06144714355469
2189,-147.25294494628906,-7.5863871574401855,-7.137598991394043,104.8350067138672
2190,-141.98342895507812,-14.621138572692873,-11.576860427856445,101.69348907470705
2191,-136.53439331054688,-15.885225296020508,-17.512081146240234,108.92271423339844
2192,-132.20733642578122,-14.295767784118652,-12.7848482131958,113.107666015625
2193,-127.55490112304688,-5.050734996795653,-1.6100269556045532,119.88436126708984
2194,-142.0619659423828,-12.205163955688475,-12.186464309692385,110.04094696044922
2195,-142.33872985839844,-8.409165382385254,-11.864832878112793,116.82512664794922
2196,-136.5531005859375,-17.75517463684082,-17.534521102905273,122.34521484375
2197,-141.26162719726562,-7.567687511444093,-12.171504020690918,124.36849975585938
2198,-147.79898071289062,-20.50400161743164,-18.480714797973636,115.74055480957031
2199,-152.2307586669922,-18.966901779174805,-20.369365692138672,111.6453628540039
2200,-146.3516387939453,-17.75517463684082,-22.467449188232425,119.86192321777344
2201,-149.87088012695312,-14.815613746643065,-19.35211181640625,110.78892517089844
2202,-144.48916625976562,-10.181878089904783,-13.663724899291992,108.46644592285156
2203,-151.62863159179688,-9.90512466430664,-23.002254486083984,100.7622528076172
2204,-151.5688018798828,0.2599230408668518,-20.773273468017575,99.87216186523438
2205,-152.956298828125,3.1695652008056636,-11.045794486999512,90.56354522705078
2206,-155.58544921875,1.5988072156906128,-11.079453468322754,90.97119903564452
2207,-152.2382354736328,-5.914651870727539,-15.283101081848145,92.86732482910156
2208,-142.5706024169922,-15.522455215454102,-7.3919124603271475,107.9503402709961
2209,-136.24269104003906,-14.666017532348633,-3.300461769104004,116.38381958007812
2210,-136.85603332519528,2.8554136753082275,-9.254382133483887,102.76309967041016
2211,-150.85821533203125,6.217583656311035,-23.503400802612305,96.399658203125
2212,-138.97654724121094,-5.817414283752441,-24.30373954772949,102.62659454345705
2213,-144.36575317382812,-7.642485618591309,-21.21084213256836,110.648681640625
2214,-151.254638671875,-2.485163450241089,-23.929750442504886,102.7238311767578
2215,-143.9281768798828,2.0849943161010738,-31.446949005126953,103.43441009521484
2216,-150.93675231933594,2.37670636177063,-34.53610610961914,104.64240264892578
2217,-147.92613220214844,2.627279758453369,-22.979814529418945,105.23330688476562
2218,-152.00262451171875,0.3010619580745697,-27.49387359619141,96.10420989990234
2219,-160.30520629882812,5.660338401794434,-29.78643226623535,92.9065933227539
2220,-157.29458618164062,3.2032244205474854,-25.57156562805176,91.0815200805664
2221,-157.17117309570312,3.8876259326934814,-28.98983383178711,87.21820831298828
2222,-169.16876220703125,-4.414951801300049,-24.55431365966797,79.24848175048828
2223,-161.6927032470703,7.728503227233888,-25.63514518737793,89.43970489501953
2224,-152.193359375,6.348480224609375,-20.85929107666016,99.4289779663086
2225,-164.8678741455078,10.555867195129396,-18.14786529541016,100.62200927734376
2226,-159.34779357910156,2.2345902919769287,-15.98994255065918,105.90274810791016
2227,-157.7022247314453,1.1462793350219729,-20.78075408935547,108.68897247314452
2228,-148.15052795410156,6.434497833251952,-14.9652099609375,125.28665161132812
2229,-154.58316040039062,-2.545001983642578,-15.731888771057127,123.9178466796875
2230,-145.51016235351562,-9.501215934753418,-16.397590637207028,119.85257720947266
2231,-150.43934631347656,-9.116005897521973,-21.835405349731445,114.15670776367188
2232,-153.2180938720703,-6.587833881378174,-21.285640716552734,121.27747344970705
2233,-153.44996643066406,-8.97389030456543,-14.265848159790039,124.66582489013672
2234,-153.6818389892578,-7.769642353057861,-14.019015312194824,113.8836898803711
2235,-151.7670135498047,-8.210949897766112,-15.313020706176758,103.93181610107422
2236,-146.18333435058594,1.696044683456421,-14.213489532470705,108.15416717529295
2237,-149.54176330566406,-6.887025833129883,-12.762408256530762,98.1461944580078
2238,-149.7437286376953,-6.015629291534424,-13.914298057556152,90.49810028076172
2239,-158.20338439941406,-5.245209693908691,-20.15245056152344,94.52223205566406
2240,-161.0606689453125,0.2038245499134064,-22.785341262817386,107.7390365600586
2241,-155.1104736328125,-2.3318276405334477,-22.905017852783203,106.01494598388672
2242,-168.57412719726562,-9.79666805267334,-29.51716041564941,103.58026885986328
2243,-157.3207550048828,0.31602153182029724,-23.630558013916016,113.7453155517578
2244,-155.91456604003906,0.9031858444213868,-17.530780792236328,124.97998046875
2245,-151.86050415039062,4.284055233001709,-17.669157028198242,117.52261352539062
2246,-147.36888122558594,-0.9892035126686096,-15.092366218566895,118.48377227783205
2247,-150.64877319335938,-2.1523125171661377,-17.568180084228516,121.3896713256836
2248,-148.13182067871094,-2.1261332035064697,-18.484455108642575,122.85197448730469
2249,-149.28746032714844,-13.17753791809082,-15.197083473205565,124.7406234741211
2250,-147.7840118408203,-4.916098594665527,-16.334012985229492,121.48316955566406
2251,-150.09153747558594,-6.423278331756593,-18.28624153137207,116.23235321044922
2252,-149.54176330566406,0.5852943658828735,-11.371166229248047,119.7441177368164
2253,-144.59762573242188,4.613166809082031,-9.576013565063477,111.70706939697266
2254,-156.62513732910156,-2.4963831901550293,-14.467803001403807,96.66145324707031
2255,-154.89730834960938,-7.174998283386231,-12.089226722717285,99.61971282958984
2256,-152.7356414794922,-2.271989107131958,-12.650211334228516,98.0414810180664
2257,-149.71380615234375,6.916944980621338,-8.379245758056639,97.94798278808594
2258,-151.44163513183594,5.267649173736572,-10.148218154907227,97.36829376220705
2259,-152.9974365234375,5.611720085144043,-15.062447547912598,94.92613983154295
2260,-141.31399536132812,1.0004231929779053,-13.192497253417967,104.6050033569336
2261,-133.15353393554688,-4.8712196350097665,-11.412304878234865,111.11991119384766
2262,-137.30107116699222,-11.00091552734375,-11.434743881225586,108.7375946044922
2263,-140.93252563476562,-11.883532524108887,-14.8978910446167,115.53672790527344
2264,-135.47601318359378,-9.048687934875488,-12.433297157287598,119.62444305419922
2265,-140.41641235351562,-7.328333854675293,-8.78315544128418,112.56350708007812
2266,-126.06267547607422,-7.459230422973633,-4.5682878494262695,115.97429656982422
2267,-126.40674591064452,-10.911158561706543,-11.943370819091795,118.94751739501952
2268,-135.47975158691406,-18.600393295288086,-12.938183784484865,114.83737182617188
2269,-139.0887451171875,-14.090072631835938,-13.66746425628662,105.71949005126952
2270,-133.96134948730472,-9.80788803100586,-4.833820819854736,99.29434204101562
2271,-137.82466125488278,-19.991634368896484,-9.172104835510254,100.8576202392578
2272,-141.28781127929688,-12.130365371704102,-6.486856460571289,105.25200653076172
2273,-142.63790893554688,-10.671804428100586,-7.388172149658202,97.21869659423828
2274,-140.94747924804688,-13.188756942749025,-8.551280975341799,93.63213348388672
2275,-135.74528503417972,-16.345232009887695,-8.83177375793457,101.62804412841795
2276,-139.21217346191406,-22.130857467651367,-11.161731719970703,108.6627960205078
2277,-139.06257629394528,-16.408811569213867,-5.536921977996826,110.05403900146484
2278,-136.04072570800778,-12.481916427612305,-5.701477527618407,109.91191864013672
2279,-134.05857849121094,-19.64756393432617,-13.603885650634766,105.50257873535156
2280,-123.50084686279295,-19.187557220458984,-10.17813777923584,117.06260681152344
2281,-129.0882568359375,-19.060400009155273,-7.904278755187987,115.38339233398438
2282,-130.66648864746094,-10.982215881347656,-9.216983795166016,112.47000885009766
2283,-130.80113220214844,-21.906463623046875,-19.052919387817386,109.95680236816406
2284,-131.1190185546875,-17.62053871154785,-16.334012985229492,119.63191986083984
2285,-134.55224609375,-22.59086608886719,-18.768688201904297,111.42283630371094
2286,-132.3157958984375,-22.953636169433594,-15.642131805419922,110.648681640625
2287,-129.97087097167972,-12.818507194519045,-11.546940803527832,110.6299819946289
2288,-130.55804443359378,-4.848780155181885,-10.245455741882324,113.65181732177734
2289,-136.82237243652344,-11.161731719970703,-14.845532417297365,99.3504409790039
2290,-140.38648986816406,-22.691843032836914,-17.70655632019043,95.39363098144531
2291,-150.1214599609375,-19.056659698486328,-23.35006523132324,97.95545959472656
2292,-149.97933959960938,-2.4178452491760254,-15.391558647155762,104.37686920166016
2293,-128.52352905273438,5.637899398803711,-8.338107109069824,106.49365234375
2294,-139.35801696777344,-10.61570644378662,-12.4033784866333,96.235107421875
2295,-142.84361267089844,-9.22446346282959,-18.75372886657715,104.65361785888672
2296,-140.38648986816406,-9.699430465698242,-14.370565414428713,111.5163345336914
2297,-146.01878356933594,-12.998022079467773,-16.49856948852539,101.7776336669922
2298,-138.29588317871094,-5.93709135055542,-10.12203884124756,109.0854034423828
2299,-147.451171875,-14.980169296264648,-16.670604705810547,105.33802032470705
2300,-145.7869110107422,-20.350666046142575,-20.93408966064453,111.94268798828124
2301,-135.92478942871094,-19.04918098449707,-10.825139999389648,119.57955932617188
2302,-136.43342590332028,-18.020708084106445,-12.265002250671387,111.3704833984375
2303,-134.58590698242188,-12.549234390258787,-21.311819076538086,108.07563018798828
2304,-140.06486511230472,-14.295767784118652,-23.783893585205078,104.14873504638672
2305,-139.97885131835938,-15.470096588134766,-18.054367065429688,107.8213119506836
2306,-142.9819793701172,-19.744802474975586,-23.19672966003418,96.83348846435548
2307,-145.5812225341797,-15.814167022705078,-18.615352630615234,107.0583724975586
2308,-149.12664794921875,-10.712943077087402,-21.371658325195312,114.8037109375
2309,-141.8936767578125,0.7535898685455322,-13.865678787231445,111.0488510131836
2310,-148.5581817626953,-8.854212760925293,-13.04664134979248,98.31822967529295
2311,-148.65914916992188,-6.441977500915527,-13.05038070678711,98.2284698486328
2312,-143.14280700683594,-10.114559173583984,-8.162331581115723,104.32077026367188
2313,-147.51473999023438,-10.185617446899414,-9.067387580871582,87.47625732421875
2314,-146.80043029785156,-0.001869949977844953,-13.865678787231445,77.47203063964844
2315,-142.70896911621094,-3.8016083240509033,-10.282855033874512,83.80368041992188
2316,-143.83468627929688,4.418691635131836,-12.500616073608398,91.15258026123048
2317,-140.62210083007812,0.9817237257957458,-13.446810722351074,104.71345520019531
2318,-148.378662109375,-1.4791303873062134,-21.91768455505371,100.0273666381836
2319,-145.37551879882812,-13.671204566955565,-29.348865509033203,103.25115966796876
2320,-144.25729370117188,-15.230742454528807,-29.49846076965332,106.60211181640624
2321,-135.47601318359378,-21.644670486450195,-16.625724792480472,109.59402465820312
2322,-133.61727905273438,-19.17259788513184,-19.04918098449707,106.92748260498048
2323,-145.8691864013672,-22.979814529418945,-30.62417030334473,103.5054702758789
2324,-145.42413330078125,-11.861092567443848,-29.25536727905273,114.13800811767578
2325,-146.23196411132812,-11.39360523223877,-26.65239715576172,115.1889190673828
2326,-149.3435516357422,-10.133258819580078,-23.12567138671875,117.36180114746094
2327,-144.33583068847656,-14.224709510803224,-28.60836410522461,112.5747299194336
2328,-141.23919677734375,-10.323993682861328,-22.66566276550293,104.68354034423828
2329,-140.49868774414062,-5.129272937774658,-17.579399108886722,102.94448852539062
2330,-144.03289794921875,-2.9900500774383545,-14.243409156799315,93.95002746582031
2331,-151.4341583251953,1.48287034034729,-16.42003059387207,88.04098510742188
2332,-141.36260986328125,4.276575565338135,-9.138445854187012,92.9028549194336
2333,-138.90548706054688,5.701477527618407,-6.471896648406982,90.98054504394531
2334,-142.67156982421875,-6.868326187133789,-5.989449977874756,88.36261749267578
2335,-138.8419189453125,0.5104963183403015,-2.3991458415985107,94.39881134033205
2336,-150.51788330078125,-0.35716044902801514,-11.876051902770994,85.80078125
2337,-147.099609375,-0.29358214139938354,-11.72645664215088,87.95496368408203
2338,-143.86834716796875,0.577814519405365,-11.47588348388672,97.69366455078124
2339,-141.9759521484375,-6.3073410987854,-17.88981056213379,95.214111328125
2340,-135.68917846679688,-16.502307891845707,-17.37370491027832,115.38339233398438
2341,-138.25474548339844,-16.165718078613278,-21.90272331237793,119.22801208496094
2342,-134.03614807128906,-14.819353103637695,-22.65444374084473,121.70008087158205
2343,-142.50328063964844,-19.16885757446289,-30.227741241455078,119.39630889892578
2344,-134.81777954101562,-18.634052276611328,-27.69956970214844,121.16902160644531
2345,-124.94445037841795,-16.401330947875973,-16.93613624572754,123.38677978515624
2346,-129.40614318847656,-16.472389221191403,-13.854459762573242,118.70442199707031
2347,-128.27670288085938,-19.640085220336914,-22.75542068481445,114.2427215576172
2348,-128.87507629394528,-1.696044683456421,-20.94904899597168,118.81288146972656
2349,-136.10430908203122,0.6750519275665283,-17.46720314025879,97.77220153808594
2350,-137.92190551757812,1.0714813470840454,-15.189603805541992,82.74154663085938
2351,-141.24293518066406,-0.1589457541704178,-9.205763816833496,78.87822723388672
2352,-133.06376647949222,7.620046138763428,-1.9914966821670528,82.3039779663086
2353,-142.9146728515625,4.534628868103027,-2.56744122505188,79.49531555175781
2354,-139.9339599609375,12.313620567321776,-1.7932820320129397,87.85398864746094
2355,-136.44464111328122,6.471896648406982,-1.6661254167556765,94.89996337890624
2356,-135.69291687011722,3.2443633079528813,-8.222169876098633,103.66629028320312
2357,-146.45260620117188,3.300461769104004,-12.283700942993164,109.68004608154295
2358,-135.18429565429688,-1.4080723524093628,-16.289134979248047,113.56954193115234
2359,-145.26705932617188,-11.034574508666992,-31.54418563842773,111.91276550292969
2360,-133.61727905273438,-16.22181510925293,-28.301692962646484,129.71842956542972
2361,-125.86446380615234,-17.912250518798828,-14.340646743774414,135.1038818359375
2362,-143.05677795410156,-25.7810001373291,-20.601238250732425,123.65231323242188
2363,-130.71511840820312,-20.085132598876953,-17.197929382324222,126.53577423095705
2364,-140.64454650878906,-23.98210906982422,-20.922870635986328,124.63216400146484
2365,-146.92758178710938,-15.032527923583984,-20.41424369812012,122.3321304321289
2366,-149.88209533691406,-9.389019012451172,-23.4921817779541,103.97669982910156
2367,-150.94422912597656,-13.323393821716307,-15.66831111907959,111.14608764648438
2368,-148.45346069335938,-10.331473350524902,-9.90512466430664,107.06585693359376
2369,-147.1145782470703,-0.001869949977844953,-3.640792608261109,93.66205596923828
2370,-146.91636657714844,14.935290336608887,2.2308502197265625,84.8919906616211
2371,-153.27418518066406,14.781954765319824,-1.998976469039917,69.02733612060547
2372,-151.58375549316406,16.337753295898438,-2.1261332035064697,75.77037048339844
2373,-146.3740692138672,7.059061050415039,5.641639232635497,90.7000503540039
2374,-143.39710998535156,6.154005527496338,3.872666358947754,103.13148498535156
2375,-152.4027862548828,-4.635605812072754,-8.267048835754395,109.61647033691406
2376,-142.33872985839844,2.238330125808716,-5.9819698333740225,132.78514099121094
2377,-145.27455139160156,-9.007549285888672,-14.378045082092285,136.79806518554688
2378,-143.9207000732422,-11.258968353271484,-12.328579902648926,138.68296813964844
2379,-147.42124938964844,-10.645625114440918,-11.034574508666992,142.28823852539062
2380,-142.8997039794922,-12.10792636871338,-13.581446647644045,140.39584350585938
2381,-138.80825805664062,-8.053874969482424,-4.598206996917725,137.96490478515622
2382,-157.04026794433594,-14.957730293273926,-20.45538330078125,116.76715850830078
2383,-151.80441284179688,4.605686664581299,-18.656490325927734,119.51598358154295
2384,-150.78341674804688,-0.7386302351951599,-17.14183235168457,117.06634521484376
2385,-143.3821563720703,6.643932342529298,-18.581693649291992,111.26576232910156
2386,-146.60594177246094,1.969057321548462,-21.278160095214844,94.6718292236328
2387,-157.1075897216797,4.75902271270752,-25.01432037353516,91.55648803710938
2388,-165.4662628173828,8.158592224121094,-29.105772018432614,83.01081848144531
2389,-161.50570678710938,21.52873420715332,-12.721269607543945,85.19866180419922
2390,-157.29458618164062,23.821292877197266,-12.616552352905273,77.22893524169922
2391,-154.29891967773438,23.23786926269531,-9.85650634765625,80.5200424194336
2392,-148.71151733398438,11.999468803405762,-10.342693328857422,84.615234375
2393,-142.36489868164062,18.791128158569336,-4.3663330078125,102.95944213867188
2394,-146.02999877929688,6.236283302307129,-12.425817489624025,101.84121704101562
2395,-142.43222045898438,4.284055233001709,-16.906217575073242,106.40015411376952
2396,-144.7733917236328,3.2069642543792725,-11.008395195007324,116.69983673095705
2397,-141.98716735839844,1.4940900802612305,-4.355113506317139,126.6068344116211
2398,-145.5699920654297,0.955544412136078,-8.603639602661133,124.91639709472656
2399,-149.83348083496094,-6.681331157684326,-13.68990421295166,122.54156494140624
2400,-151.14993286132812,-4.811381340026856,-17.336305618286133,120.01338958740234
2401,-153.44996643066406,5.2713890075683585,-15.357898712158205,123.01278686523438
2402,-150.3645477294922,0.0317891500890255,-22.29915428161621,116.92797088623048
2403,-163.40184020996094,-2.133612871170044,-31.09539794921875,100.92494201660156
2404,-154.07078552246094,10.144478797912598,-23.978368759155273,106.97235870361328
2405,-162.44442749023438,16.075960159301758,-23.525840759277344,89.85857391357422
2406,-160.3388671875,12.377199172973633,-20.90791130065918,74.28562927246094
2407,-158.895263671875,20.541400909423828,-23.454782485961914,75.62825775146484
2408,-160.66796875,27.15354347229004,-25.0479793548584,87.51365661621094
2409,-164.33680725097656,18.323638916015625,-19.56528663635254,89.14799499511719
2410,-156.53164672851562,19.243656158447266,-20.0589542388916,90.44200134277344
2411,-155.46951293945312,13.974136352539062,-25.49302864074707,91.92674255371094
2412,-147.97662353515625,19.539106369018555,-24.38227844238281,98.5014877319336
2413,-139.32623291015622,23.8624324798584,-19.610164642333984,110.09517669677734
2414,-152.31491088867188,15.642131805419922,-21.01262855529785,103.33343505859376
2415,-146.78733825683594,20.189849853515625,-23.22290802001953,109.76980590820312
2416,-145.1118621826172,19.864479064941406,-24.2551212310791,117.95270538330078
2417,-146.28993225097656,19.66252326965332,-10.985956192016602,123.54385375976562
2418,-143.61964416503906,16.595806121826172,-9.377799034118652,118.83531951904295
2419,-156.9860382080078,10.686763763427734,-18.36103820800781,111.63227081298828
2420,-149.42396545410156,14.804393768310547,-15.107325553894045,116.25479125976562
2421,-142.71458435058594,13.315914154052734,-9.643332481384276,118.28929901123048
2422,-155.74440002441406,15.52619457244873,-18.64527130126953,100.9959945678711
2423,-161.40660095214844,20.63115882873535,-23.215429306030273,92.23341369628906
2424,-168.044921875,29.80887222290039,-16.835159301757812,98.1200180053711
2425,-157.59938049316406,25.79595947265625,-17.153051376342773,90.47940063476562
2426,-156.36148071289062,22.53102684020996,-14.755775451660154,93.76303100585938
2427,-153.75851440429688,22.351512908935547,-13.704863548278807,92.51390838623048
2428,-156.18943786621094,25.30229377746582,-13.68990421295166,98.44538879394531
2429,-148.6685028076172,12.388418197631836,-17.100692749023438,98.89791107177734
2430,-144.1394805908203,11.82369327545166,-14.598699569702148,99.7506103515625
2431,-139.3935546875,12.40711784362793,-13.74974250793457,110.05777740478516
2432,-135.77706909179688,12.661431312561035,-10.009841918945312,112.34659576416016
2433,-141.57391357421875,9.766748428344727,-5.129272937774658,116.40065002441406
2434,-147.29969787597656,2.7132973670959477,-6.685070991516112,108.0569305419922
2435,-148.2458953857422,5.757575988769531,-7.691104412078857,112.9150619506836
2436,-139.62916564941406,10.133258819580078,-7.578907489776611,120.90348815917969
2437,-140.04803466796878,9.220723152160645,-2.7207772731781006,122.88188934326172
2438,-152.023193359375,10.496028900146484,-4.97219705581665,109.2499542236328
2439,-155.9762725830078,8.184770584106445,-12.897045135498047,105.2894058227539
2440,-149.96250915527344,13.136398315429688,-12.85964584350586,108.59921264648438
2441,-162.2406005859375,16.75288200378418,-14.033974647521973,95.64420318603516
2442,-165.35220336914062,14.112512588500975,-19.51666831970215,83.71392059326172
2443,-157.1954803466797,25.268634796142575,-20.092613220214844,86.89283752441406
2444,-152.6140899658203,19.09031867980957,-19.782201766967773,96.74372863769531
2445,-151.94839477539062,18.196483612060547,-16.861339569091793,99.99370574951172
2446,-149.42770385742188,8.091273307800293,-13.233635902404785,97.77594757080078
2447,-140.30982971191406,4.30649471282959,-17.448503494262695,95.74891662597656
2448,-139.11680603027344,4.029742240905762,-16.56214714050293,108.0008316040039
2449,-133.37605285644528,8.046394348144531,-15.888964653015135,115.39835357666016
2450,-134.41947937011722,6.943124294281006,-14.479022979736328,110.44672393798828
2451,-148.44036865234375,-5.697737693786621,-23.21916961669922,104.37313079833984
2452,-148.38052368164062,0.3272412419319153,-20.19733047485352,108.3972625732422
2453,-134.44566345214844,3.7417697906494136,-5.091873645782472,120.91470336914062
2454,-137.10099792480472,1.437991499900818,-8.517621994018555,120.88105010986328
2455,-144.33395385742188,-3.8240478038787837,-16.715482711791992,117.81058502197266
2456,-141.70106506347656,-1.2696959972381592,-14.06389331817627,122.0553741455078
2457,-147.8719024658203,4.3999924659729,-10.970996856689453,118.06864166259766
2458,-157.2440948486328,1.538968801498413,-15.443917274475098,103.81214141845705
2459,-155.43772888183594,7.612566471099853,-14.482762336730955,100.44623565673828
2460,-152.47198486328125,9.763009071350098,-15.03626823425293,95.4310302734375
2461,-141.05780029296875,12.358499526977539,-14.976428985595705,86.7170639038086
2462,-136.49513244628906,21.74190902709961,-11.85735321044922,88.90116119384766
2463,-143.51492309570312,11.229049682617188,-17.33256721496582,81.91876983642578
2464,-143.8103790283203,7.55646800994873,-18.686410903930664,96.5978775024414
2465,-136.33056640625,3.689411401748657,-17.429803848266598,95.18793487548828
2466,-138.50344848632812,8.207210540771483,-15.66831111907959,93.26936340332031
2467,-146.07301330566406,3.491196632385254,-18.226402282714844,94.57459259033205
2468,-134.65884399414062,4.549588203430176,-12.77362823486328,107.00975799560548
2469,-119.85631561279295,15.514974594116213,-3.7417697906494136,117.51513671875
2470,-143.05865478515625,-0.14024624228477478,-13.876898765563965,107.03219604492188
2471,-144.86875915527344,4.112020015716554,-16.345232009887695,111.7145538330078
2472,-151.1331024169922,-7.070281028747559,-20.403024673461914,112.54480743408205
2473,-140.12657165527344,7.855659961700439,-9.822847366333008,123.44287872314452
2474,-152.2849884033203,-5.970750331878662,-14.344386100769045,109.72492218017578
2475,-155.73690795898438,1.2584763765335083,-17.209150314331055,106.52731323242188
2476,-153.384521484375,-2.631019592285156,-18.58917236328125,105.7494125366211
2477,-144.33395385742188,2.2121508121490483,-12.048088073730467,107.50716400146484
2478,-142.58743286132812,1.2846556901931765,-12.52305507659912,84.49929809570312
2479,-133.7537841796875,8.704617500305176,-12.698830604553224,82.47227478027344
2480,-132.67669677734378,9.160884857177734,-10.578307151794434,91.87064361572266
2481,-135.67982482910156,6.079207420349121,-13.772181510925293,90.6589126586914
2482,-133.86972045898438,-0.9069257378578186,-7.68736457824707,102.00202941894531
2483,-136.44276428222656,-2.5861408710479736,-12.115406036376953,101.12689208984376
2484,-135.74714660644528,-4.033482074737549,-12.66891098022461,112.58969116210938
2485,-132.67669677734378,-10.402531623840332,-8.90283203125,117.39920043945312
2486,-130.38038635253906,-9.377799034118652,-11.670357704162598,109.48931121826172
2487,-136.80928039550778,-13.51412868499756,-14.957730293273926,111.30690002441406
2488,-135.88926696777344,-17.164270401000973,-11.199130058288574,122.25359344482422
2489,-138.25662231445312,-21.016366958618164,-11.285147666931152,125.93739318847656
2490,-136.48016357421878,-32.91299057006836,-10.578307151794434,120.45095825195312
2491,-141.9815673828125,-24.988142013549805,-9.59097385406494,118.13970184326172
2492,-154.0689239501953,-26.349464416503906,-20.679777145385746,108.67774963378906
2493,-138.77272033691406,-16.154497146606445,-8.491442680358888,113.95848846435548
2494,-142.15733337402344,-13.790881156921387,-15.96750259399414,95.84615325927734
2495,-145.074462890625,-15.870265007019045,-17.575660705566403,92.73455810546876
2496,-142.97264099121094,-12.504355430603027,-23.95218849182129,89.21905517578125
2497,-131.77911376953122,-14.340646743774414,-12.691350936889648,95.5320053100586
2498,-136.63349914550778,-12.223862648010256,-12.265002250671387,94.88126373291016
2499,-138.20051574707028,-17.751434326171875,-16.87255859375,97.07284545898438
2500,-133.72386169433594,-14.434144020080565,-11.928410530090332,114.79248809814452
2501,-132.95344543457028,-16.274173736572266,-6.64019250869751,119.93485260009766
2502,-135.98275756835938,-19.928056716918945,-3.098507165908813,118.2369384765625
2503,-130.32803344726562,-25.893198013305664,-10.279114723205566,123.74581146240234
2504,-138.290283203125,-24.11674499511719,-11.236529350280762,123.8954086303711
2505,-134.41947937011722,-21.842885971069336,-4.684224605560303,128.32719421386722
2506,-133.27507019042972,-28.0286808013916,0.7984686493873596,121.83846282958984
2507,-139.9395751953125,-26.70475578308105,-7.2310967445373535,125.8850326538086
2508,-153.09280395507812,-25.919376373291016,-12.14532470703125,125.22306823730469
2509,-150.05975341796875,-17.740215301513672,-11.296367645263672,116.3520278930664
2510,-136.09121704101562,-18.56673240661621,-12.365979194641113,103.25863647460938
2511,-136.23707580566406,-12.6090726852417,-11.546940803527832,93.5423812866211
2512,-134.94306945800778,-11.71523666381836,-7.941677570343018,101.64299774169922
2513,-141.05780029296875,-1.9204386472702024,-13.416891098022461,97.62635040283205
2514,-145.0258331298828,-10.765301704406738,-22.56094741821289,93.3254623413086
2515,-152.1952362060547,-4.770242214202881,-18.9444637298584,98.27709197998048
2516,-153.44808959960938,5.622939586639403,-15.982462882995605,109.9493179321289
2517,-143.33914184570312,1.049041986465454,-20.0888729095459,111.20966339111328
2518,-150.4150390625,-7.642485618591309,-17.628019332885742,105.81298828125
2519,-147.64376831054688,-9.680730819702148,-20.14497184753418,110.813232421875
2520,-139.88348388671878,3.5846941471099854,-20.189849853515625,120.13680267333984
2521,-139.87599182128906,-2.8329741954803467,-15.443917274475098,120.49209594726562
2522,-145.10438537597656,-9.317960739135742,-20.06643295288086,112.79164123535156
2523,-144.9136505126953,-5.256429195404053,-12.923224449157715,117.24960327148438
2524,-158.88217163085938,-12.66517162322998,-19.83455848693848,112.98611450195312
2525,-145.4447021484375,2.5599615573883057,-12.85964584350586,120.93340301513672
2526,-152.51686096191406,2.253289699554444,-21.24076271057129,109.63516998291016
2527,-153.81460571289062,0.8396075367927551,-29.588218688964844,105.76062774658205
2528,-154.5139617919922,-3.678191661834717,-29.49472045898437,107.92603302001952
2529,-150.3739013671875,2.238330125808716,-24.124225616455078,105.8354263305664
2530,-160.31080627441406,-5.046995162963867,-31.53296661376953,91.1002197265625
2531,-156.0099334716797,-2.365486621856689,-29.027233123779297,92.4615478515625
2532,-153.7921600341797,-2.339307308197021,-32.58761978149414,92.73081970214844
2533,-148.65728759765625,4.310234546661377,-22.826478958129886,99.4289779663086
2534,-154.80567932128906,0.27114275097846985,-22.65070343017578,96.00697326660156
2535,-150.81146240234375,-1.1275798082351685,-26.450443267822266,99.08490753173828
2536,-155.8416290283203,-1.4192920923233032,-22.77412033081055,113.22920989990234
2537,-143.9674530029297,-3.057368278503418,-19.879438400268555,121.25503540039062
2538,-154.32696533203125,-8.599900245666504,-22.976076126098636,109.5828094482422
2539,-155.3704071044922,-5.645379066467285,-17.49338150024414,112.42887115478516
2540,-155.08990478515625,-12.167764663696287,-19.456829071044922,113.01229858398438
2541,-155.10861206054688,-9.628372192382812,-9.849026679992676,109.81094360351562
2542,-145.4185333251953,0.7648095488548279,-6.082947254180907,117.71334838867188
2543,-155.6209716796875,-12.313620567321776,-19.355852127075195,107.6343231201172
2544,-157.1468505859375,-7.59386682510376,-22.56842613220215,112.92627716064452
2545,-151.24903869628906,-6.5242552757263175,-14.437883377075195,112.6158676147461
2546,-154.63363647460938,1.034082293510437,-15.761808395385742,101.74398040771484
2547,-153.3321533203125,-12.410858154296875,-20.38432502746582,100.28541564941406
2548,-141.95912170410156,-2.245810031890869,-13.959177017211914,101.80007934570312
2549,-145.4110565185547,-5.604239940643311,-14.022754669189453,101.81503295898438
2550,-151.3051300048828,-2.3617467880249023,-14.52764129638672,97.58895111083984
2551,-154.1437225341797,-3.416398525238037,-16.49856948852539,99.87028503417969
2552,-153.53411865234375,-6.045548439025879,-15.29058074951172,105.12484741210938
2553,-149.4800567626953,-0.1140669509768486,-9.430157661437988,111.08625030517578
2554,-151.6865997314453,-5.147972106933594,-13.069080352783205,107.97090911865234
2555,-153.65753173828125,-4.6991844177246085,-13.91803741455078,110.01663970947266
2556,-152.28125,3.5510349273681636,-13.098999977111815,117.86294555664062
2557,-147.71856689453125,-2.1223931312561035,-4.800161361694336,124.2619171142578
2558,-151.8100128173828,-10.970996856689453,-18.293720245361328,113.71540069580078
2559,-148.17857360839844,-9.22820281982422,-20.810672760009766,118.04246520996094
2560,-150.497314453125,-13.450550079345705,-22.557207107543945,121.44203186035156
2561,-150.2916259765625,-3.996083021163941,-17.010934829711914,112.8963623046875
2562,-149.04623413085938,-1.9802770614624023,-15.391558647155762,109.87078094482422
2563,-141.2073974609375,-0.4020392596721649,-15.518714904785154,108.67027282714844
2564,-143.36158752441406,1.022862672805786,-15.372859001159668,111.96512603759766
2565,-148.14865112304688,0.1140669509768486,-21.05376625061035,103.32969665527344
2566,-146.48440551757812,-2.3916659355163574,-20.604978561401367,92.03145599365234
2567,-144.3900604248047,-6.019369125366211,-17.76265525817871,91.23485565185548
2568,-147.2735137939453,-3.270542621612549,-18.304941177368164,99.24198150634766
2569,-148.8106231689453,1.838160872459412,-18.34233856201172,95.5095672607422
2570,-148.85549926757812,3.4650173187255864,-13.304694175720215,93.21700286865234
2571,-144.6032257080078,6.150265693664551,-17.197929382324222,91.98284149169922
2572,-142.50514221191406,-0.5067564249038696,-18.592912673950195,102.60041809082031
2573,-149.42396545410156,-3.165825366973877,-18.51063537597656,99.84410858154295
2574,-140.88951110839844,-5.750096321105957,-12.182723999023438,104.91915130615234
2575,-137.95742797851562,-4.916098594665527,-14.722116470336914,113.93231201171876
2576,-141.28219604492188,-3.992343187332153,-17.541999816894528,124.70696258544922
2577,-139.10183715820312,-8.801854133605957,-11.034574508666992,123.1511688232422
2578,-134.94680786132812,-5.155452251434326,-12.15280532836914,119.6992416381836
2579,-147.01547241210938,-10.754082679748537,-16.083438873291016,118.2967758178711
2580,-139.62542724609378,-8.95145034790039,-14.078853607177734,117.1149673461914
2581,-141.8506622314453,-9.968703269958496,-12.003209114074707,115.53672790527344
2582,-141.01666259765625,-9.90512466430664,-14.329426765441895,103.71116638183594
2583,-141.45050048828125,1.9092189073562624,-17.983308792114258,89.9146728515625
2584,-134.87200927734378,-1.4716506004333496,-15.010088920593262,92.70838165283205
2585,-138.970947265625,-3.8016083240509033,-10.084640502929688,90.00069427490234
2586,-142.71832275390625,-3.4463179111480717,-9.258122444152832,80.34800720214844
2587,-143.5747528076172,2.025155782699585,-12.313620567321776,80.36670684814453
2588,-146.5218048095703,1.404332399368286,-16.838899612426758,91.96788024902344
2589,-152.0605926513672,-4.17559814453125,-22.392650604248047,92.27828979492188
2590,-150.6656036376953,-5.48456335067749,-24.00080871582031,99.15596771240234
2591,-155.55740356445312,-7.4218316078186035,-18.783647537231445,110.96656799316406
2592,-146.3834228515625,-9.08234691619873,-13.891858100891113,121.74122619628906
2593,-142.8529510498047,-0.8807464241981506,-11.180431365966797,117.73204803466795
2594,-149.4912872314453,-13.529088020324707,-16.004901885986328,112.28302001953124
2595,-148.373046875,-10.664324760437012,-19.490488052368164,111.46772003173828
2596,-142.25083923339844,-13.450550079345705,-17.13435173034668,121.07178497314452
2597,-140.51551818847656,-8.674697875976562,-10.731642723083496,125.14079284667969
2598,-152.1092071533203,-11.11685276031494,-15.170904159545898,111.0899887084961
2599,-147.72230529785156,-11.621739387512207,-17.49338150024414,103.5017318725586
2600,-136.74943542480472,1.007902979850769,-7.956637382507324,109.3247528076172
2601,-142.33685302734375,2.8853328227996826,-2.215890645980835,107.44358825683594
2602,-152.41587829589844,-8.375506401062013,-6.984262943267822,87.19577026367188
2603,-150.5384521484375,-6.109126567840576,-9.14218521118164,87.925048828125
2604,-151.24903869628906,0.3459407389163971,-9.03372859954834,82.36381530761719
2605,-148.8031463623047,2.922731876373291,-9.946264266967773,74.53246307373047
2606,-151.94091796875,-5.67529821395874,-14.292027473449707,83.4072494506836
2607,-153.03671264648438,0.6226933598518372,-11.718976974487305,92.57000732421876
2608,-152.9656524658203,-7.979076385498048,-16.678083419799805,101.70284271240234
2609,-151.61553955078125,-2.18597149848938,-13.955436706542967,115.6713638305664
2610,-147.13888549804688,-3.9474644660949703,-13.581446647644045,118.26311492919922
2611,-152.84971618652344,-14.243409156799315,-21.820446014404297,116.05657196044922
2612,-144.16940307617188,-19.086580276489254,-16.401330947875973,126.76016998291016
2613,-147.88125610351562,-19.32780265808105,-20.464733123779297,124.56671905517578
2614,-140.90634155273438,-11.111242294311523,-18.265670776367188,118.69881439208984
2615,-147.74661254882812,-10.905548095703123,-21.29499053955078,117.37489318847656
2616,-143.72996520996094,-12.37532901763916,-10.860669136047363,124.98558807373048
2617,-140.6146240234375,-7.906148433685303,-5.688387870788574,125.02298736572266
2618,-141.87496948242188,-8.773805618286133,-5.841723918914795,112.52050018310548
2619,-137.29359436035156,-9.914474487304688,-6.036198616027832,103.96360778808594
2620,-144.1862335205078,-6.499946117401122,-9.31609058380127,99.39344787597656
2621,-148.40110778808594,-0.20195460319519046,-5.060084819793701,92.4334945678711
2622,-150.17381286621094,-8.717706680297853,-5.9688801765441895,79.01099395751953
2623,-145.77195739746094,-9.215113639831543,-16.171327590942386,81.81966400146484
2624,-140.85772705078125,-0.1047171950340271,-12.682001113891602,90.47753143310548
2625,-150.5478057861328,1.0247325897216797,-16.683692932128903,89.96142578125
2626,-151.44163513183594,0.987333595752716,-17.689725875854492,93.04309844970705
2627,-150.3308868408203,-4.921708106994629,-18.613481521606445,100.85575103759766
2628,-150.68243408203125,-4.94414758682251,-17.177360534667972,110.8562469482422
2629,-148.5058135986328,2.0569450855255127,-11.896621704101562,116.8774871826172
2630,-145.85423278808594,-3.724940299987793,-18.849096298217773,113.00294494628906
2631,-150.6712188720703,-8.766325950622559,-26.25409698486328,109.64451599121094
2632,-155.60414123535156,-13.452420234680176,-24.70203971862793,110.56452941894531
2633,-144.3470458984375,-3.594043970108032,-15.453266143798828,119.63752746582031
2634,-143.10540771484375,-19.14828872680664,-13.680554389953613,111.50325012207031
2635,-147.03604125976562,-21.11173439025879,-19.80651092529297,110.80388641357422
2636,-144.6499786376953,-6.339130401611327,-8.306317329406737,118.3846664428711
2637,-152.5187225341797,0.9162755012512208,-7.180607795715332,103.06603240966795
2638,-152.3130340576172,2.57305121421814,-9.020638465881348,97.88626861572266
2639,-158.63720703125,-0.3889496028423309,-20.861162185668945,87.65764617919922
2640,-143.85337829589844,-1.043432116508484,-16.126447677612305,99.76744079589844
2641,-147.80645751953125,-7.524678707122803,-13.299084663391113,97.57585906982422
2642,-148.8461456298828,-4.940407752990723,-16.074090957641598,95.9639663696289
2643,-147.8214111328125,-4.4729204177856445,-19.716753005981445,95.66851043701172
2644,-146.11227416992188,-3.59778380393982,-20.479692459106445,105.478271484375
2645,-153.8389129638672,-6.653282165527344,-20.924739837646484,98.83246612548828
2646,-148.86111450195312,2.718907356262207,-13.130788803100586,106.4655990600586
2647,-155.40219116210938,-4.259746074676514,-21.725078582763672,102.72943878173828
2648,-138.95037841796878,3.867056608200073,-12.098576545715332,119.5702133178711
2649,-146.82659912109375,-7.345163345336914,-19.36520195007324,114.15857696533205
2650,-153.72671508789062,-3.5603847503662114,-17.18484115600586,108.48140716552734
2651,-154.44851684570312,-13.145748138427734,-16.82206916809082,108.04010009765624
2652,-148.71151733398438,7.535898208618164,-12.595983505249025,111.64910125732422
2653,-164.46397399902344,5.501392841339111,-8.010866165161133,109.55850219726562
2654,-163.7608642578125,-4.016652584075929,-13.747872352600098,102.65838623046876
2655,-163.48785400390625,6.88515567779541,-15.07927703857422,106.80219268798828
2656,-162.46685791015625,7.4872798919677725,-15.999292373657227,104.98460388183594
2657,-158.895263671875,1.0396921634674072,-17.042724609375,95.15614318847656
2658,-162.21629333496094,0.7405002117156982,-19.230566024780273,89.75946807861328
2659,-160.4585418701172,4.644955635070801,-18.882755279541016,96.6072235107422
2660,-153.09092712402344,10.116429328918457,-21.90459442138672,97.50479888916016
2661,-142.55189514160156,5.542531967163086,-12.58102321624756,107.1462631225586
2662,-145.76072692871094,3.235013484954834,-13.35144329071045,101.94032287597656
2663,-148.79379272460938,-4.476660251617432,-20.939699172973636,103.4549789428711
2664,-151.92034912109375,7.102069854736327,-21.42962646484375,110.83006286621094
2665,-147.8214111328125,4.356983661651611,-13.826410293579102,117.344970703125
2666,-153.1769561767578,0.05983839929103851,-18.763078689575195,106.99292755126952
2667,-151.03773498535156,-2.561831474304199,-20.10196304321289,109.84647369384766
2668,-144.99778747558594,-0.9424548149108888,-14.428533554077148,115.28054809570312
2669,-164.5275421142578,5.026425361633301,-18.864055633544922,100.54534149169922
2670,-165.63455200195312,3.451927661895752,-13.904948234558105,94.1613311767578
2671,-161.03448486328125,7.52841854095459,-12.349149703979492,101.5289306640625
2672,-160.06210327148438,9.55170440673828,-10.954167366027832,106.92561340332031
2673,-165.52236938476562,12.278091430664062,-14.331296920776367,105.81111907958984
2674,-164.71827697753906,14.226579666137695,-11.066364288330078,103.80279541015624
2675,-160.81382751464844,7.46858024597168,-18.92389297485352,99.86467742919922
2676,-162.12278747558594,6.9487342834472665,-16.77345085144043,97.89749145507812
2677,-152.3541717529297,3.508026123046875,-12.835336685180664,96.18087768554688
2678,-154.1381072998047,7.46858024597168,-10.389442443847656,99.35231018066406
2679,-157.94532775878906,7.165648460388184,-13.055991172790527,105.03321838378906
2680,-141.48976135253906,3.392089366912842,-9.873335838317873,116.65682983398438
2681,-152.47010803222656,-2.45337438583374,-9.544224739074707,108.85540008544922
2682,-148.1767120361328,-2.857283592224121,-11.948980331420898,115.44884490966795
2683,-146.2917938232422,-11.04018497467041,-15.49814510345459,114.85419464111328
2684,-145.6260986328125,2.161662101745605,-9.417068481445312,118.8259735107422
2685,-143.65516662597656,-6.245633125305176,-4.996506214141847,113.19741821289062
2686,-148.43849182128906,-5.751965999603272,-6.787918567657472,101.7271499633789
2687,-157.56385803222656,-10.097729682922363,-11.425394058227539,104.00100708007812
2688,-144.8519287109375,-0.5983840227127075,-6.387749195098878,116.840087890625
2689,-148.10191345214844,-4.039092063903809,-10.363263130187988,109.82777404785156
2690,-142.01708984375,-4.457960605621338,-10.535298347473145,106.91439056396484
2691,-153.0797119140625,-12.31549072265625,-18.983732223510746,98.8960418701172
2692,-161.5505828857422,-12.079876899719238,-22.60395622253418,105.37728881835938
2693,-146.28057861328125,-7.7303733825683585,-12.51744556427002,108.70954132080078
2694,-149.23509216308594,-3.840877294540405,-12.63712215423584,93.06554412841795
2695,-148.2814178466797,-0.7517198920249939,-11.245879173278807,91.15071105957031
2696,-147.3950653076172,3.870796442031861,-11.242138862609863,92.04080963134766
2697,-145.06884765625,6.713120460510254,-11.036444664001463,101.7832489013672
2698,-148.5806121826172,1.200507879257202,-8.687788009643555,103.9149932861328
2699,-138.89053344726562,-0.2767525911331177,-9.794797897338867,111.47706604003906
2700,-139.47395324707028,-6.316690921783447,-11.006525993347168,124.8285140991211
2701,-149.54176330566406,-3.235013484954834,-8.007125854492188,120.32192993164062
2702,-149.646484375,-9.521785736083984,-3.0592381954193115,107.4678955078125
2703,-145.98138427734375,-15.61408233642578,-8.620469093322754,106.40950012207031
2704,-147.54466247558594,-12.76801872253418,-11.144902229309082,102.71822357177734
2705,-145.04641723632812,-4.97780704498291,-9.24503231048584,105.36233520507812
2706,-151.83807373046875,-6.836536884307861,-7.749072551727295,107.01162719726562
2707,-147.49978637695312,-8.583070755004883,-11.477752685546875,111.59300231933594
2708,-145.6223602294922,-11.10376262664795,-19.35398292541504,114.09125518798828
2709,-150.61512756347656,-10.26976490020752,-13.452420234680176,112.98798370361328
2710,-150.76846313476562,-11.432873725891113,-15.81977653503418,102.8266830444336
2711,-152.81044006347656,-13.684293746948242,-16.945486068725586,98.6753921508789
2712,-155.60789489746094,-0.4375683069229126,-7.5732975006103525,105.1790771484375
2713,-160.25657653808594,-10.96912670135498,-15.48318576812744,85.01727294921875
2714,-155.51065063476562,-2.96574068069458,-10.46798038482666,83.83172607421875
2715,-149.8671417236328,-6.660761833190918,-8.253959655761719,92.755126953125
2716,-149.19395446777344,-8.523232460021973,-12.809157371520994,94.77467346191406
2717,-150.17755126953125,-7.285325050354004,-8.762585639953612,101.51397705078124
2718,-145.491455078125,6.56352424621582,-0.7816390991210938,109.8988265991211
2719,-156.40447998046875,-14.649188041687012,-13.310303688049315,100.40696716308594
2720,-148.18045043945312,-14.53325080871582,-10.430581092834473,109.8389892578125
2721,-136.37358093261722,-13.867548942565918,-2.19158148765564,119.30467987060548
2722,-132.83563232421878,-21.45206642150879,0.20195460319519046,115.96868896484376
2723,-133.90150451660156,-29.52651023864746,-8.470873832702638,116.7241439819336
2724,-130.79365539550778,-29.18991851806641,-5.946440696716309,123.89353942871094
2725,-139.1710205078125,-20.120662689208984,-8.418515205383299,120.59868621826172
2726,-135.81259155273438,-22.035490036010746,-9.903255462646484,119.74224853515624
2727,-141.4224395751953,-26.77394294738769,-12.371588706970215,116.28658294677734
2728,-141.1157684326172,-19.81772994995117,-15.146595001220705,115.67323303222656
2729,-141.11952209472656,-17.338176727294922,-4.6599154472351065,116.6194305419922
2730,-143.57289123535156,-21.538084030151367,-3.4369680881500244,100.01053619384766
2731,-148.90599060058594,-16.305963516235348,-15.427087783813475,90.4027328491211
2732,-163.7197265625,-1.3762831687927246,-20.939699172973636,79.79637908935547
2733,-157.42921447753906,1.5370988845825195,-4.84691047668457,90.24939727783205
2734,-160.60813903808594,1.398722529411316,-8.209080696105957,81.00810241699219
2735,-153.3751678466797,8.67282772064209,-5.733266830444336,88.72351837158203
2736,-142.1442413330078,13.299084663391113,-2.6029703617095947,107.47537231445312
2737,-143.0006866455078,9.64894199371338,-0.3403308987617493,108.45149230957031
2738,-141.94976806640625,-0.7816390991210938,6.638322353363037,119.10646057128906
2739,-146.7742462158203,-5.8903422355651855,-9.297390937805176,107.71099090576172
2740,-143.9805450439453,-15.023178100585938,-10.254805564880373,116.50723266601562
2741,-141.51220703125,-11.48523235321045,-9.82471752166748,122.00862884521484
2742,-148.35621643066406,-14.41357421875,-8.856082916259766,118.58661651611328
2743,-142.9146728515625,-8.059484481811522,-9.05429744720459,120.2733154296875
2744,-138.19865417480472,-10.841970443725586,1.6642554998397827,125.655029296875
2745,-143.2811737060547,-12.072397232055664,-3.6314427852630615,121.39154052734376
2746,-153.43875122070312,-15.602862358093262,-12.487525939941404,113.11140441894531
2747,-156.6438446044922,-10.89806842803955,-16.264825820922848,104.80882263183594
2748,-160.29397583007812,-7.5209388732910165,-17.794443130493164,103.4138412475586
2749,-154.55697631835938,-5.74074649810791,-9.95935344696045,95.02899169921876
2750,-162.72491455078125,-1.656775712966919,-13.168188095092773,79.19425201416016
2751,-161.04196166992188,-8.280138969421388,-16.96418571472168,69.01798248291016
2752,-148.543212890625,5.2919583320617685,-9.742439270019533,85.28280639648438
2753,-149.10794067382812,6.653282165527344,-6.8103580474853525,93.24505615234376
2754,-150.09153747558594,-4.072751045227052,-14.140562057495115,94.37824249267578
2755,-145.33438110351562,0.2954520881175995,-18.325510025024414,102.9949722290039
2756,-149.9082794189453,-5.475213527679443,-17.887941360473633,108.41034698486328
2757,-142.5369415283203,-0.4338283836841583,-14.383655548095705,120.19103240966795
2758,-146.9387969970703,-9.847156524658203,-15.468226432800293,116.0397491455078
2759,-154.39242553710938,-4.8805694580078125,-12.352890014648438,122.6219711303711
2760,-154.08949279785156,-14.379915237426758,-20.52457046508789,121.34292602539062
2761,-147.50352478027344,-9.772358894348145,-13.942346572875975,123.11190032958984
2762,-154.1007080078125,-10.318384170532227,-18.74063873291016,115.22071075439452
2763,-158.23703002929688,-16.743532180786133,-22.88444709777832,114.56248474121094
2764,-160.61935424804688,-11.930280685424805,-16.156368255615234,122.35643768310548
2765,-161.71888732910156,-14.129342079162598,-17.8468017578125,116.11080169677734
2766,-159.1981964111328,-10.318384170532227,-21.74751853942871,104.40865325927734
2767,-158.87281799316406,-8.078184127807617,-20.19171905517578,95.54135131835938
2768,-158.31932067871094,-5.6173295974731445,-19.036090850830078,86.52445220947266
2769,-160.761474609375,-8.725186347961426,-16.044170379638672,82.31707000732422
2770,-155.08804321289062,-0.029919199645519257,-9.293651580810547,81.47184753417969
2771,-148.75265502929688,0.8713966608047485,-10.640015602111816,94.65126037597656
2772,-151.3369140625,-5.6472487449646,-8.440954208374022,111.6191864013672
2773,-138.75215148925778,-11.27953815460205,-6.402708530426025,118.7698745727539
2774,-140.76795959472656,-17.469072341918945,-8.534451484680176,122.61448669433594
2775,-146.06739807128906,-20.22911834716797,-11.79190444946289,125.87194061279295
2776,-144.5115966796875,-14.570650100708008,-14.04332447052002,134.02867126464844
2777,-149.79234313964844,-12.749319076538086,-14.148041725158693,124.26752471923828
2778,-150.1064910888672,-11.81434440612793,-7.674274921417236,123.788818359375
2779,-148.1168670654297,-7.206787109375,-5.774405479431152,121.6009750366211
2780,-145.6298370361328,-12.32671070098877,-8.919661521911621,124.1702880859375
2781,-150.05787658691406,-8.852343559265137,-3.803478240966797,121.42520141601562
2782,-144.8145294189453,-13.041030883789062,-6.952474117279053,115.8377914428711
2783,-160.89236450195312,-21.036937713623047,-13.19436740875244,103.5896224975586
2784,-163.60752868652344,-14.121862411499025,-17.420454025268555,100.0217514038086
2785,-166.28155517578125,-6.211973667144775,-21.321168899536133,88.2410659790039
2786,-151.5126953125,-4.420561790466309,-10.01919174194336,85.54460144042969
2787,-152.06246948242188,2.113043546676636,-14.60056972503662,78.98481750488281
2788,-146.36659240722656,-2.288818836212158,-9.712520599365234,86.53193664550781
2789,-142.89222717285156,2.9507811069488525,1.709134221076965,92.05577087402344
2790,-140.33787536621094,-4.207387447357179,-0.7330203652381897,90.26809692382812
2791,-138.25474548339844,-4.244786262512207,1.5670180320739746,99.57296752929688
2792,-143.82345581054688,-17.525171279907227,-1.047171950340271,111.9669952392578
2793,-136.67277526855472,-19.477399826049805,-4.4729204177856445,127.18464660644531
2794,-137.47311401367188,-22.020530700683594,2.371096611022949,129.74647521972656
2795,-152.51498413085938,-31.13092803955078,-16.08156967163086,120.737060546875
2796,-152.39157104492188,-17.906641006469727,-16.934267044067386,131.16389465332028
2797,-148.32630920410156,-18.63218116760254,-16.930526733398438,127.36416625976562
2798,-145.98512268066406,-15.703840255737305,-15.31863021850586,122.05350494384766
2799,-152.04750061035156,-22.259883880615234,-18.29185104370117,120.30696868896484
2800,-148.34873962402344,-17.932819366455078,-14.331296920776367,124.7911148071289
2801,-153.57711791992188,-17.47281265258789,-16.728572845458984,118.0443344116211
2802,-162.42572021484375,-10.247325897216797,-22.013051986694336,100.5977020263672
2803,-157.82191467285156,-4.383162975311278,-22.039230346679688,94.81581115722656
2804,-151.40049743652344,-10.755951881408693,-23.879261016845703,89.28076171875
2805,-146.16464233398438,2.4907734394073486,-14.832443237304688,85.9485092163086
2806,-156.172607421875,-3.1153366565704346,-15.019437789916992,75.34589385986328
2807,-144.8145294189453,-4.514059066772461,-9.641462326049805,87.54544830322266
2808,-150.22242736816406,-2.1803617477416988,-6.211973667144775,100.06663513183594
2809,-147.76905822753906,4.184947967529297,-5.1760215759277335,106.81715393066406
2810,-152.98995971679688,8.844862937927246,-8.915921211242676,108.90775299072266
2811,-146.84530639648438,-5.351796627044678,-9.518045425415039,112.52423858642578
2812,-147.017333984375,-11.309457778930664,-9.899515151977539,125.30722045898438
2813,-146.37033081054688,-10.13886833190918,-5.003986358642578,132.45416259765622
2814,-152.50938415527344,-13.949827194213867,-13.347702980041506,124.89582824707031
2815,-152.71507263183594,-11.713366508483887,-19.701793670654297,114.0127182006836
2816,-151.77261352539062,-7.77899169921875,-22.95176696777344,123.7252426147461
2817,-152.71133422851562,-13.79275131225586,-23.052743911743164,121.6234130859375
2818,-155.52374267578125,-14.847402572631836,-20.76392364501953,109.76419067382812
2819,-162.39019775390625,-19.518537521362305,-24.70203971862793,99.32987213134766
2820,-158.0406951904297,-5.980100154876709,-27.200292587280273,100.6874542236328
2821,-158.35110473632812,-2.4384148120880127,-20.92099952697754,96.9325942993164
2822,-158.69143676757812,-1.443601369857788,-25.25180435180664,85.32394409179688
2823,-150.86756896972656,-5.703347206115723,-25.29668235778809,85.466064453125
2824,-147.67742919921875,-0.6806617975234985,-22.375822067260746,100.2798080444336
2825,-145.04080200195312,-7.7303733825683585,-11.773204803466795,103.09969329833984
2826,-153.03671264648438,-14.383655548095705,-9.678860664367676,100.45558166503906
2827,-157.18051147460938,-6.63458251953125,-14.74642562866211,102.25821685791016
2828,-151.35374450683594,-3.833397388458252,-11.320676803588867,115.9425048828125
2829,-148.806884765625,-1.6941746473312378,-7.865009784698486,121.74683380126952
2830,-152.54678344726562,-10.808310508728027,-5.834243774414063,119.3345947265625
2831,-140.47064208984378,-4.951627731323242,-1.0060330629348757,133.81549072265622
2832,-154.08761596679688,-18.31429100036621,-15.726279258728027,121.13349151611328
2833,-148.87794494628906,-17.843063354492188,-9.761138916015623,117.17667388916016
2834,-153.044189453125,-23.5277099609375,-11.27953815460205,116.13323974609376
2835,-155.9575653076172,-23.08640289306641,-21.545562744140625,113.78084564208984
2836,-156.52976989746094,-15.210172653198242,-22.87322807312012,114.09500122070312
2837,-160.43048095703125,-20.502132415771484,-25.53603744506836,103.45872497558594
2838,-148.8367919921875,-16.560277938842773,-13.867548942565918,109.16580963134766
2839,-154.13623046875,-22.147687911987305,-23.23973846435547,87.98675537109375
2840,-153.98663330078125,-14.791304588317873,-21.4034481048584,96.64462280273438
2841,-157.4049072265625,-15.84221649169922,-21.463285446166992,90.3241958618164
2842,-149.40151977539062,-10.06407070159912,-16.537837982177734,96.51372528076172
2843,-155.3180389404297,-13.73291301727295,-19.795289993286133,98.85116577148438
2844,-149.80543518066406,-9.3871488571167,-16.24986457824707,115.56851959228516
2845,-149.4501495361328,-11.810604095458984,-15.270011901855467,112.23626708984376
2846,-152.8646697998047,-17.532651901245114,-17.087602615356445,113.1301040649414
2847,-157.105712890625,-16.163846969604492,-16.111488342285153,114.70460510253906
2848,-151.95587158203125,-10.056591033935547,-12.36410903930664,122.3826141357422
2849,-148.39549255371094,-10.550257682800293,-5.198461055755615,130.11299133300778
2850,-160.1986083984375,-15.722538948059082,-8.968279838562012,121.9637451171875
2851,-152.84222412109375,-12.652081489562988,-6.873936176300049,128.75166320800778
2852,-158.75875854492188,-17.315736770629886,-12.049957275390625,127.12480926513672
2853,-162.30418395996094,-17.835582733154297,-13.482338905334473,119.96289825439452
2854,-154.58502197265625,-13.467379570007324,-13.69925308227539,114.54752349853516
2855,-152.46075439453125,-15.685140609741213,-18.628440856933594,106.57032012939452
2856,-162.0274200439453,-19.95236587524414,-25.173267364501953,95.62737274169922
2857,-160.26219177246094,-14.3051176071167,-26.343854904174805,97.92741394042969
2858,-156.75790405273438,-18.58356285095215,-23.5277099609375,87.1153564453125
2859,-153.05914306640625,-15.397168159484865,-21.59418296813965,89.78939056396484
2860,-156.70928955078125,-21.115474700927734,-27.05069732666016,103.3128662109375
2861,-153.92306518554688,-18.048757553100586,-18.61722183227539,115.24688720703124
2862,-161.85165405273438,-5.8080644607543945,-22.51793670654297,106.71617889404295
2863,-158.5530548095703,-8.242739677429201,-21.08555603027344,108.77686309814452
2864,-154.899169921875,-4.1138901710510245,-18.445186614990234,120.83055877685548
2865,-156.81027221679688,2.45337438583374,-14.462193489074707,126.13373565673828
2866,-157.2440948486328,-0.2692728042602539,-9.473166465759276,119.39443969726562
2867,-169.76901245117188,2.520692586898804,-16.58271598815918,115.30298614501952
2868,-164.735107421875,-0.9162755012512208,-14.062024116516113,119.25979614257812
2869,-152.5019073486328,1.783932328224182,-7.1880879402160645,121.99740600585938
2870,-153.99412536621094,-3.949334383010864,-10.228626251220703,106.58153533935548
2871,-157.6180877685547,-8.740146636962889,-11.739545822143555,103.35774230957031
2872,-150.9760284423828,-7.502239227294923,-11.522631645202635,110.9235610961914
2873,-149.92510986328125,-2.109303474426269,-9.91073513031006,108.77686309814452
2874,-157.59190368652344,-12.259391784667967,-14.398614883422852,99.78614044189452
2875,-156.59335327148438,-15.139115333557127,-19.21186637878418,96.79421997070312
2876,-156.57464599609375,-9.44324779510498,-22.203786849975586,102.11609649658205
2877,-164.48828125,-14.963339805603027,-27.92957305908203,97.68058013916016
2878,-150.89747619628906,-13.407541275024414,-22.678752899169922,102.94635772705078
2879,-154.97396850585938,-12.760539054870605,-24.61602210998535,100.8819351196289
2880,-154.0950927734375,-17.603708267211914,-29.504070281982425,104.87614440917969
2881,-155.82293701171875,-10.606356620788574,-23.3107967376709,114.5325698852539
2882,-160.0714569091797,-14.286417961120605,-24.601062774658203,110.25411987304688
2883,-165.64390563964844,-17.005325317382812,-25.984825134277344,111.58552551269531
2884,-165.0717010498047,-12.902654647827148,-28.673812866210934,113.9902801513672
2885,-162.3602752685547,-9.342269897460938,-16.885648727416992,111.2003173828125
2886,-160.1275634765625,-4.65617561340332,-9.749918937683104,108.01766204833984
2887,-162.47247314453125,-7.180607795715332,-10.96912670135498,111.1778793334961
2888,-151.40985107421875,-7.898668766021728,-6.462547302246094,118.51930236816406
2889,-152.69638061523438,-10.935467720031738,-3.373389720916748,117.1243133544922
2890,-157.6180877685547,-9.544224739074707,-10.112689018249512,104.42735290527344
2891,-157.92849731445312,-10.688633918762207,-9.809757232666016,112.65887451171876
2892,-155.04129028320312,-4.106410026550293,-17.446632385253903,109.8165512084961
2893,-153.30224609375,-2.5693113803863525,-13.168188095092773,111.33869171142578
2894,-158.02947998046875,-11.02896499633789,-15.5579833984375,100.71363830566406
2895,-160.31080627441406,-12.70818042755127,-20.53952980041504,94.72979736328124
2896,-158.73257446289062,-11.122462272644043,-18.721939086914066,100.9642105102539
2897,-159.3571319580078,-7.08711051940918,-19.694313049316406,103.44750213623048
2898,-152.64401245117188,-3.971773862838745,-10.27724552154541,110.48599243164062
2899,-147.3670196533203,-11.885401725769045,-12.38654899597168,114.65972137451172
2900,-158.27256774902344,-18.12355613708496,-17.794443130493164,110.7777099609375
2901,-158.3436279296875,-8.298837661743164,-18.359169006347656,114.12491607666016
2902,-160.46788024902344,-11.515151977539062,-17.49525260925293,99.16905975341795
2903,-152.45701599121094,-6.776698589324951,-7.670534610748291,101.41674041748048
2904,-158.7624969482422,-0.938714861869812,-11.945240020751953,104.9397201538086
2905,-153.99412536621094,-5.1573219299316415,-8.80372428894043,105.642822265625
2906,-146.5517120361328,-5.32561731338501,0.8863562941551208,105.19403839111328
2907,-151.22659301757812,-3.1751749515533447,-5.142362594604492,104.79386901855469
2908,-147.6250762939453,-2.801185131072998,-5.602370262145996,106.3421859741211
2909,-141.82823181152344,1.2416467666625977,8.343716621398926,117.09439849853516
2910,-142.2321319580078,-3.321031093597412,0.20195460319519046,112.67009735107422
2911,-160.73341369628906,-6.492466449737549,-9.7686185836792,94.75971221923828
2912,-155.7967529296875,-7.7303733825683585,-11.773204803466795,107.71472930908205
2913,-150.80398559570312,-5.41911506652832,-9.31609058380127,105.76624298095705
2914,-157.43482971191406,-13.609496116638185,-17.128742218017578,91.1020965576172
2915,-153.25735473632812,-9.465686798095703,-14.944640159606935,103.88880920410156
2916,-156.88880920410156,-0.1458560973405838,-17.585010528564453,101.33071899414062
2917,-150.8413848876953,-6.967433452606201,-14.140562057495115,110.84876251220705
2918,-154.71592712402344,-6.974913597106934,-17.360614776611328,104.44605255126952
2919,-155.3704071044922,-17.121261596679688,-21.912073135375977,95.05890655517578
2920,-145.16795349121094,-9.581624031066896,-22.790950775146484,109.55475616455078
2921,-142.29945373535156,-18.49754524230957,-23.961538314819336,106.55162048339844
2922,-150.05975341796875,-17.476552963256836,-25.10594749450684,103.7541732788086
2923,-147.4006805419922,-8.93088150024414,-22.26362419128418,108.08123779296876
2924,-143.806640625,-5.400415420532227,-21.45206642150879,116.71666717529295
2925,-141.65618896484375,-12.43516731262207,-21.59792137145996,106.18136596679688
2926,-150.661865234375,-11.017745018005373,-22.31598281860352,99.9020767211914
2927,-145.89723205566406,-18.29932975769043,-19.731712341308594,98.54075622558594
2928,-147.15383911132812,-8.938361167907715,-15.430827140808105,96.20331573486328
2929,-154.96275329589844,-3.6464023590087886,-14.922201156616213,94.37076568603516
2930,-161.81051635742188,2.39353609085083,-11.234659194946287,87.33975219726562
2931,-163.14566040039062,3.844617128372192,-13.83014965057373,88.81327056884766
2932,-158.13418579101562,4.476660251617432,-11.16360092163086,102.75188446044922
2933,-150.31031799316406,3.048018455505371,-9.069257736206056,96.29681396484376
2934,-153.22369384765625,-3.373389720916748,-10.172528266906738,93.25253295898438
2935,-163.65054321289062,-8.257699012756348,-14.529511451721193,88.27098846435547
2936,-156.6980743408203,1.8624701499938965,-13.512258529663086,97.84886932373048
2937,-151.682861328125,-4.648695468902588,-15.303670883178713,101.4242172241211
2938,-153.6276092529297,-9.533004760742188,-22.10654830932617,100.98291015625
2939,-155.88650512695312,-8.669088363647461,-23.08266258239746,110.5420913696289
2940,-154.1736297607422,-13.35144329071045,-25.1882266998291,119.56272888183594
2941,-148.8517608642578,-14.177960395812988,-22.013051986694336,116.8999252319336
2942,-146.7274932861328,-14.978299140930176,-18.71072006225586,115.7143783569336
2943,-150.321533203125,-14.727725982666016,-22.809650421142575,108.2906723022461
2944,-152.92825317382812,-10.561477661132812,-23.71844482421875,103.0323715209961
2945,-153.66500854492188,-9.921954154968262,-17.072643280029293,107.68480682373048
2946,-141.37570190429688,-2.086864233016968,-11.45905303955078,107.71472930908205
2947,-146.2974090576172,-8.242739677429201,-7.333943843841553,99.86841583251952
2948,-147.47174072265625,3.6277029514312735,-0.6619622707366943,105.00704193115234
2949,-149.5286865234375,4.11014986038208,-3.7511196136474614,96.0013656616211
2950,-157.37498474121094,5.976360321044923,-4.069011211395264,82.29463195800781
2951,-153.27980041503906,7.1918277740478525,-0.8676567673683167,86.00834655761719
2952,-157.92849731445312,-2.771265983581543,-2.2775990962982178,85.8475341796875
2953,-147.46424865722656,1.5557984113693235,-3.814697980880737,95.29077911376952
2954,-151.2228546142578,2.3037784099578857,-6.698160648345947,91.30778503417969
2955,-144.6144561767578,-7.532158374786378,-5.834243774414063,96.66332244873048
2956,-138.1556396484375,-10.123908996582033,-16.17880630493164,98.97832489013672
2957,-137.31790161132812,-6.75425910949707,-4.327064037322998,115.06362915039062
2958,-142.54254150390625,-16.429380416870114,-7.39752197265625,114.92899322509766
2959,-146.5143280029297,-14.383655548095705,-10.916768074035645,112.21382904052734
2960,-143.0885772705078,-16.291004180908207,-17.779483795166016,115.4600601196289
2961,-140.7885284423828,-20.655467987060547,-7.827610492706299,120.47526550292969
2962,-141.31585693359375,-14.316336631774902,-12.562323570251465,109.52484130859376
2963,-151.29017639160156,-20.46847152709961,-15.311150550842285,99.37849426269531
2964,-144.96600341796875,-11.48523235321045,-4.069011211395264,115.18704986572266
2965,-148.44784545898438,-13.201847076416016,-12.483785629272461,102.77432250976562
2966,-141.61878967285156,-2.7413465976715092,-2.546871900558472,102.68456268310548
2967,-151.71652221679688,-12.214512825012207,-6.608403205871582,92.62422943115234
2968,-155.14601135253906,-10.733512878417967,-5.340577125549316,93.18148040771484
2969,-153.05914306640625,-8.287618637084961,7.236706256866455,95.8667221069336
2970,-153.69493103027344,-0.6283031702041626,7.304024696350098,82.53398132324219
2971,-157.96963500976562,-4.7721123695373535,-1.4996998310089111,78.4013900756836
2972,-149.24444580078125,0.5609849691390991,10.44554042816162,96.81665802001952
2973,-151.19293212890625,-10.78961181640625,3.302331686019897,103.3764419555664
2974,-139.48704528808594,-13.811450958251953,5.056344509124756,112.27740478515624
2975,-143.9188232421875,-19.7429313659668,-9.058037757873537,116.63065338134766
2976,-145.743896484375,-17.764524459838867,-3.837137460708618,127.4614028930664
2977,-142.3892059326172,-23.90544128417969,-4.375682830810547,129.29020690917972
2978,-150.57958984375,-26.089542388916016,-6.911334991455077,120.81559753417969
2979,-155.50877380371094,-18.55364418029785,-3.99047327041626,112.52050018310548
2980,-145.9234161376953,-14.967079162597654,-2.4122354984283447,117.344970703125
2981,-146.9780731201172,-19.335283279418945,-5.16854190826416,113.96036529541016
2982,-143.94874572753906,-16.552797317504886,-5.400415420532227,105.75875854492188
2983,-151.1218719482422,-10.127649307250977,-0.25805309414863586,105.41842651367188
2984,-145.14552307128906,-2.3785762786865234,0.3814697861671448,105.91209411621094
2985,-140.85585021972656,-9.05429744720459,-1.3426240682601929,100.70989227294922
2986,-147.4492950439453,-6.167095184326173,3.47810697555542,93.19269561767578
2987,-157.09075927734375,-4.4430012702941895,-11.963939666748047,73.25528717041016
2988,-147.2323760986328,-5.119923114776611,-1.1593689918518066,87.06674194335938
2989,-149.12103271484375,-2.12052321434021,3.9081954956054688,102.8939971923828
2990,-157.3263702392578,-4.517799377441406,-2.696467876434326,94.12767028808594
2991,-159.75730895996094,4.551458358764648,-5.6135897636413565,99.32613372802734
2992,-153.2947540283203,2.1953213214874268,-10.681154251098633,110.46355438232422
2993,-140.13404846191406,2.2065410614013667,-0.6208233833312988,118.4482421875
2994,-136.74943542480472,-9.88829517364502,-0.4413082003593445,119.89932250976562
2995,-149.0088348388672,-7.7602925300598145,-9.319830894470217,119.39817810058594
2996,-141.83570861816406,-2.614190101623535,-9.282431602478027,122.23301696777344
2997,-136.77188110351562,-1.3388842344284058,-2.2476799488067627,124.20021057128906
2998,-148.32443237304688,-9.974312782287598,-13.631935119628904,107.33699798583984
2999,-154.33445739746094,-3.99047327041626,-14.74642562866211,107.4080581665039
3000,-156.83270263671875,-9.559184074401855,-8.526971817016603,114.44281005859376
3001,-149.9438018798828,-1.424901843070984,-7.371342658996582,117.26643371582031
3002,-158.1304473876953,-4.607556819915772,-10.78213119506836,99.73004150390624
3003,-156.28668212890625,-3.2798922061920166,-9.82471752166748,92.66911315917969
3004,-154.84307861328125,7.214266777038574,-3.0854175090789795,86.03453063964844
3005,-154.97396850585938,6.627102851867676,-1.1481492519378662,85.9073715209961
3006,-153.09280395507812,10.97286605834961,-1.2416467666625977,89.15360260009766
3007,-162.18824768066406,5.9726200103759775,-7.3302040100097665,95.30574035644531
3008,-160.90171813964844,3.238753318786621,-12.32671070098877,101.73462677001952
3009,-144.25167846679688,2.83484411239624,-6.679461479187013,109.00125122070312
3010,-154.79820251464844,-4.4168219566345215,-10.9130277633667,107.39683532714844
3011,-151.4248046875,0.2879723012447357,-13.789011001586914,118.8932876586914
3012,-158.126708984375,-11.156121253967283,-23.1051025390625,114.13240051269531
3013,-148.19728088378906,-7.427441120147705,-13.878768920898438,119.82452392578124
3014,-154.37933349609375,-13.276644706726074,-17.326955795288086,113.36571502685548
3015,-155.7462615966797,-18.20022392272949,-12.491266250610352,118.75491333007812
3016,-154.59811401367188,-19.09779930114746,-17.824363708496094,115.52364349365234
3017,-157.04774475097656,-12.440776824951172,-12.345409393310547,109.64825439453124
3018,-152.1522216796875,2.574921131134033,-12.83159637451172,106.84333038330078
3019,-153.98477172851562,-5.73513650894165,-15.490665435791016,95.67224884033205
3020,-156.6027069091797,-7.571427345275879,-17.016544342041016,87.82594299316406
3021,-157.7545928955078,-6.434497833251952,-14.256498336791992,81.89446258544922
3022,-147.193115234375,-1.4940900802612305,-4.7459330558776855,83.57367706298828
3023,-154.45225524902344,-5.757575988769531,-17.966480255126953,84.73678588867188
3024,-153.2405242919922,-6.460677146911621,-19.82894897460937,83.01268768310547
3025,-150.05787658691406,4.635605812072754,-7.39752197265625,101.65982818603516
3026,-161.0868377685547,-6.62897253036499,-12.536144256591795,92.81871032714844
3027,-153.65939331054688,-7.092720031738281,-10.950427055358887,94.83077239990234
3028,-159.92747497558594,-11.558160781860352,-17.46533203125,106.08039093017578
3029,-158.20712280273438,-12.949403762817385,-8.332496643066406,109.47248077392578
3030,-158.98875427246094,-11.96207046508789,-7.741592884063722,109.02369689941406
3031,-151.9091339111328,-3.7268102169036874,-9.37218952178955,112.54293823242188
3032,-149.70632934570312,-9.160884857177734,-11.133682250976562,119.63005065917969
3033,-157.3544158935547,-11.416044235229492,-11.346856117248535,115.33290100097656
3034,-158.2594757080078,-0.7872489690780641,-4.749672889709473,116.12950134277344
3035,-165.98611450195312,-12.134105682373047,-12.730619430541992,101.30828094482422
3036,-156.79344177246094,-5.144232273101807,-9.117876052856444,103.90003204345705
3037,-158.10987854003906,-12.104186058044435,-12.36410903930664,96.85779571533205
3038,-155.15162658691406,-8.00899600982666,-9.787318229675293,93.0318832397461
3039,-154.33258056640625,-5.914651870727539,-12.083617210388185,94.3184051513672
3040,-161.06814575195312,-8.633559226989746,-15.471965789794922,100.05541229248048
3041,-151.85302734375,-8.599900245666504,-11.720846176147461,104.0720672607422
3042,-148.1617431640625,-12.246302604675293,-12.955013275146484,99.46450805664062
3043,-145.71585083007812,-13.244855880737305,-9.31235122680664,100.73607635498048
3044,-155.69764709472656,-14.927810668945312,-14.821223258972168,107.849365234375
3045,-149.2612762451172,-12.796067237854006,-5.071304321289063,114.5138702392578
3046,-151.49026489257812,-11.887271881103516,-10.449280738830566,109.81281280517578
3047,-155.72756958007812,-14.871711730957033,-15.408388137817385,106.48804473876952
3048,-156.02674865722656,-14.83431339263916,-12.322970390319824,113.56393432617188
3049,-147.6568603515625,-9.59471321105957,-4.637475967407227,121.28682708740234
3050,-159.4973907470703,-21.554912567138672,-13.063470840454102,115.18704986572266
3051,-153.66314697265625,-26.416784286499023,-10.598875999450684,115.14216613769531
3052,-151.96522521972656,-22.785341262817386,-9.469427108764648,119.1476058959961
3053,-158.73069763183594,-7.100200176239014,-13.560876846313475,100.47428131103516
3054,-165.77293395996094,-16.225555419921875,-14.215359687805176,99.30369567871094
3055,-153.05728149414062,-10.712943077087402,-10.733512878417967,102.74813842773438
3056,-162.50799560546875,-6.756129264831543,-14.503332138061525,107.4267578125
3057,-168.36842346191406,-4.572027683258057,-21.526865005493164,104.34881591796876
3058,-166.61441040039062,-2.619799852371216,-20.89108085632324,103.74669647216795
3059,-167.06320190429688,-1.086440920829773,-29.750904083251953,97.72545623779295
3060,-172.25791931152344,6.647672176361084,-31.643293380737305,102.5536651611328
3061,-172.73289489746094,-0.5815544724464417,-25.158306121826172,101.61869049072266
3062,-168.54420471191406,6.887025833129883,-15.284971237182615,105.16411590576172
3063,-169.84568786621094,8.143631935119629,-22.63387489318848,101.23722076416016
3064,-162.05921936035156,10.481069564819336,-14.918460845947266,110.51217651367188
3065,-168.88079833984375,12.104186058044435,-9.248772621154783,110.36631774902344
3066,-171.9063720703125,-5.121792793273926,-14.593090057373047,98.43229675292969
3067,-167.4484100341797,-0.8583070635795593,-15.277491569519045,106.31974792480469
3068,-174.20266723632812,0.9069257378578186,-17.891681671142578,110.99088287353516
3069,-173.20037841796875,-4.1045403480529785,-13.504778861999512,109.85395050048828
3070,-170.51512145996094,-3.3715198040008545,-12.524925231933596,104.5993881225586
3071,-174.80479431152344,-10.98969554901123,-17.311996459960938,92.45967864990234
3072,-163.02784729003906,0.05796844884753227,-9.102916717529297,106.19258880615234
3073,-164.40786743164062,-7.470449924468994,-10.262285232543944,99.37100982666016
3074,-158.00889587402344,-7.496629238128662,-13.179407119750975,98.88108825683594
3075,-166.4872589111328,-10.38009262084961,-16.956707000732422,96.66706085205078
3076,-165.79164123535156,-10.907418251037598,-15.655220985412598,105.12297821044922
3077,-166.58822631835938,-10.638145446777344,-14.80626392364502,101.43544006347656
3078,-166.12448120117188,-14.987648963928224,-11.87418270111084,105.90087890625
3079,-161.75254821777344,-17.87485122680664,-16.223686218261722,106.3010482788086
3080,-161.68148803710938,-12.119145393371582,-14.054544448852539,113.58263397216795
3081,-155.4059295654297,-7.728503227233888,-2.0307657718658447,125.15762329101562
3082,-165.18577575683594,-17.758914947509766,-7.689234256744385,112.03430938720705
3083,-164.72576904296875,-14.45284366607666,-11.432873725891113,100.97917175292969
3084,-155.2899932861328,-9.703170776367188,-0.5946440696716309,111.9819564819336
3085,-164.60983276367188,-15.90766429901123,-4.353243350982666,102.1086196899414
3086,-162.6650848388672,-11.580599784851074,-1.6679953336715698,98.8773422241211
3087,-170.47772216796875,-12.137845039367676,-8.448433876037598,99.5991439819336
3088,-161.4271697998047,-8.293228149414062,-6.795398235321045,102.1460189819336
3089,-160.69041442871094,-12.104186058044435,-6.417668342590332,102.72570037841795
3090,-155.4134063720703,-11.505802154541016,-7.360123157501222,98.34628295898438
3091,-160.14437866210938,-16.378890991210938,-12.83907699584961,96.71568298339844
3092,-162.78102111816406,-24.314960479736328,-17.420454025268555,99.0568618774414
3093,-157.4479217529297,-21.682069778442386,-23.494050979614254,107.46041870117188
3094,-159.97982788085938,-14.127471923828125,-16.504179000854492,95.1037826538086
3095,-153.74168395996094,-10.518468856811523,-13.66185474395752,111.80243682861328
3096,-158.18841552734375,-15.941323280334473,-14.940899848937988,111.59674835205078
3097,-165.8065948486328,-11.801254272460938,-12.868995666503904,116.99342346191406
3098,-159.25054931640625,-9.16462516784668,-5.744486331939697,119.33834075927734
3099,-171.266845703125,-18.3984375,-14.697806358337402,102.19463348388672
3100,-169.54649353027344,-10.114559173583984,-12.461346626281738,108.7357177734375
3101,-165.6644744873047,-14.688457489013672,-11.002785682678224,106.43194580078124
3102,-164.88284301757812,-4.542108535766602,-4.353243350982666,103.53726196289062
3103,-169.77462768554688,-3.494936466217041,-7.1880879402160645,102.2282943725586
3104,-167.00709533691406,-10.148218154907227,-10.726033210754396,105.71762084960938
3105,-158.73069763183594,-4.325194358825684,-3.403308868408203,109.14710998535156
3106,-165.45130920410156,-6.9618239402771,-7.5732975006103525,98.7539291381836
3107,-165.14463806152344,-7.406871795654298,-11.844263076782227,93.86213684082031
3108,-161.37481689453125,-17.007194519042972,-17.835582733154297,103.32782745361328
3109,-157.56759643554688,-20.444162368774414,0.7405002117156982,116.51470947265624
3110,-160.3014678955078,-15.578553199768065,-4.970326900482178,110.47477722167969
3111,-158.8915252685547,-11.76385498046875,-18.29559135437012,100.19378662109376
3112,-161.49822998046875,-30.837345123291016,-30.199691772460934,101.51397705078124
3113,-154.76266479492188,-25.34343147277832,-19.971065521240234,111.55560302734376
3114,-152.39157104492188,-33.85170364379883,-22.70119285583496,109.01995086669922
3115,-163.8955078125,-45.759544372558594,-32.080860137939446,106.65633392333984
3116,-161.44961547851562,-48.542030334472656,-27.45086479187012,112.29984283447266
3117,-167.39979553222656,-51.08142471313477,-28.273643493652344,114.36801147460938
3118,-167.94955444335938,-45.909141540527344,-29.71350479125977,110.70664978027344
3119,-167.6653289794922,-44.5029411315918,-25.206926345825195,106.2636489868164
3120,-163.92169189453125,-38.39568328857422,-17.944040298461914,113.52653503417969
3121,-157.55638122558594,-38.59763717651367,-15.801076889038086,110.42989349365234
3122,-156.71490478515625,-39.83554458618164,-12.928833961486815,107.1462631225586
3123,-158.27069091796875,-32.823230743408196,-8.740146636962889,99.5991439819336
3124,-149.25753784179688,-32.46420288085937,-5.83798360824585,103.6569366455078
3125,-157.92288208007812,-40.23571395874024,-4.566417694091797,95.69468688964844
3126,-150.8843994140625,-36.87354278564453,-8.235260009765625,93.68636322021484
3127,-153.40135192871094,-41.41378402709961,-5.067564487457275,92.85984802246094
3128,-144.83697509765625,-36.01336669921875,-4.9067487716674805,105.35858917236328
3129,-146.60594177246094,-33.028926849365234,-7.7939515113830575,104.54329681396484
3130,-156.6924591064453,-48.86740112304688,-15.31863021850586,101.3456802368164
3131,-155.91456604003906,-42.962100982666016,-23.96901893615723,105.79241943359376
3132,-156.61766052246094,-47.476158142089844,-25.37522125244141,114.82427978515624
3133,-158.2108612060547,-45.531410217285156,-24.34300804138184,122.2442398071289
3134,-163.57012939453125,-49.27131271362305,-31.572235107421875,110.97592163085938
3135,-169.16502380371094,-42.93592071533203,-34.27618408203125,116.6194305419922
3136,-176.35311889648438,-48.69536590576172,-42.975189208984375,109.19198608398438
3137,-166.7340850830078,-36.57809066772461,-30.09871482849121,118.44076538085938
3138,-164.62852478027344,-33.496414184570305,-23.54266929626465,110.04094696044922
3139,-158.9364013671875,-38.474220275878906,-21.078075408935547,104.4348373413086
3140,-156.688720703125,-34.184555053710945,-18.05249786376953,100.09281158447266
3141,-151.0452117919922,-21.143524169921875,-16.032951354980472,99.62906646728516
3142,-160.5408172607422,-33.10372543334961,-19.09218978881836,84.88638305664062
3143,-157.2384796142578,-18.275020599365234,-14.869842529296875,85.64557647705078
3144,-163.5963134765625,-18.245101928710934,-17.244678497314453,88.10643005371094
3145,-152.6945037841797,-14.744555473327635,-7.633135795593263,90.23443603515624
3146,-153.68931579589844,-5.35366678237915,-3.4668872356414795,91.69673919677734
3147,-157.60873413085938,-22.946155548095703,-10.71855354309082,90.66078186035156
3148,-144.27598571777344,-19.07161903381348,-10.815791130065918,108.23831176757812
3149,-147.21554565429688,-37.85339736938477,-22.514198303222656,105.8410415649414
3150,-157.6311798095703,-38.051612854003906,-25.143346786499023,110.48973083496094
3151,-160.31268310546875,-34.236915588378906,-26.06336212158203,111.58926391601562
3152,-163.58135986328125,-30.209041595458984,-32.09208297729492,118.0705108642578
3153,-167.029541015625,-40.706939697265625,-31.19076538085937,113.80328369140624
3154,-167.9607696533203,-38.896827697753906,-31.411418914794922,111.48080444335938
3155,-168.91444396972656,-35.4710807800293,-31.882646560668945,112.03430938720705
3156,-161.67774963378906,-31.518007278442386,-30.77189636230469,114.08377838134766
3157,-151.594970703125,-34.928794860839844,-29.904239654541016,109.23686981201172
3158,-157.22352600097656,-29.12073135375977,-31.99858474731445,102.4452133178711
3159,-151.47903442382812,-26.92914962768555,-20.15058135986328,101.18112182617188
3160,-147.5596160888672,-20.99392890930176,-21.22393226623535,94.69987487792969
3161,-158.8054962158203,-22.643224716186523,-25.40139961242676,87.18267822265625
3162,-155.4582977294922,-23.67917633056641,-24.705780029296875,79.90109252929688
3163,-164.8791046142578,-15.279361724853516,-19.98228454589844,75.71614074707031
3164,-149.4781951904297,-17.048334121704098,-20.00472450256348,87.1153564453125
3165,-148.99948120117188,-9.460077285766602,-6.413928508758545,98.02838897705078
3166,-146.9761962890625,-16.547187805175778,-7.195567607879639,98.08448791503906
3167,-154.59063720703125,-16.842639923095707,-6.608403205871582,108.0887222290039
3168,-156.1800994873047,-19.243656158447266,-13.19436740875244,114.90655517578124
3169,-170.2047119140625,-24.04568672180176,-12.629642486572266,120.10501861572266
3170,-165.5859375,-25.369611740112305,-7.281585216522218,127.861572265625
3171,-164.29566955566406,-33.72080612182617,-19.27544403076172,127.8428726196289
3172,-162.44068908691406,-28.55226707458496,-11.99385929107666,134.62704467773438
3173,-159.75543212890625,-26.188650131225586,-15.520585060119627,129.90354919433594
3174,-159.6619415283203,-33.85544586181641,-17.8056640625,120.76323699951172
3175,-161.19903564453125,-32.92047119140625,-19.24178504943848,115.9200668334961
3176,-168.42079162597656,-33.993820190429695,-22.81712913513184,116.38755798339844
3177,-156.72238159179688,-29.91732978820801,-18.946332931518555,114.6784210205078
3178,-154.20916748046875,-29.75651359558105,-25.23310470581055,99.22515869140624
3179,-162.36215209960938,-31.03556060791016,-23.912919998168945,83.71205139160156
3180,-158.2108612060547,-17.45224380493164,-18.78177833557129,92.2278060913086
3181,-151.4752960205078,-26.28962707519531,-12.109796524047852,87.01811981201172
3182,-151.265869140625,-18.73502922058105,-13.40006160736084,93.1365966796875
3183,-166.53587341308594,-13.588926315307615,-20.988319396972656,85.23793029785156
3184,-161.15415954589844,-11.44970417022705,-19.51479721069336,96.88397979736328
3185,-159.6058349609375,-15.223262786865234,-14.847402572631836,113.8294677734375
3186,-158.8503875732422,-5.854813575744629,-7.823870658874513,117.71896362304688
3187,-172.99842834472656,-18.267541885375977,-17.270858764648438,111.18535614013672
3188,-161.67401123046875,-18.83226585388184,-17.095083236694336,128.38516235351562
3189,-154.81129455566406,-16.648164749145508,-13.964786529541016,123.02214050292969
3190,-159.7367401123047,-16.588325500488278,-9.159014701843262,120.20599365234376
3191,-153.14703369140625,-25.059200286865234,-17.83184242248535,117.83863830566406
3192,-160.2603302001953,-25.67628288269043,-23.146240234375,117.98075103759766
3193,-151.49400329589844,-19.12397766113281,-15.008218765258787,124.88461303710938
3194,-168.24874877929688,-34.19577407836914,-24.197153091430664,98.12188720703124
3195,-158.62599182128906,-27.20590209960937,-15.322370529174805,102.81546020507812
3196,-158.70452880859375,-21.43523597717285,-19.754152297973636,99.51313018798828
3197,-153.22930908203125,-20.63115882873535,-19.623254776000977,104.62557220458984
3198,-162.9306182861328,-19.47926902770996,-26.17181968688965,91.65560150146484
3199,-153.4649200439453,-16.270435333251953,-24.174713134765625,94.9990692138672
3200,-155.40966796875,-18.514373779296875,-24.017637252807614,102.38162994384766
3201,-159.29168701171875,-15.410257339477539,-13.553397178649902,105.46331024169922
3202,-152.09237670898438,-13.91803741455078,-12.880215644836426,108.10367584228516
3203,-166.524658203125,-17.313867568969727,-15.823516845703125,107.0415496826172
3204,-159.1869659423828,-12.40711784362793,-9.020638465881348,113.95661926269531
3205,-147.3539276123047,-8.323147773742676,-4.888049125671387,118.35100555419922
3206,-145.92529296875,-10.7017240524292,-1.2229472398757937,110.8599853515625
3207,-151.11627197265625,-13.435590744018555,-5.834243774414063,112.76359558105469
3208,-145.85049438476562,-12.676390647888185,-9.675121307373047,117.82367706298828
3209,-146.62464904785156,-12.998022079467773,-5.441554546356201,123.4297866821289
3210,-150.0242156982422,-15.746849060058596,-13.452420234680176,111.2825927734375
3211,-151.8979034423828,-18.035667419433594,-18.864055633544922,106.89942932128906
3212,-154.48965454101562,-18.93324279785156,-16.769710540771484,110.34387969970705
3213,-150.33836364746094,-18.76494789123535,-16.728572845458984,108.41409301757812
3214,-147.60824584960938,-11.27392864227295,-13.60201644897461,105.82981872558594
3215,-161.8086395263672,-20.612459182739254,-21.489465713500977,88.16252899169922
3216,-164.6621856689453,-15.46074676513672,-25.49115753173828,96.12664794921876
3217,-161.34115600585938,-10.79335117340088,-20.76392364501953,99.92638397216795
3218,-167.13426208496094,-11.238399505615234,-13.77031135559082,103.0641632080078
3219,-165.13714599609375,-14.22283935546875,-17.222238540649414,104.12255096435548
3220,-154.987060546875,-8.867302894592285,-11.97141933441162,117.17106628417969
3221,-166.7415771484375,-13.998445510864258,-8.829903602600098,113.4049835205078
3222,-159.77413940429688,-18.50502586364746,-10.942947387695312,112.61212921142578
3223,-159.95364379882812,-14.802523612976074,-14.035844802856445,111.05632781982422
3224,-151.70343017578125,-15.823516845703125,-12.794198036193848,116.86439514160156
3225,-148.21035766601562,-13.171927452087402,-6.548564910888673,122.12269592285156
3226,-148.45346069335938,-7.823870658874513,-7.71915340423584,120.71275329589844
3227,-145.03518676757812,-13.654375076293945,-11.597430229187012,114.040771484375
3228,-146.6358642578125,-20.472211837768555,-17.311996459960938,112.58969116210938
3229,-151.4715576171875,-14.065763473510742,-16.721092224121097,112.2792739868164
3230,-146.22073364257812,-2.363616704940796,-12.49500560760498,105.4090805053711
3231,-152.09986877441406,-11.507672309875488,-21.58670234680176,107.596923828125
3232,-159.37022399902344,-16.145147323608402,-26.388734817504886,98.70343780517578
3233,-164.9613800048828,-11.36181640625,-23.624948501586914,101.08575439453124
3234,-155.43959045410156,-3.997952938079834,-8.440954208374022,112.31293487548828
3235,-171.13595581054688,-6.851496696472168,-21.440847396850586,96.1752700805664
3236,-176.2708282470703,-4.970326900482178,-17.484031677246097,99.46263885498048
3237,-175.26853942871094,-2.7675259113311768,-21.010757446289066,104.4853286743164
3238,-169.0640411376953,-0.9013158679008484,-19.245525360107425,99.2457275390625
3239,-171.59970092773438,2.094343900680542,-16.111488342285153,106.2954330444336
3240,-161.9096221923828,-1.1892881393432615,-19.23430633544922,109.30231475830078
3241,-158.24078369140625,-5.804324626922607,-18.841615676879886,110.17371368408205
3242,-150.90309143066406,-0.8377375602722168,-7.610696315765381,119.40752410888672
3243,-150.31219482421875,-3.582824230194092,-5.976360321044923,117.18976593017578
3244,-149.7736358642578,-6.3204307556152335,-9.058037757873537,119.7628173828125
3245,-150.12893676757812,-6.451327323913574,-9.278692245483398,117.04390716552734
3246,-151.72213745117188,-2.5767910480499268,-10.157567977905273,114.0819091796875
3247,-156.40074157714844,-7.917368412017822,-16.664993286132812,112.4961929321289
3248,-154.6878662109375,-10.221146583557127,-20.939699172973636,116.31462860107422
3249,-157.017822265625,-3.448187828063965,-11.911581039428713,113.89117431640624
3250,-164.97633361816406,-10.759692192077637,-16.874427795410153,96.48941802978516
3251,-157.85556030273438,-10.40066146850586,-20.54701042175293,98.84929656982422
3252,-161.70765686035156,-6.881415843963622,-20.6517276763916,103.67750549316406
3253,-167.73638916015625,-0.4600076973438263,-20.43107414245605,111.31438446044922
3254,-174.80853271484375,-7.580777168273926,-24.61228179931641,98.93157196044922
3255,-180.69888305664062,-6.425148010253906,-23.75210380554199,97.99659729003906
3256,-169.05282592773438,-0.4899269044399262,-20.68912696838379,105.94014739990234
3257,-164.25453186035156,-4.274705886840819,-18.49006462097168,109.63142395019531
3258,-153.72671508789062,-1.2827856540679932,-11.896621704101562,101.90853118896484
3259,-157.78076171875,-12.379069328308105,-15.8309965133667,101.05957794189452
3260,-147.4773406982422,-6.604663372039795,-15.853435516357422,106.575927734375
3261,-142.82864379882812,-12.083617210388185,-8.377375602722168,118.45011138916016
3262,-143.7561492919922,-11.043924331665039,-5.112443447113037,112.29049682617188
3263,-144.2647705078125,-19.69805335998535,-15.812296867370605,104.6461410522461
3264,-141.32147216796875,-15.74497890472412,-7.980946540832519,111.25828552246094
3265,-134.55972290039062,-9.641462326049805,0.508626401424408,113.3152313232422
3266,-147.30905151367188,-13.156968116760256,-6.15961503982544,99.08490753173828
3267,-150.4131622314453,-15.812296867370605,-8.852343559265137,96.32112121582031
3268,-149.739990234375,-12.334190368652346,-10.097729682922363,105.77932739257812
3269,-150.7871551513672,-9.454466819763184,-8.512012481689451,109.5865478515625
3270,-160.05462646484375,-10.228626251220703,-14.028365135192873,103.84954071044922
3271,-168.45819091796875,-9.334790229797363,-22.31598281860352,98.5613250732422
3272,-166.30026245117188,-5.920261859893799,-20.367494583129886,103.36335754394531
3273,-166.84254455566406,-5.4527740478515625,-12.80541706085205,107.00975799560548
3274,-171.65579223632812,-3.9829933643341056,-12.622162818908693,98.9016571044922
3275,-176.02774047851562,-8.08940315246582,-20.019683837890625,93.26188659667969
3276,-168.26370239257812,-1.290265440940857,-10.052850723266602,106.70682525634766
3277,-164.84918212890625,-0.4861869812011719,-6.365309715270996,108.7450714111328
3278,-165.39894104003906,-16.268564224243164,-10.03041172027588,104.30207061767578
3279,-159.08599853515625,-9.525525093078613,-4.8843092918396,109.39955139160156
3280,-159.55722045898438,-7.685494422912598,-8.156722068786621,112.42513275146484
3281,-148.9246826171875,-10.049111366271973,-3.616483211517334,116.60260009765624
3282,-145.1062469482422,-16.35084342956543,-12.790457725524902,103.0379867553711
3283,-145.4951934814453,-20.408634185791016,-12.543624877929688,99.78427124023438
3284,-145.6298370361328,-7.752812385559082,-12.868995666503904,106.50112915039062
3285,-140.41641235351562,-12.913874626159668,-11.496452331542967,109.38833618164062
3286,-148.03085327148438,-18.389087677001953,-14.727725982666016,104.94158935546876
3287,-153.40882873535156,-17.843063354492188,-19.597076416015625,99.82167053222656
3288,-151.48651123046875,-16.65377426147461,-19.26422500610352,106.23185729980469
3289,-151.42294311523438,-7.980946540832519,-9.794797897338867,111.27324676513672
3290,-159.02989196777344,-10.03041172027588,-12.902654647827148,104.52272033691406
3291,-150.69740295410156,-7.068410873413086,-8.489572525024414,106.43755340576172
3292,-152.79922485351562,-11.769465446472168,-12.75679874420166,106.07478332519531
3293,-154.9496612548828,-13.022331237792967,-11.690927505493164,104.63866424560548
3294,-155.75747680664062,-10.785871505737305,-15.920754432678224,103.75604248046876
3295,-157.98646545410156,-14.017145156860352,-16.911827087402347,98.81189727783205
3296,-160.25657653808594,-14.94838047027588,-10.905548095703123,112.28675842285156
3297,-155.00950622558594,-14.308856964111328,-13.32900333404541,109.79598236083984
3298,-148.62548828125,-5.845463752746582,-3.231273651123047,116.50910186767578
3299,-160.9634246826172,-12.723139762878418,-6.657021999359131,111.7145538330078
3300,-149.9419403076172,-4.4729204177856445,-3.1602153778076167,122.1114730834961
3301,-145.0651092529297,-10.628795623779297,-5.198461055755615,120.07696533203124
3302,-154.0146942138672,-12.098576545715332,-8.975759506225586,112.18577575683594
3303,-152.6608428955078,-17.72712516784668,-13.142008781433105,106.41511535644531
3304,-152.38409423828125,-12.42394733428955,-9.951873779296877,113.0571746826172
3305,-142.2377471923828,-7.158168315887451,-0.493666797876358,120.17794799804688
3306,-159.68812561035156,-14.910981178283693,-10.479199409484863,109.17890167236328
3307,-155.76123046875,-12.401508331298828,-13.2691650390625,107.83253479003906
3308,-159.00372314453125,-11.990118980407715,-17.057683944702152,108.9021453857422
3309,-154.50086975097656,-7.988426208496094,-14.200400352478027,111.5948715209961
3310,-156.31472778320312,-13.003632545471193,-22.31972312927246,102.19276428222656
3311,-152.1073455810547,-12.857775688171387,-18.53120422363281,102.07682800292969
3312,-155.26380920410156,-8.571850776672362,-23.49031066894531,99.41402435302734
3313,-159.72926330566406,-6.499946117401122,-15.427087783813475,102.21146392822266
3314,-152.08863830566406,-3.9119353294372563,-9.820977210998537,112.1521224975586
3315,-151.42294311523438,-7.498499393463135,-20.10196304321289,107.14439392089844
3316,-155.81358337402344,-11.189780235290527,-18.748119354248047,111.34056091308594
3317,-156.524169921875,-10.39692211151123,-13.886248588562012,113.2366943359375
3318,-154.6504669189453,-2.2925586700439453,-9.095437049865724,114.96826171875
3319,-152.7842559814453,-8.003385543823242,-6.544825077056885,112.18577575683594
3320,-152.82540893554688,-6.533605098724365,-13.57957649230957,112.6345672607422
3321,-148.2926483154297,-11.429134368896484,-18.44144630432129,105.7905502319336
3322,-149.4370574951172,-10.961647033691406,-12.079876899719238,106.43755340576172
3323,-146.87896728515625,-9.31235122680664,-12.453866958618164,103.9093780517578
3324,-150.25608825683594,-6.877676010131836,-17.5999698638916,111.1947021484375
3325,-157.8181610107422,-19.361461639404297,-25.21440505981445,104.23474884033205
3326,-150.76097106933594,-13.239245414733887,-20.225378036499023,102.8210678100586
3327,-151.770751953125,-9.925694465637207,-21.036937713623047,108.4047393798828
3328,-143.801025390625,-5.796844959259032,-22.005571365356445,107.49220275878906
3329,-147.38011169433594,-6.739299774169923,-23.41551399230957,104.51524353027344
3330,-155.1665802001953,-14.757645606994627,-17.73460578918457,102.89586639404295
3331,-150.1064910888672,-11.848003387451172,-24.74691772460937,102.843505859375
3332,-160.09950256347656,-17.442893981933597,-34.07796859741211,97.94798278808594
3333,-154.79632568359375,-0.3590303957462311,-22.697452545166016,102.83976745605469
3334,-148.90972900390625,2.135482788085937,-20.90604019165039,99.53369903564452
3335,-150.17381286621094,-5.048864841461182,-20.565710067749023,95.0906982421875
3336,-151.9315643310547,-5.303178310394287,-19.208126068115234,106.12339782714844
3337,-150.27853393554688,0.5198460817337036,-9.813497543334961,114.25768280029295
3338,-152.90768432617188,-6.582223892211914,-16.365802764892578,107.46602630615234
3339,-158.5399627685547,-3.186394691467285,-11.784424781799315,108.75629425048828
3340,-166.72286987304688,-15.24757194519043,-23.47161293029785,99.3242645263672
3341,-159.76290893554688,-8.485833168029785,-21.18279266357422,105.55867767333984
3342,-152.86280822753906,-12.543624877929688,-20.251558303833008,101.28771209716795
3343,-150.5290985107422,-8.440954208374022,-18.13851547241211,100.27045440673828
3344,-166.10205078125,-11.889142036437988,-24.36170768737793,103.74108123779295
3345,-152.97499084472656,-9.488125801086426,-15.767417907714846,113.55458068847656
3346,-155.9669189453125,-14.170480728149414,-16.36954116821289,104.80321502685548
3347,-154.91973876953125,-12.988672256469727,-19.23804473876953,107.64927673339844
3348,-159.43380737304688,-6.107256412506104,-23.05648231506348,110.43550872802734
3349,-168.74615478515625,-8.968279838562012,-30.435306549072266,108.27010345458984
3350,-167.4484100341797,2.1018238067626958,-20.55449104309082,109.1415023803711
3351,-170.47772216796875,-0.6170834898948669,-22.91810607910156,105.62225341796876
3352,-167.28759765625,2.0045864582061768,-13.904948234558105,113.5022201538086
3353,-168.64517211914062,-6.627102851867676,-10.41188144683838,110.48412322998048
3354,-172.97972106933594,-7.689234256744385,-9.136575698852539,102.85846710205078
3355,-158.1697235107422,-4.6038169860839835,-12.730619430541992,98.6884765625
3356,-154.63551330566406,-7.640615463256836,-16.496698379516598,99.23076629638672
3357,-143.07174682617188,-6.686941146850586,-12.786718368530273,105.48014068603516
3358,-144.58639526367188,-11.15986156463623,-5.7295265197753915,103.99913787841795
3359,-153.6332244873047,-22.66753387451172,-15.457006454467773,95.13931274414062
3360,-138.79330444335938,-2.5132126808166504,-1.0322123765945437,114.81118774414062
3361,-150.0840606689453,-17.412973403930664,-9.102916717529297,107.72782135009766
3362,-150.74227905273438,-10.82701015472412,-10.632535934448242,110.0128936767578
3363,-151.37806701660156,-24.43276596069336,-18.523723602294922,96.85967254638672
3364,-150.55902099609375,-21.34734916687012,-22.89566802978516,104.15995025634766
3365,-151.43789672851562,-11.93776035308838,-15.774897575378418,108.01204681396484
3366,-151.19107055664062,-12.427687644958494,-18.261932373046875,108.21400451660156
3367,-166.8238525390625,-10.89806842803955,-23.782024383544922,99.69824981689452
3368,-159.7030792236328,-6.058638095855713,-13.684293746948242,107.37252807617188
3369,-161.20277404785156,-7.6780147552490225,-14.832443237304688,113.2591323852539
3370,-162.97923278808594,-5.243339538574219,-16.481739044189453,111.13860321044922
3371,-167.1903533935547,-9.607803344726562,-21.093036651611328,104.21604919433594
3372,-162.14523315429688,-2.5655713081359863,-25.775390625,107.54082489013672
3373,-152.50376892089844,-3.889495849609375,-16.500438690185547,114.53817749023438
3374,-153.26670837402344,-5.3480567932128915,-14.106903076171875,107.6567611694336
3375,-153.5958251953125,-12.405247688293455,-11.073843955993652,108.31124114990234
3376,-153.1245880126953,-9.282431602478027,-16.406940460205078,108.87596893310548
3377,-139.86665344238278,-10.39692211151123,-9.57414436340332,115.03558349609376
3378,-142.4022979736328,-16.014251708984375,-13.77031135559082,99.12979125976562
3379,-141.4336700439453,-15.954413414001465,-16.522878646850586,103.09033966064452
3380,-148.95834350585938,-20.588150024414066,-23.030303955078125,96.91576385498048
3381,-142.9520721435547,-18.96503257751465,-18.650880813598636,108.67027282714844
3382,-148.90972900390625,-21.781177520751953,-18.30681037902832,105.27444458007812
3383,-162.5379180908203,-16.118968963623047,-19.1557674407959,104.78451538085938
3384,-158.3006134033203,-10.59139633178711,-12.016298294067385,117.18602752685548
3385,-166.09457397460938,-18.658361434936523,-18.03005790710449,116.76342010498048
3386,-165.8888702392578,-12.539884567260742,-13.228026390075685,113.02351379394531
3387,-165.843994140625,-9.207633972167967,-17.730865478515625,115.0056610107422
3388,-164.38917541503906,-4.237306594848634,-10.83823013305664,122.7509994506836
3389,-158.2557373046875,-8.455913543701174,-6.814097881317139,119.9236297607422
3390,-157.98272705078125,-11.43661403656006,-11.167341232299805,112.61212921142578
3391,-152.4065399169922,-1.4099422693252563,-13.774051666259766,107.46976470947266
3392,-151.86424255371094,-2.1841015815734863,-14.727725982666016,105.62225341796876
3393,-150.1139678955078,-7.1095499992370605,-15.05683708190918,107.03219604492188
3394,-143.45321655273438,-9.03933811187744,-5.83798360824585,105.92892456054688
3395,-143.49061584472656,-17.91786003112793,-9.585363388061523,102.88838958740234
3396,-147.56336975097656,-24.803016662597656,-14.271458625793455,107.0359344482422
3397,-138.66239929199222,-19.42877960205078,-13.456159591674805,111.26950073242188
3398,-144.4405517578125,-24.724477767944336,-18.635921478271484,103.02676391601562
3399,-151.6510772705078,-26.50467109680176,-25.94368553161621,102.0356903076172
3400,-152.1372528076172,-13.284124374389648,-16.89312744140625,106.5123519897461
3401,-147.46238708496094,-14.144301414489744,-13.964786529541016,110.61875915527344
3402,-153.03857421875,-5.628549575805664,-11.017745018005373,110.61502075195312
3403,-159.76290893554688,-6.354090213775635,-14.61552906036377,107.1556167602539
3404,-168.38339233398438,-4.319584369659424,-21.69141960144043,108.4645767211914
3405,-163.42428588867188,-10.247325897216797,-19.70553207397461,114.66159057617188
3406,-157.50775146484375,0.01121969986706972,-11.642308235168455,110.5888442993164
3407,-160.77268981933594,-6.286771774291992,-13.826410293579102,109.1639404296875
3408,-145.5438232421875,4.166248321533203,-12.55484390258789,120.67161560058594
3409,-154.93470764160156,-9.024378776550293,-24.65342140197754,107.53334045410156
3410,-147.82888793945312,-3.2237937450408936,-13.037291526794435,107.00601959228516
3411,-154.0633087158203,-6.604663372039795,-17.390535354614258,100.38639831542969
3412,-149.059326171875,-6.675721645355225,-18.845355987548828,97.47675323486328
3413,-145.1137237548828,-3.59778380393982,-14.417314529418945,99.29060363769531
3414,-144.5265655517578,-1.290265440940857,-16.34336280822754,96.12290954589844
3415,-143.31483459472656,-10.830750465393066,-20.255298614501953,102.3573226928711
3416,-150.23365783691406,-13.235506057739258,-21.93825340270996,99.05873107910156
3417,-154.82437133789062,-8.844862937927246,-21.985002517700195,104.55077362060548
3418,-154.54388427734375,-11.287017822265625,-22.92745590209961,101.4653549194336
3419,-155.00389099121094,-14.499591827392578,-24.89090347290039,97.1495132446289
3420,-160.30706787109375,-0.3178915083408356,-17.074512481689453,109.4163818359375
3421,-165.27740478515625,-9.155275344848633,-15.96750259399414,113.16376495361328
3422,-158.87469482421875,-3.6464023590087886,-13.218676567077635,110.21672058105469
3423,-167.4839324951172,-5.243339538574219,-19.505447387695312,103.49237823486328
3424,-166.59010314941406,-2.314998149871826,-24.344879150390625,104.3563003540039
3425,-157.0795440673828,-0.0411388985812664,-12.945663452148438,110.19428253173828
3426,-159.80966186523438,5.5350518226623535,-12.515575408935547,115.7592544555664
3427,-151.91473388671875,3.3696498870849614,-17.50834083557129,103.88133239746094
3428,-163.8076171875,4.424301624298097,-22.80404090881348,100.06663513183594
3429,-151.52578735351562,7.154428482055664,-16.636945724487305,105.5231475830078
3430,-152.05311584472656,6.930034637451173,-9.175844192504883,96.85405731201172
3431,-148.95272827148438,13.467379570007324,-8.58120059967041,94.98784637451172
3432,-149.1098175048828,7.865009784698486,-8.498922348022461,99.16531372070312
3433,-148.59744262695312,3.9306347370147705,-8.338107109069824,103.12213134765624
3434,-160.14999389648438,3.9829933643341056,-8.237129211425781,99.10922241210938
3435,-162.4051513671875,6.290511608123778,-15.982462882995605,95.90786743164062
3436,-173.88290405273438,5.306918144226074,-19.299753189086914,102.1497573852539
3437,-172.87313842773438,10.168787956237793,-22.905017852783203,101.58502960205078
3438,-177.48443603515625,6.260592460632324,-27.50509452819824,96.95877838134766
3439,-169.1631622314453,5.953920841217041,-26.760854721069336,104.6779327392578
3440,-170.36366271972656,2.95452094078064,-29.46106147766113,107.8269271850586
3441,-165.20260620117188,14.110642433166506,-22.0074405670166,113.1450653076172
3442,-159.45437622070312,16.870689392089847,-21.81670570373535,109.80158996582031
3443,-166.32456970214844,-0.7105810046195984,-25.60148429870605,100.48550415039062
3444,-155.3330078125,10.819530487060547,-21.308080673217773,115.64331817626952
3445,-146.7274932861328,6.271812438964844,-17.665416717529297,118.9082489013672
3446,-148.48150634765625,2.0532050132751465,-17.732736587524414,104.37873840332031
3447,-146.589111328125,1.316444754600525,-19.13519859313965,99.1802749633789
3448,-147.00424194335938,11.320676803588867,-13.24111557006836,111.88845825195312
3449,-150.6656036376953,2.172881841659546,-11.670357704162598,109.02369689941406
3450,-157.38247680664062,6.096036911010742,-16.558406829833984,99.45329284667969
3451,-151.6417236328125,4.637475967407227,-14.415444374084473,93.74246215820312
3452,-147.1912384033203,6.413928508758545,-16.090919494628903,104.21417999267578
3453,-152.9619140625,7.887448787689209,-9.901385307312012,99.56548309326172
3454,-151.92970275878906,10.022932052612305,-5.559361457824707,105.70640563964844
3455,-162.43507385253906,0.4338283836841583,-14.07137393951416,99.54678344726562
3456,-162.97735595703125,3.2275335788726807,-17.37370491027832,103.72425842285156
3457,-163.47476196289062,5.1274027824401855,-12.033127784729006,105.88591766357422
3458,-162.26304626464844,1.4735206365585327,-15.365379333496096,106.92935180664062
3459,-173.37802124023438,-5.467733860015869,-30.78498649597168,100.16387176513672
3460,-165.0380401611328,-6.829057216644287,-33.35803604125977,106.05047607421876
3461,-157.9471893310547,-5.983839988708496,-23.144371032714844,121.76179504394531
3462,-158.01824951171875,-8.48209285736084,-28.35405158996582,106.51422119140624
3463,-160.62496948242188,-14.529511451721193,-24.8310661315918,104.0982437133789
3464,-155.239501953125,-1.8549903631210327,-20.99018859863281,122.47985076904295
3465,-151.7688751220703,0.003739899955689907,-21.90272331237793,116.10332489013672
3466,-151.5033416748047,-3.122816562652588,-21.42401695251465,105.71014404296876
3467,-144.41622924804688,-0.20195460319519046,-20.163671493530273,103.05855560302734
3468,-159.16639709472656,-3.2237937450408936,-20.040254592895508,100.6014404296875
