,T7,F8,Cz,P4
2000,237.0516815185547,6.978653430938722,215.2835998535156,600.1080932617188
2001,235.4136199951172,1.2229472398757937,207.5158233642578,599.6443481445312
2002,235.96337890625,5.497653007507324,209.22496032714844,599.5657958984375
2003,234.9723052978516,-5.123662948608398,203.82455444335938,600.4185180664062
2004,245.6011047363281,-0.0822777971625328,204.11251831054688,602.7185668945312
2005,229.20538330078125,-8.579330444335938,198.34185791015625,595.54541015625
2006,232.63487243652344,-10.595136642456056,197.70233154296875,592.1271362304688
2007,238.48406982421875,-4.783331871032715,202.14907836914062,609.9552612304688
2008,231.58395385742188,0.3814697861671448,209.20626831054688,619.4284057617188
2009,238.82440185546875,-0.2692728042602539,213.31640625,618.4635009765625
2010,226.1106109619141,-9.020638465881348,213.76145935058597,611.4343872070312
2011,236.41403198242188,-3.3846094608306885,217.0076904296875,619.5574340820312
2012,242.3417816162109,-9.001938819885254,213.6717071533203,625.1785278320312
2013,242.5325164794922,-7.663054943084718,212.37396240234372,623.9817504882812
2014,218.9150390625,-6.582223892211914,207.01841735839844,607.9562377929688
2015,225.66929626464844,-2.861023426055908,205.5261993408203,595.528564453125
2016,239.65652465820312,4.125109672546387,217.03387451171875,604.7548828125
2017,244.47352600097656,9.1141357421875,219.8948974609375,600.8916015625
2018,239.89962768554688,9.491866111755373,217.6397399902344,599.3170776367188
2019,249.4662933349609,15.25879192352295,225.37759399414062,598.8159790039062
2020,242.7943115234375,13.358922958374025,221.6002960205078,598.8197021484375
2021,238.81130981445312,8.014605522155763,217.89405822753903,589.2979125976562
2022,241.62745666503903,6.653282165527344,213.31640625,585.3261108398438
2023,237.6070709228516,3.365910053253174,206.99972534179688,590.1693115234375
2024,229.8168487548828,-1.604417085647583,204.9203338623047,592.4393920898438
2025,237.2405548095703,-1.8886494636535645,202.8072967529297,600.2109375
2026,232.63673400878903,-5.333097457885742,200.31277465820312,601.8938598632812
2027,239.9931182861328,-8.93462085723877,201.5506896972656,608.087158203125
2028,245.5132141113281,-4.046571731567384,209.4418792724609,621.303955078125
2029,238.5121154785156,-11.215959548950195,210.4853057861328,616.7450561523438
2030,241.45167541503903,-9.581624031066896,208.8696746826172,623.6825561523438
2031,237.9212188720703,-8.642909049987793,217.50135803222656,626.4238891601562
2032,241.11134338378903,-1.8250712156295776,220.66905212402344,636.443115234375
2033,232.9247131347656,-7.229226589202881,218.492431640625,630.844482421875
2034,227.3560028076172,-4.873089790344238,212.5272979736328,615.6754150390625
2035,237.51730346679688,6.900115489959718,213.43983459472656,610.106689453125
2036,241.7134704589844,0.02243939973413944,209.4942321777344,602.7428588867188
2037,226.5594024658203,2.075644493103028,205.2195281982422,589.5222778320312
2038,224.82408142089844,6.466287136077881,206.25921630859372,587.2484130859375
2039,235.0265350341797,7.8724894523620605,211.31182861328125,593.3519287109375
2040,252.3310546875,17.985177993774414,221.14028930664062,598.9580688476562
2041,245.2850799560547,13.444940567016602,223.29820251464844,598.0119018554688
2042,227.6888427734375,-0.8265178799629211,213.3874664306641,590.5881958007812
2043,238.39244079589844,5.172281742095947,216.82443237304688,604.25
2044,236.5112762451172,2.1467025279998784,212.80030822753903,603.5506591796875
2045,243.1271514892578,-1.2977452278137207,210.42173767089844,601.5423583984375
2046,240.58029174804688,-4.566417694091797,206.71548461914062,601.5311279296875
2047,244.63433837890625,1.316444754600525,205.5635986328125,614.9984741210938
2048,247.55894470214844,-2.95452094078064,202.728759765625,619.2470092773438
2049,240.86077880859372,-8.186640739440918,200.1407470703125,613.7942504882812
2050,235.1985626220703,-3.235013484954834,204.3369140625,620.2418212890625
2051,234.05789184570312,-9.536745071411133,202.2575225830078,623.8882446289062
2052,247.8394317626953,-3.3509502410888667,206.3265380859375,637.4977416992188
2053,230.78175354003903,-10.595136642456056,199.501220703125,622.3175048828125
2054,223.25706481933597,-15.580423355102539,191.1388092041016,616.5318603515625
2055,234.30099487304688,-0.6619622707366943,199.90887451171875,622.2987670898438
2056,234.33465576171875,8.807464599609375,204.5800018310547,626.8951416015625
2057,235.08636474609372,1.896129250526428,205.4813232421875,614.80029296875
2058,238.48968505859372,1.903609037399292,212.58338928222656,609.5419921875
2059,247.12884521484372,9.476906776428224,215.0592041015625,605.99658203125
2060,246.84835815429688,5.684648036956787,210.38433837890625,592.4917602539062
2061,247.8169860839844,8.986979484558105,208.9519500732422,582.992431640625
2062,242.1921844482422,9.663901329040527,209.4755401611328,576.4214477539062
2063,237.39015197753903,6.7019004821777335,205.9600372314453,583.6917724609375
2064,247.75341796875,9.091696739196776,207.11566162109372,592.2262573242188
2065,235.6249237060547,4.323324203491212,204.2396697998047,597.3760986328125
2066,223.9526824951172,1.047171950340271,205.11106872558597,605.4243774414062
2067,230.76304626464844,4.454220771789551,213.1668243408203,616.1840209960938
2068,242.0575408935547,5.920261859893799,211.45394897460938,630.5789184570312
2069,236.8403778076172,4.843170642852783,210.29083251953125,626.3939819335938
2070,228.7173156738281,-5.003986358642578,206.1993865966797,616.0755615234375
2071,235.86053466796875,1.0284725427627563,211.61849975585938,618.6000366210938
2072,236.0475311279297,1.821331262588501,209.76724243164062,621.4461059570312
2073,237.8726043701172,-1.8886494636535645,210.76580810546875,626.068603515625
2074,231.0547637939453,2.861023426055908,208.2750244140625,616.0419311523438
2075,229.0165100097656,3.077937602996826,211.05377197265625,619.87158203125
2076,240.76727294921875,1.877429723739624,214.62538146972656,619.778076171875
2077,241.7396545410156,-3.238753318786621,206.8950042724609,605.7609252929688
2078,242.3567352294922,3.661362171173096,209.82334899902344,598.8234252929688
2079,249.38775634765625,8.986979484558105,215.9418182373047,598.8571166992188
2080,253.0790252685547,12.207033157348633,219.14691162109372,595.539794921875
2081,255.35289001464844,10.67367458343506,218.06982421875,589.49609375
2082,240.22499084472656,9.510565757751463,218.6569976806641,585.8609619140625
2083,245.8460693359375,4.970326900482178,217.15354919433597,598.6214599609375
2084,243.32162475585938,5.217160224914551,216.8057403564453,607.13720703125
2085,239.8697052001953,-5.033905506134033,205.8253936767578,606.2695922851562
2086,232.565673828125,-5.602370262145996,205.3205108642578,608.8800048828125
2087,236.05126953125,-0.25805309414863586,200.4025421142578,612.7620239257812
2088,243.0860137939453,-0.34781068563461304,208.9556884765625,620.2642822265625
2089,227.5242919921875,-7.375082492828369,203.8357696533203,616.2625732421875
2090,221.8994903564453,-8.310057640075684,198.4503173828125,624.0827026367188
2091,228.2909698486328,-6.88515567779541,199.73683166503903,626.8876342773438
2092,228.7173156738281,-1.3463640213012695,207.23159790039062,633.5259399414062
2093,220.33995056152344,-4.865609645843506,203.51788330078125,624.6212768554688
2094,227.83470153808597,-3.276152372360229,204.11251831054688,616.2476196289062
2095,238.2091827392578,1.5109195709228516,208.3722686767578,615.83251953125
2096,239.6490478515625,1.264086127281189,206.00865173339844,613.1884155273438
2097,246.57534790039062,0.4525278806686402,210.77328491210938,612.182373046875
2098,247.4093475341797,5.636029243469237,214.1915435791016,608.3638916015625
2099,249.84027099609372,12.779237747192385,224.5099334716797,615.1668090820312
2100,247.90301513671875,19.208126068115234,221.2637023925781,609.04833984375
2101,247.1325836181641,12.438907623291016,217.1198883056641,606.4976806640625
2102,233.7400054931641,16.672473907470707,212.8339691162109,587.7720336914062
2103,237.38641357421875,15.56546401977539,213.14437866210938,587.1212768554688
2104,251.23899841308597,15.442047119140625,215.2312469482422,592.4693603515625
2105,241.6611175537109,10.598875999450684,210.71343994140625,596.6356201171875
2106,229.97018432617188,-1.8400307893753047,201.1879119873047,595.902587890625
2107,235.71841430664062,-6.593443393707275,196.47564697265625,605.8170166015625
2108,250.8014373779297,-2.531912326812744,206.4200439453125,624.015380859375
2109,234.70864868164062,-7.285325050354004,201.7451629638672,617.9492797851562
2110,224.8764495849609,-8.964540481567383,200.9036865234375,614.7741088867188
2111,241.2198028564453,-0.17203539609909058,209.1015472412109,621.3900146484375
2112,241.814453125,6.2381529808044425,216.7496490478516,620.4138793945312
2113,239.6041717529297,1.6156368255615234,211.12857055664062,614.6319580078125
2114,229.09130859375,0.8339976668357849,209.2174835205078,609.2352905273438
2115,232.1580352783203,8.055744171142576,211.1323089599609,617.0367431640625
2116,244.91482543945312,-0.1869949996471405,211.3006134033203,616.8460083007812
2117,247.7160186767578,3.7099807262420654,206.2816619873047,606.2620849609375
2118,235.0489654541016,3.373389720916748,206.4163055419922,598.3035888671875
2119,244.7465362548828,0.6619622707366943,209.6064300537109,600.775634765625
2120,259.93426513671875,6.582223892211914,213.18551635742188,601.7554931640625
2121,250.7191467285156,8.452174186706543,214.06439208984372,600.0762939453125
2122,245.1092987060547,12.521184921264648,215.8595428466797,601.7891845703125
2123,240.711181640625,15.707579612731935,217.8491668701172,599.1824340820312
2124,239.15911865234372,17.506471633911133,222.0415954589844,603.75634765625
2125,244.0957946777344,17.364355087280273,224.8577423095703,612.7545776367188
2126,236.66087341308597,9.480646133422852,214.5243988037109,601.1571044921875
2127,238.4410552978516,8.560630798339844,218.05860900878903,602.6119384765625
2128,247.86935424804688,-0.2505733072757721,215.3247375488281,608.7528686523438
2129,244.81759643554688,-6.743039608001709,216.53273010253903,613.0088500976562
2130,238.05210876464844,0.5759446024894714,215.6426239013672,614.9087524414062
2131,235.47906494140625,-0.014959599822759628,209.32220458984372,616.5654907226562
2132,236.71322631835938,-0.8639168739318848,216.297119140625,618.2671508789062
2133,236.33175659179688,-4.192427635192871,207.8299865722656,619.789306640625
2134,240.2848358154297,1.7240939140319824,212.28419494628903,621.8986206054688
2135,235.8792266845703,-6.0474181175231925,202.8484344482422,612.3955078125
2136,235.37060546875,-6.421408176422119,204.50146484375,617.52294921875
2137,218.7617034912109,-6.847756862640381,200.21180725097656,611.8158569335938
2138,225.25042724609372,7.584517002105713,208.09176635742188,607.5859985351562
2139,240.6588287353516,7.861269474029541,210.0589599609375,608.1993408203125
2140,250.7041931152344,11.414175033569336,212.29916381835938,605.2747802734375
2141,242.30812072753903,10.288464546203613,217.62852478027344,597.0095825195312
2142,232.9022674560547,12.652081489562988,213.25657653808597,588.3255615234375
2143,236.3354949951172,17.065162658691403,218.3652801513672,582.4426879882812
2144,239.83604431152344,15.07927703857422,214.68521118164062,597.3424072265625
2145,234.0952911376953,15.112936019897461,217.3480224609375,597.9707641601562
2146,234.07659912109372,16.97166633605957,220.67279052734372,603.4197387695312
2147,233.7923583984375,7.932327747344972,213.914794921875,606.50146484375
2148,237.43502807617188,8.882262229919434,209.8906707763672,613.2332763671875
2149,236.1410217285156,2.337437391281128,210.93409729003903,611.4530639648438
2150,233.8035888671875,6.75425910949707,209.41195678710938,611.7747192382812
2151,235.42669677734372,-3.844617128372192,208.1403961181641,616.3186645507812
2152,241.9378662109375,-1.6081570386886597,210.07391357421875,625.1373901367188
2153,234.9031219482422,-5.392935752868652,210.182373046875,621.4760131835938
2154,236.7506256103516,0.20195460319519046,214.2177276611328,626.1957397460938
2155,225.54214477539062,-4.742193222045898,208.1291656494141,620.6046142578125
2156,234.5964508056641,4.4430012702941895,205.63092041015625,628.1666870117188
2157,227.42330932617188,2.457114219665528,205.33172607421875,621.7564697265625
2158,219.6480712890625,-4.0353522300720215,199.82659912109372,609.1417846679688
2159,223.21592712402344,-2.543132066726685,194.88992309570312,609.6654052734375
2160,241.74713134765625,9.589103698730467,204.0339813232422,617.3134765625
2161,236.0363006591797,1.6679953336715698,204.1573944091797,600.7420043945312
2162,238.8075714111328,-2.902162313461304,202.41461181640625,590.86865234375
2163,240.67752075195312,7.262885570526122,206.1657257080078,589.2156372070312
2164,241.70599365234372,7.565817832946777,201.93589782714844,587.81689453125
2165,237.0647735595703,4.24104642868042,200.16319274902344,585.9282836914062
2166,228.90805053710938,3.1415159702301025,200.97848510742188,593.8680419921875
2167,227.307373046875,1.443601369857788,199.8602600097656,601.0860595703125
2168,234.62635803222656,10.939207077026367,203.83950805664062,621.3338623046875
2169,228.08901977539062,2.3561370372772217,204.72959899902344,618.6561279296875
2170,228.6275634765625,-5.7295265197753915,207.05581665039062,620.0885009765625
2171,229.08009338378903,5.901562213897705,211.21832275390625,629.0119018554688
2172,236.3392333984375,0.4076490998268128,208.9556884765625,629.5841064453125
2173,232.04209899902344,-6.178314685821532,205.1596984863281,621.7752075195312
2174,228.2872314453125,-7.199307441711426,203.37950134277344,616.1204833984375
2175,228.9304962158203,-1.323924541473389,209.71115112304688,622.6428833007812
2176,234.11773681640625,-0.9761139154434204,208.0132293701172,621.1805419921875
2177,234.84327697753903,0.5385456085205078,211.01263427734372,620.75048828125
2178,226.27142333984372,-7.7079339027404785,194.3326873779297,606.594970703125
2179,233.68765258789062,-2.670288562774658,201.9097137451172,605.8619384765625
2180,241.3207855224609,-1.133189678192139,201.99948120117188,602.3726196289062
2181,241.5451812744141,-7.176867961883545,201.68907165527344,589.0772705078125
2182,241.8181915283203,-2.0532050132751465,202.7698974609375,578.0220947265625
2183,239.267578125,-2.4421546459198,200.5633544921875,585.3934326171875
2184,247.96658325195312,4.1774682998657235,207.5943603515625,602.1893310546875
2185,232.67413330078125,3.9306347370147705,205.83287048339844,599.5676879882812
2186,227.8122711181641,-3.451927661895752,202.96437072753903,599.0814819335938
2187,241.28712463378903,2.041985273361206,217.2694854736328,618.9590454101562
2188,248.95391845703125,5.463994026184082,217.59112548828125,623.2075805664062
2189,238.71408081054688,-1.043432116508484,215.2237701416016,622.3810424804688
2190,233.35479736328125,-4.925448417663574,214.4383850097656,623.9256591796875
2191,239.4096984863281,-2.2065410614013667,214.90586853027344,624.0303344726562
2192,241.2759094238281,-5.131142616271973,209.09780883789062,624.78955078125
2193,241.98648071289062,-3.152735710144043,210.58628845214844,620.5859375
2194,229.58871459960938,-0.6881415843963623,209.36708068847656,613.872802734375
2195,233.47447204589844,-0.9125356078147888,206.63694763183597,618.7122192382812
2196,239.7761993408203,0.6544824838638306,206.0310821533203,619.9127197265625
2197,235.16490173339844,-1.7166141271591189,204.8941650390625,613.4464111328125
2198,224.4276580810547,1.0322123765945437,198.85421752929688,606.7071533203125
2199,237.1919403076172,0.6544824838638306,199.87147521972656,602.7578125
2200,243.73675537109372,3.713720560073853,202.57542419433597,600.6821899414062
2201,236.720703125,1.2154674530029297,202.62030029296875,597.47705078125
2202,235.4603576660156,6.204493999481201,202.7661590576172,600.8916015625
2203,235.9315948486328,3.328510999679565,204.0751190185547,605.0017700195312
2204,247.17747497558597,0.6170834898948669,208.4844665527344,609.3923950195312
2205,235.70346069335938,-1.6792150735855105,208.3760070800781,604.0592651367188
2206,240.1838531494141,2.827364444732666,205.099853515625,601.4488525390625
2207,242.43527221679688,1.335144281387329,204.2434234619141,597.1217651367188
2208,253.01171875,5.983839988708496,206.7940216064453,604.9344482421875
2209,243.9648895263672,-2.176621675491333,209.8944091796875,613.1248168945312
2210,242.0014495849609,2.666548728942871,215.4032745361328,617.9605102539062
2211,243.48431396484372,5.409765243530273,212.9536437988281,621.5396118164062
2212,244.8231964111328,3.3453404903411865,217.3554992675781,626.7828979492188
2213,231.87567138671875,-1.1761984825134275,216.33078002929688,626.726806640625
2214,229.79254150390625,1.9241784811019895,214.20651245117188,624.5390014648438
2215,237.26112365722656,0.15146595239639282,210.3207550048828,623.1365356445312
2216,252.19454956054688,2.6945979595184326,214.4346466064453,628.6304321289062
2217,245.73947143554688,0.9368449449539183,207.02215576171875,616.1541137695312
2218,234.26919555664062,-1.6137667894363403,203.8432464599609,611.6886596679688
2219,232.66477966308597,4.153158664703368,204.28082275390625,613.06494140625
2220,245.00645446777344,11.63295841217041,214.35610961914062,616.079345703125
2221,233.5960235595703,11.169211387634276,209.3558654785156,606.3555908203125
2222,226.99884033203125,14.748295783996582,208.2451019287109,598.7000122070312
2223,240.81402587890625,15.642131805419922,215.2649078369141,611.2735595703125
2224,245.73947143554688,13.30095386505127,220.14547729492188,616.4121704101562
2225,240.26426696777344,1.1014004945755005,210.4067687988281,603.3823852539062
2226,242.9270782470703,4.063401222229004,219.6069183349609,606.0302124023438
2227,250.2423095703125,1.834420919418335,216.22979736328125,613.8989868164062
2228,248.1928558349609,6.980523109436035,215.87451171875,616.550537109375
2229,243.7535858154297,2.574921131134033,210.82937622070312,609.7252197265625
2230,240.64947509765625,-0.4581377506256104,207.76266479492188,607.5261840820312
2231,240.6756591796875,-5.305047988891602,209.26235961914062,610.22265625
2232,246.0199737548828,4.1082801818847665,209.6812286376953,623.27490234375
2233,245.56370544433597,-0.4169988334178925,210.08514404296875,619.7968139648438
2234,236.24386596679688,-5.151712417602539,202.66891479492188,611.6961669921875
2235,247.5196685791016,5.320007801055908,206.9548492431641,608.6630859375
2236,245.04759216308597,4.328934192657472,209.3408966064453,607.4813232421875
2237,245.2158966064453,4.957237243652344,205.20831298828125,600.5811767578125
2238,238.8543243408203,13.151358604431152,215.9156494140625,602.3613891601562
2239,241.99583435058597,11.939630508422852,211.34548950195312,600.2445678710938
2240,255.0854797363281,8.192251205444336,212.3290863037109,603.3599243164062
2241,243.14398193359372,8.992588996887207,210.16368103027344,604.6651611328125
2242,240.4437713623047,6.718730449676514,211.78305053710938,607.64208984375
2243,245.64971923828125,1.621246576309204,212.4076232910156,608.6219482421875
2244,256.32711791992193,9.33292007446289,214.40098571777344,608.1245727539062
2245,236.57672119140625,5.510742664337158,208.54803466796875,603.8236694335938
2246,230.01693725585938,0.9817237257957458,203.1962432861328,595.5323486328125
2247,250.7771148681641,17.340045928955078,216.91046142578125,611.7933959960938
2248,252.61715698242188,3.842747211456299,217.74819946289062,613.8204345703125
2249,237.3845367431641,2.0999538898468018,210.25343322753903,606.14990234375
2250,238.95155334472656,1.998976469039917,210.21603393554688,607.4102172851562
2251,240.716796875,-1.699784517288208,207.2689971923828,612.358154296875
2252,241.61062622070312,0.948064625263214,205.4289703369141,617.7323608398438
2253,238.99642944335938,-1.5688880681991575,208.54429626464844,616.5393676757812
2254,235.4061279296875,2.8928127288818364,209.30723571777344,611.1837768554688
2255,244.40806579589844,5.61545991897583,207.3026580810547,615.9671020507812
2256,245.6945953369141,10.529687881469727,218.6607360839844,621.0234985351562
2257,233.3267517089844,1.2734359502792358,211.5474395751953,604.7548828125
2258,235.7651672363281,5.52196216583252,212.4038848876953,597.2750854492188
2259,242.3735656738281,6.464416980743407,213.3126678466797,595.5846557617188
2260,248.5518798828125,11.038314819335938,215.22750854492188,605.880615234375
2261,248.0918731689453,5.948310852050781,217.2694854736328,600.7120971679688
2262,240.0772705078125,0.7872489690780641,209.76724243164062,597.5181884765625
2263,248.96701049804688,10.073420524597168,220.25767517089844,607.4140014648438
2264,251.62608337402344,10.593266487121582,215.42572021484372,607.922607421875
2265,246.1246795654297,2.0176761150360107,208.25259399414062,600.8541870117188
2266,243.2113037109375,5.93709135055542,208.151611328125,604.3397827148438
2267,243.1065826416016,2.8479337692260738,205.7693023681641,607.6271362304688
2268,239.20587158203125,0.7573297619819641,207.9085235595703,624.0116577148438
2269,229.3661956787109,-9.09356689453125,203.3121795654297,620.2418212890625
2270,229.3400115966797,-5.409765243530273,208.151611328125,625.9227294921875
2271,243.09536743164062,3.8352673053741455,215.4145050048828,638.9226684570312
2272,245.5599670410156,2.8404541015625,212.9461669921875,641.1141967773438
2273,235.78759765625,2.346787214279175,212.62826538085938,629.449462890625
2274,233.8877258300781,0.9144055247306824,215.00311279296875,622.5568237304688
2275,242.1566467285156,10.151958465576172,219.28903198242188,623.357177734375
2276,244.4342498779297,4.560808181762695,215.38458251953125,616.3186645507812
2277,229.66539001464844,6.176445007324219,213.47723388671875,617.3583984375
2278,238.14747619628903,13.267294883728027,218.68690490722656,611.7821655273438
2279,243.087890625,16.375152587890625,216.4691467285156,607.3504028320312
2280,246.84274291992188,19.153898239135746,213.88113403320312,603.4384765625
2281,249.04928588867188,19.85325813293457,216.36817932128903,593.9690551757812
2282,242.74008178710938,19.441869735717773,222.49786376953125,592.181396484375
2283,251.1286773681641,13.29721450805664,219.7826995849609,594.178466796875
2284,248.8884735107422,9.519915580749512,212.1345977783203,597.241455078125
2285,238.14747619628903,10.481069564819336,205.8927154541016,587.932861328125
2286,233.7156982421875,-3.195744514465332,197.5115966796875,584.8885498046875
2287,233.498779296875,8.813074111938477,206.86134338378903,594.5786743164062
2288,235.94842529296875,5.282608509063722,203.0242156982422,610.9818725585938
2289,226.57623291015625,4.49722957611084,203.59642028808597,612.1785888671875
2290,224.6053009033203,3.891366004943848,207.54574584960938,613.6334228515625
2291,232.15989685058597,1.3706732988357544,207.1194000244141,623.8471069335938
2292,230.0244140625,2.8217544555664062,207.9720916748047,628.4883422851562
2293,225.61508178710938,2.0438554286956787,208.1890106201172,620.2156372070312
2294,225.9292297363281,0.3646402359008789,203.83950805664062,617.3060302734375
2295,231.66249084472656,5.888472557067871,208.3236541748047,622.9196166992188
2296,236.726318359375,7.2011775970458975,211.23329162597656,622.841064453125
2297,230.2450714111328,4.426171779632568,207.1268768310547,608.9360961914062
2298,238.36065673828125,6.004409313201903,211.8017578125,605.5216064453125
2299,240.6158142089844,12.01068878173828,216.1175994873047,603.0494995117188
2300,242.29129028320312,17.8112735748291,212.95738220214844,594.5225219726562
2301,237.2760772705078,13.55152702331543,209.5578155517578,579.4993896484375
2302,246.0199737548828,23.76145362854004,212.67315673828125,569.9700927734375
2303,255.5791473388672,18.671449661254886,212.6843719482422,577.7864990234375
2304,253.510986328125,15.758068084716795,206.65565490722656,579.36474609375
2305,238.9777374267578,3.3116815090179443,197.0590667724609,578.4334716796875
2306,225.60011291503903,-0.20756444334983826,193.9212951660156,589.55224609375
2307,233.36415100097656,4.067141056060791,200.181884765625,607.35791015625
2308,237.08160400390625,3.7305502891540527,205.3055419921875,625.200927734375
2309,228.09837341308597,-2.2308502197265625,199.8901672363281,623.1889038085938
2310,223.79000854492188,-7.818260669708253,202.44825744628903,624.63623046875
2311,232.17860412597656,-2.0625548362731934,209.11276245117188,635.2986450195312
2312,232.54884338378903,0.761069655418396,210.6573486328125,637.2509155273438
2313,223.52447509765625,-3.992343187332153,206.34898376464844,632.6395874023438
2314,229.0520477294922,-3.356560230255127,204.1349639892578,626.5921630859375
2315,228.9398498535156,4.224216938018799,205.8179168701172,629.4195556640625
2316,239.9388885498047,-3.521115779876709,206.2779235839844,619.1011962890625
2317,227.4326629638672,4.2129974365234375,206.86508178710938,607.3990478515625
2318,230.51060485839844,8.095013618469237,213.3238983154297,599.4105834960938
2319,250.18995666503903,14.90911102294922,214.419677734375,598.0567626953125
2320,256.211181640625,9.71438980102539,214.50570678710938,592.0916137695312
2321,249.81222534179688,7.197437286376952,216.9141998291016,580.4268798828125
2322,247.2690887451172,11.483363151550293,208.91455078125,558.9523315429689
2323,260.5419921875,15.316760063171387,206.3265380859375,561.1177368164061
2324,255.0406036376953,-1.6773451566696167,195.2227783203125,571.4959716796875
2325,254.9845123291016,-3.034928798675537,199.7144012451172,592.8807373046875
2326,242.35487365722656,-8.603639602661133,194.50845336914062,595.5473022460938
2327,242.0257568359375,-0.5067564249038696,199.3329315185547,610.3685302734375
2328,239.33676147460938,-2.271989107131958,200.27163696289062,624.026611328125
2329,232.07388305664062,-2.4440245628356934,202.8484344482422,626.7979125976562
2330,228.4199981689453,0.6077337265014648,206.83517456054688,623.7984619140625
2331,229.0931854248047,-4.067141056060791,205.5187225341797,634.1355590820312
2332,245.634765625,-9.015028953552246,206.1245880126953,639.4237670898438
2333,242.34738159179688,-9.7742280960083,205.9076690673828,627.6505737304688
2334,237.6986846923828,-9.258122444152832,203.6786956787109,627.5608520507812
2335,239.41156005859372,-8.147372245788574,206.97727966308597,623.5890502929688
2336,237.46681213378903,-11.255228996276855,198.08380126953125,617.4743041992188
2337,237.33218383789062,-1.7671027183532717,202.7324981689453,613.9849853515625
2338,230.447021484375,-4.134459495544434,203.3271484375,604.28369140625
2339,233.90643310546875,6.658891677856445,205.33546447753903,600.1024780273438
2340,245.5786590576172,12.549234390258787,213.05462646484372,603.60302734375
2341,241.9883575439453,10.024802207946776,209.0117950439453,594.0812377929688
2342,241.03094482421875,0.7049711346626282,209.22496032714844,584.6043090820312
2343,245.01019287109372,1.4342516660690308,206.85386657714844,579.0917358398438
2344,252.7443084716797,5.589280605316162,200.1370086669922,576.64208984375
2345,246.9811248779297,1.8830395936965945,203.48422241210938,580.0341796875
2346,243.3421936035156,1.4192920923233032,196.2886505126953,578.5830688476562
2347,242.74008178710938,-5.263909339904785,197.14508056640625,592.0093383789062
2348,238.6785430908203,-4.673005104064941,195.4322052001953,603.8087158203125
2349,228.2292633056641,-5.832374095916747,196.02685546875,614.168212890625
2350,233.9363555908203,-2.8890726566314697,203.4056854248047,616.397216796875
2351,240.60086059570312,0.6114736199378967,202.10044860839844,627.2877807617188
2352,238.21853637695312,-1.9391381740570068,204.1199951171875,620.4736938476562
2353,228.5995178222656,1.9578375816345213,207.15306091308597,618.1661987304688
2354,228.22178649902344,-5.151712417602539,207.6841278076172,618.768310546875
2355,235.3687286376953,-7.7434630393981925,208.25259399414062,624.5950927734375
2356,236.40843200683597,-9.497475624084473,204.3743133544922,624.2659912109375
2357,232.7844696044922,-5.929611206054688,202.3809509277344,619.5050659179688
2358,236.32614135742188,-1.1275798082351685,206.22930908203125,618.0465087890625
2359,239.4938507080078,1.41181218624115,206.3714141845703,616.5991821289062
2360,248.78001403808597,0.5852943658828735,207.50086975097656,607.5374145507812
2361,244.0191192626953,-0.17016544938087466,207.2278594970703,599.2161254882812
2362,243.0916290283203,-0.0953674465417862,205.3840789794922,585.59912109375
2363,247.5121917724609,-2.193451404571533,205.5935211181641,582.5997314453125
2364,260.84866333007807,6.064247608184815,215.6052398681641,588.2470092773438
2365,252.3329162597656,-3.3715198040008545,213.9297637939453,585.9993286132812
2366,246.3415985107422,-1.6848249435424805,209.7747344970703,582.5960083007812
2367,243.12155151367188,4.807641506195068,209.92433166503903,595.9923095703125
2368,234.70677185058597,2.2832088470458984,207.41485595703125,602.1557006835938
2369,228.05723571777344,3.2855021953582764,195.12179565429688,603.2776489257812
2370,224.96432495117188,-0.5553751587867737,195.62669372558597,602.8363647460938
2371,236.0867919921875,1.5015698671340942,199.60220336914062,615.78759765625
2372,240.4362945556641,1.5838476419448853,202.96063232421875,626.8278198242188
2373,234.80026245117188,-2.8217544555664062,196.52052307128903,610.4171142578125
2374,228.82391357421875,-9.134705543518066,196.5878448486328,610.0917358398438
2375,228.78651428222656,-7.792081356048584,198.16981506347656,610.9182739257812
2376,232.8667449951172,-6.584094047546388,197.89306640625,601.8639526367188
2377,234.1757049560547,0.4319584369659424,201.8685760498047,609.2540283203125
2378,228.2554473876953,0.2636629343032837,202.0293884277344,607.9786987304688
2379,234.28042602539062,6.793528079986572,198.9552001953125,613.4801025390625
2380,238.05398559570312,4.198037624359132,205.35043334960938,615.8137817382812
2381,230.2749938964844,1.2883955240249634,202.646484375,612.3731079101562
2382,230.8023223876953,3.767949104309082,205.1409912109375,605.398193359375
2383,240.2306060791016,-1.1051404476165771,207.3437957763672,599.3582153320312
2384,251.71209716796875,8.472743034362793,214.8198547363281,604.5941162109375
2385,241.25534057617188,3.565994501113892,209.6961975097656,599.3470458984375
2386,227.4476318359375,0.06170834973454475,207.7476959228516,596.1830444335938
2387,232.1898193359375,1.1014004945755005,206.9698028564453,604.0780029296875
2388,238.2559356689453,1.1051404476165771,213.27902221679688,613.345458984375
2389,236.9095764160156,1.5875874757766724,204.28829956054688,610.1740112304688
2390,233.76431274414062,-6.3073410987854,202.9494171142578,618.2484741210938
2391,241.4759979248047,-5.301308155059815,207.5158233642578,627.2092895507812
2392,236.31866455078125,-10.241716384887695,205.63839721679688,623.170166015625
2393,234.87879943847656,-5.147972106933594,204.28082275390625,619.87158203125
2394,229.4447326660156,-18.38347816467285,197.9678649902344,615.4622192382812
2395,230.07302856445312,-15.26440143585205,205.4476623535156,620.963623046875
2396,241.0870361328125,-7.328333854675293,207.1343536376953,617.7884521484375
2397,235.4023895263672,-3.0648479461669917,211.0462951660156,614.9498901367188
2398,231.2510986328125,-2.05507493019104,213.64552307128903,604.3510131835938
2399,239.4826202392578,0.0953674465417862,208.46575927734372,609.17919921875
2400,248.48081970214844,3.9362447261810303,214.595458984375,610.9295043945312
2401,234.87132263183597,-3.2069642543792725,207.5120849609375,600.8242797851562
2402,236.0531311035156,2.133612871170044,204.79318237304688,590.315185546875
2403,240.787841796875,3.5510349273681636,213.04339599609372,598.6439208984375
2404,249.9917449951172,7.174998283386231,216.1400451660156,602.840087890625
2405,246.2294006347656,11.756375312805176,218.1147003173828,600.2633056640625
2406,241.3002166748047,5.589280605316162,215.63140869140625,598.8795166015625
2407,257.93154907226557,9.65455150604248,219.1918029785156,611.0192260742188
2408,257.71090698242193,-0.603993833065033,211.15475463867188,605.8394775390625
2409,244.37815856933597,-5.435944557189941,208.7761688232422,610.316162109375
2410,226.7183380126953,-4.931057929992676,200.4848175048828,610.3909301757812
2411,239.80052185058597,-2.0288956165313716,205.4476623535156,622.5493774414062
2412,236.65151977539062,-1.6679953336715698,205.29806518554688,622.0575561523438
2413,228.10211181640625,-7.9024085998535165,200.93734741210938,621.2721557617188
2414,219.7845764160156,-11.066364288330078,201.34124755859372,622.6708984375
2415,228.9248809814453,-1.9784070253372192,208.12542724609372,631.3137817382812
2416,232.8106384277344,3.021839141845703,208.5966644287109,639.7734375
2417,228.54714965820312,-6.0249786376953125,210.50775146484372,625.6927490234375
2418,224.93067932128903,-1.7240939140319824,208.9369964599609,624.2229614257812
2419,233.14349365234372,6.997352600097656,215.16766357421875,619.2526245117188
2420,231.2548370361328,-2.8909425735473637,213.6941375732422,612.8424682617188
2421,231.4605407714844,-2.0457253456115723,206.30035400390625,597.3966674804688
2422,238.96652221679688,3.1976144313812256,209.19129943847656,594.4271850585938
2423,247.04095458984372,3.773559093475342,208.94821166992188,590.7957153320312
2424,243.94058227539062,6.3204307556152335,210.6461181640625,594.079345703125
2425,243.02430725097656,5.819284439086914,205.3018035888672,584.6959838867188
2426,236.33737182617188,8.025825500488281,207.6953430175781,578.4054565429688
2427,241.8238067626953,9.581624031066896,212.91998291015625,582.212646484375
2428,251.6522521972656,9.072997093200684,213.42486572265625,598.1072387695312
2429,247.37380981445312,-2.7413465976715092,204.83432006835938,598.1782836914062
2430,245.4627227783203,-1.069611430168152,213.47349548339844,607.2101440429688
2431,249.5915679931641,2.670288562774658,211.09117126464844,614.9143676757812
2432,246.0611114501953,0.7292804718017578,207.5569610595703,620.1539306640625
2433,231.15013122558597,-2.202800989151001,204.69219970703125,620.2736206054688
2434,232.993896484375,-3.6576220989227295,205.2681427001953,623.7554931640625
2435,239.2096099853516,-3.2537128925323486,212.6881103515625,628.0601196289062
2436,235.0321502685547,-3.938114643096924,216.47288513183597,633.8045654296875
2437,237.16387939453125,-5.793105125427246,219.82009887695312,635.9737548828125
2438,234.1420440673828,-6.376529216766357,216.55142211914062,623.774169921875
2439,236.15411376953125,-5.5350518226623535,211.0762176513672,623.8414916992188
2440,241.808837890625,-2.3561370372772217,215.0629425048828,621.33203125
2441,240.2979278564453,0.721800684928894,214.2102508544922,610.041259765625
2442,240.9524078369141,-8.93088150024414,217.0637969970703,604.4389038085938
2443,256.738525390625,4.211127281188965,220.10433959960938,600.5792846679688
2444,255.01068115234372,-2.1579222679138184,213.0471343994141,592.7554321289062
2445,248.45838928222656,-0.8938360810279846,204.1162567138672,585.6085205078125
2446,240.97857666015625,-3.571604490280152,200.65684509277344,580.686767578125
2447,238.99269104003903,2.2402000427246094,201.9957427978516,593.7053833007812
2448,244.8755645751953,8.871042251586914,202.92323303222656,605.299072265625
2449,249.46815490722656,-3.997952938079834,202.98681640625,602.0977172851562
2450,249.16896057128903,-8.063223838806152,209.3745574951172,614.312255859375
2451,248.91465759277344,-8.534451484680176,214.0457000732422,622.3231201171875
2452,243.8583068847656,-6.776698589324951,208.9519500732422,627.3270874023438
2453,240.2866973876953,-11.234659194946287,208.02072143554688,627.2036743164062
2454,235.3201141357422,-11.238399505615234,209.7148895263672,629.9337768554688
2455,244.37066650390625,-15.094236373901367,208.656494140625,636.5609130859375
2456,248.9782257080078,-12.19581413269043,209.65879821777344,633.116455078125
2457,247.63560485839844,-7.999646186828612,209.2100067138672,625.20654296875
2458,237.2237243652344,-13.927387237548828,211.3267822265625,613.5305786132812
2459,249.41580200195312,-10.26976490020752,209.06414794921875,614.0391845703125
2460,254.9957275390625,0.8078184127807617,214.39724731445312,617.3864135742188
2461,242.3698272705078,-4.46544075012207,210.9490509033203,609.9739379882812
2462,239.4788818359375,-1.2379069328308103,207.11192321777344,601.5367431640625
2463,237.066650390625,2.0232858657836914,206.7304534912109,600.9794921875
2464,238.5813140869141,-4.244786262512207,201.8648376464844,595.3247680664062
2465,231.81956481933597,-14.652928352355955,200.3202667236328,583.3832397460938
2466,233.9999237060547,-0.29919201135635376,201.89849853515625,585.4027709960938
2467,245.57118225097656,-2.797445058822632,200.59327697753903,600.9420776367188
2468,247.75901794433597,-8.414774894714355,200.92613220214844,608.1339111328125
2469,246.0424041748047,-13.22054672241211,206.47239685058597,612.8499145507812
2470,247.4448699951172,-16.788410186767578,208.2301483154297,618.7103271484375
2471,250.78086853027344,-22.20004653930664,206.53598022460938,621.47412109375
2472,251.99632263183597,-18.628440856933594,212.70306396484372,627.4318237304688
2473,254.3636932373047,-10.841970443725586,214.35610961914062,633.50537109375
2474,244.1350555419922,-17.076383590698242,218.0286865234375,630.393798828125
2475,241.644287109375,-19.77659034729004,212.63575744628903,631.0781860351562
2476,241.03094482421875,-14.682847023010256,214.9320526123047,622.3268432617188
2477,233.3304901123047,-12.5062255859375,215.2686462402344,613.4782104492188
2478,232.93405151367188,-7.577037334442139,210.6760406494141,604.9512329101562
2479,236.6403045654297,-8.571850776672362,217.4041290283203,612.4422607421875
2480,248.8061981201172,0.14211620390415192,219.24041748046875,616.0438232421875
2481,238.8767547607422,-3.1190764904022217,213.85122680664062,605.4822998046875
2482,240.7018280029297,-11.462793350219727,212.91998291015625,599.8088989257812
2483,253.7241668701172,-6.922554969787598,212.5160675048828,598.6943969726562
2484,249.16522216796875,-6.930034637451173,212.6432342529297,595.04052734375
2485,246.7642059326172,-9.832197189331056,210.93409729003903,591.7943115234375
2486,243.1327667236328,-11.848003387451172,212.93869018554688,588.1665649414062
2487,249.21759033203125,-13.452420234680176,217.6247711181641,598.679443359375
2488,247.34014892578125,-12.36410903930664,213.82130432128903,605.34765625
2489,241.91729736328125,-8.425994873046875,210.20855712890625,606.802490234375
2490,238.3643951416016,-18.912673950195312,206.6706085205078,604.4912719726562
2491,249.04180908203125,-14.80626392364502,215.37710571289062,613.0855102539062
2492,254.93589782714844,-15.655220985412598,218.55601501464844,619.9407958984375
2493,249.3148193359375,-13.501038551330565,210.95278930664062,623.598388671875
2494,242.45584106445312,-8.93462085723877,212.78160095214844,623.9424438476562
2495,241.95843505859372,-11.178561210632324,216.4579315185547,623.2169189453125
2496,245.74696350097656,-8.358675956726074,219.42367553710938,629.7542724609375
2497,237.16387939453125,-12.19955348968506,217.37420654296875,619.1890258789062
2498,236.59542846679688,-9.222593307495117,225.02978515625,619.196533203125
2499,235.1443328857422,-9.215113639831543,220.76255798339844,618.3775024414062
2500,234.53472900390625,-8.979499816894531,225.8862152099609,626.8857421875
2501,232.00282287597656,-4.25226640701294,219.9584808349609,616.5599365234375
2502,242.4034881591797,-6.103516578674316,219.40122985839844,609.431640625
2503,248.94456481933597,-7.203047275543213,212.84518432617188,609.8729858398438
2504,245.46646118164062,-1.1144901514053345,208.80235290527344,605.9385986328125
2505,246.57720947265625,-3.9867334365844727,215.616455078125,601.368408203125
2506,236.39720153808597,-7.4087419509887695,209.1688690185547,591.9588623046875
2507,246.8315277099609,-7.184347629547119,212.23931884765625,597.8080444335938
2508,247.60194396972656,-8.893482208251953,208.1067352294922,601.7050170898438
2509,244.3519744873047,-14.828702926635742,215.17514038085938,605.1793823242188
2510,241.65550231933597,-14.391135215759276,212.29542541503903,612.6554565429688
2511,239.1535186767578,-16.377021789550778,212.0448455810547,614.6862182617188
2512,243.6675720214844,-16.27978515625,214.4122009277344,623.4263916015625
2513,230.8023223876953,-23.060222625732425,210.4404296875,618.2615356445312
2514,236.7674560546875,-15.75993824005127,212.58338928222656,617.670654296875
2515,242.01828002929688,-11.761985778808596,211.3155670166016,616.4290161132812
2516,242.2538909912109,-17.59248924255371,214.1691131591797,623.3029174804688
2517,243.2075653076172,-20.550750732421875,208.36105346679688,613.422119140625
2518,231.0641021728516,-15.213912963867188,214.6553039550781,614.18505859375
2519,234.3514862060547,-8.99071979522705,217.23956298828125,624.0172729492188
2520,240.0623016357422,-7.670534610748291,217.25827026367188,623.2842407226562
2521,228.1993408203125,-6.391489028930664,213.9596710205078,612.9209594726562
2522,228.65560913085938,-4.600077152252197,218.08853149414062,608.6762084960938
2523,241.1805419921875,2.4084956645965576,217.19468688964844,607.27001953125
2524,242.3062438964844,-5.9427008628845215,209.37081909179688,598.9861450195312
2525,239.85287475585938,-5.755705833435059,210.9041748046875,589.2137451171875
2526,235.09197998046875,-10.026671409606934,205.0624542236328,578.689697265625
2527,241.7714385986328,-7.68175458908081,209.0155334472656,595.4369506835938
2528,246.0947723388672,-4.555198192596436,205.7580718994141,601.3983764648438
2529,236.6029052734375,1.7315737009048462,205.70571899414062,605.3065185546875
2530,236.75997924804688,-1.795151948928833,211.3754119873047,615.2247924804688
2531,246.42013549804688,-5.01520586013794,212.68063354492188,615.1761474609375
2532,239.80426025390625,-4.162508487701416,217.0450897216797,619.9631958007812
2533,231.15013122558597,-11.870442390441895,210.9677581787109,611.028564453125
2534,228.3003234863281,-11.526371955871582,209.6326141357422,612.3338012695312
2535,243.5067596435547,-10.942947387695312,211.6371917724609,621.7172241210938
2536,245.57118225097656,-12.592243194580078,218.6569976806641,626.8222045898438
2537,236.45330810546875,-10.497899055480957,216.3831329345703,622.412841796875
2538,237.5640563964844,-14.252758979797365,218.38397216796875,625.2664184570312
2539,240.9187469482422,-10.67367458343506,216.2335357666016,626.54541015625
2540,246.25184631347656,-6.327910900115968,224.19204711914062,626.3060913085938
2541,238.757080078125,-10.640015602111816,220.89344787597656,618.46728515625
2542,238.7757873535156,-10.067811012268066,217.7743682861328,605.1270141601562
2543,239.7705993652344,-1.8587303161621092,217.6023406982422,600.6316528320312
2544,244.49783325195312,-0.7778992056846619,219.348876953125,602.4492797851562
2545,233.0425109863281,-12.977453231811525,207.8150177001953,587.9010620117188
2546,242.74755859375,-10.684894561767578,207.2951812744141,584.6024780273438
2547,246.11346435546875,-5.018945693969727,204.8156280517578,592.6095581054688
2548,250.77337646484372,-7.745332717895508,202.0555725097656,599.9846801757812
2549,241.28526306152344,-12.917613983154295,205.0961151123047,606.4285278320312
2550,235.8100433349609,-16.96418571472168,208.6490173339844,609.9552612304688
2551,243.86578369140625,-14.125601768493652,206.5023193359375,615.89794921875
2552,253.49603271484372,-7.49101972579956,215.29481506347656,629.0474243164062
2553,238.8468475341797,-12.857775688171387,211.27442932128903,619.8435668945312
2554,238.05772399902344,-8.381115913391112,216.49159240722656,629.4176635742188
2555,245.376708984375,-13.276644706726074,219.02349853515625,636.0260620117188
2556,243.02804565429688,-15.445786476135256,215.92686462402344,639.63134765625
2557,236.0419158935547,-20.21415901184082,212.0411071777344,632.4656982421875
2558,230.93695068359372,-11.036444664001463,219.8612365722656,629.6458129882812
2559,238.36813354492188,-8.975759506225586,222.3931579589844,628.363037109375
2560,249.6962890625,-7.775251865386963,226.69403076171875,631.3699340820312
2561,247.07835388183597,-6.234413146972656,221.07296752929688,616.94140625
2562,238.3494415283203,-10.505378723144533,225.69921875,612.7227783203125
2563,246.5099029541016,3.893235921859741,231.7765655517578,612.3375854492188
2564,251.9776306152344,3.018099308013916,224.49497985839844,605.1793823242188
2565,245.881591796875,3.9081954956054688,224.33041381835938,586.3489990234375
2566,236.58419799804688,8.276398658752441,218.4812164306641,575.6566162109375
2567,245.1485748291016,0.938714861869812,211.3828887939453,586.5023193359375
2568,240.6831359863281,-9.1141357421875,205.3691253662109,591.0949096679688
2569,231.5278625488281,-11.646048545837402,207.53826904296875,599.5994873046875
2570,231.01922607421875,-13.886248588562012,203.6525115966797,607.154052734375
2571,238.95155334472656,-11.391735076904295,211.8316802978516,622.3679809570312
2572,233.6558532714844,-18.609743118286133,205.2681427001953,627.6898193359375
2573,234.24676513671875,-14.92594051361084,210.6536102294922,628.1610717773438
2574,229.51205444335938,-21.612882614135746,209.6961975097656,619.9108276367188
2575,238.2596740722656,-22.084108352661133,210.07391357421875,628.6771850585938
2576,242.1042938232422,-19.29788398742676,213.1967315673828,636.1083374023438
2577,241.62933349609372,-24.698299407958984,213.48097229003903,627.4916381835938
2578,232.76950073242188,-19.080968856811523,217.27322387695312,626.89697265625
2579,241.5881805419922,-14.593090057373047,215.6014862060547,631.6990356445312
2580,239.1796875,-12.723139762878418,212.0672912597656,618.4710083007812
2581,244.80450439453125,-14.578129768371582,218.27926635742188,616.0064086914062
2582,246.2144470214844,-12.00507926940918,219.7191162109375,604.629638671875
2583,251.0202178955078,-7.689234256744385,224.22195434570312,597.6547241210938
2584,254.7563781738281,-5.804324626922607,226.0358123779297,592.8489379882812
2585,256.5477905273437,-9.68260097503662,231.95980834960938,585.7356567382812
2586,248.933349609375,-9.712520599365234,225.86378479003903,583.3308715820312
2587,249.3858795166016,4.607556819915772,224.2182159423828,588.316162109375
2588,241.19923400878903,5.576190948486328,212.7329864501953,587.2203979492188
2589,232.0701446533203,0.12341669946908952,209.1202392578125,575.5481567382812
2590,227.2082672119141,3.231273651123047,208.55552673339844,586.9698486328125
2591,240.04360961914062,-0.991073489189148,210.5788116455078,595.1078491210938
2592,242.90089416503903,-2.3037784099578857,207.58688354492188,606.8922729492188
2593,222.42120361328125,-9.293651580810547,214.01577758789062,611.4063110351562
2594,226.5874481201172,-12.31923007965088,207.8898162841797,617.23681640625
2595,234.8563690185547,-10.090250015258787,215.4818115234375,628.5612182617188
2596,236.9394989013672,-19.04730987548828,214.99188232421875,630.2741088867188
2597,220.87661743164062,-25.0535888671875,204.28082275390625,624.9859008789062
2598,227.9039001464844,-23.98023796081543,208.5966644287109,628.2844848632812
2599,243.9630279541016,-8.366156578063965,216.5439453125,631.6878051757812
2600,228.48358154296875,-11.840523719787598,213.9185333251953,627.3457641601562
2601,224.23130798339844,-10.004232406616213,216.2933807373047,615.662353515625
2602,229.3512420654297,-7.083370685577393,218.03990173339844,613.4370727539062
2603,233.18463134765625,-2.2925586700439453,226.37240600585938,616.2607421875
2604,241.128173828125,-1.4922200441360474,228.19000244140625,610.9313354492188
2605,233.5810546875,-0.961154282093048,221.91070556640625,591.7456665039062
2606,240.2118988037109,5.314397811889648,227.8608856201172,593.4136962890625
2607,249.40457153320312,11.54133129119873,230.90516662597656,592.6357421875
2608,249.38214111328125,5.056344509124756,220.0594482421875,572.7319946289062
2609,240.17823791503903,3.4968063831329346,217.2545318603516,565.7271728515625
2610,247.8450469970703,4.865609645843506,219.1282196044922,572.9302368164062
2611,249.75613403320312,11.68344783782959,220.6877593994141,581.1617431640625
2612,240.2792205810547,1.6792150735855105,215.63888549804688,585.4177856445312
2613,226.63232421875,-4.2391767501831055,212.7460784912109,585.6851806640625
2614,231.07159423828125,-2.1971912384033203,217.20404052734372,603.3823852539062
2615,247.2242126464844,-9.445116996765137,219.0777282714844,614.5870971679688
2616,240.2306060791016,-13.009242057800293,211.35858154296875,622.1865844726562
2617,237.0741271972656,-13.443070411682127,206.878173828125,623.07666015625
2618,230.76492309570312,-16.17319679260254,208.5873107910156,622.26513671875
2619,237.77723693847656,-20.964008331298828,208.75559997558597,628.3611450195312
2620,234.45245361328125,-23.039653778076172,207.1324920654297,620.9449462890625
2621,236.4832305908203,-18.951942443847656,213.56137084960938,623.2449951171875
2622,231.77842712402344,-17.201669692993164,214.2644805908203,620.3801879882812
2623,237.20501708984372,-11.72645664215088,215.7417449951172,618.2896118164062
2624,227.8702392578125,-11.647918701171875,216.58322143554688,624.0079345703125
2625,220.7345123291016,-6.064247608184815,213.3108062744141,616.3486328125
2626,232.0963287353516,-1.7858022451400757,213.7072296142578,607.8702392578125
2627,241.31890869140625,3.046148538589477,217.3872985839844,598.50927734375
2628,246.0947723388672,4.5944671630859375,214.18968200683597,584.4884033203125
2629,255.83346557617188,5.1629319190979,217.6079559326172,573.5940551757812
2630,248.23773193359372,4.68796443939209,217.0955810546875,569.5026245117188
2631,241.5994110107422,-0.6900115609169006,212.2748565673828,575.58740234375
2632,239.35546875,-2.8853328227996826,209.5297698974609,581.302001953125
2633,229.92718505859372,2.8741130828857417,212.3159942626953,601.3590698242188
2634,223.73390197753903,-2.6459791660308842,208.60226440429688,608.603271484375
2635,229.36245727539062,-2.574921131134033,208.51251220703125,613.4052734375
2636,242.79617309570312,-9.276822090148926,213.0265655517578,624.8344116210938
2637,237.1152648925781,-13.570226669311525,210.96214294433597,618.169921875
2638,250.4143524169922,-13.11021900177002,215.4126281738281,624.8344116210938
2639,246.40892028808597,-16.079700469970707,211.4932098388672,626.771728515625
2640,232.9490203857422,-9.875205993652344,217.4807891845703,637.112548828125
2641,225.8282470703125,-22.87883758544922,211.9644470214844,623.6376953125
2642,241.1169586181641,-18.0468864440918,214.3878936767578,628.0432739257812
2643,252.09356689453125,-15.53741455078125,215.4500274658203,626.9774169921875
2644,241.27403259277344,-12.08548641204834,219.3731842041016,629.8272094726562
2645,252.4937286376953,-13.659984588623047,221.31419372558597,624.2360229492188
2646,238.5065155029297,-12.541754722595215,220.962646484375,625.7694091796875
2647,238.4317169189453,-6.692551136016847,227.71316528320312,622.6914672851562
2648,237.5677947998047,2.0101962089538574,225.5701904296875,612.2945556640625
2649,226.0825653076172,-5.813674449920653,217.11053466796875,598.591552734375
2650,221.56475830078125,-1.7932820320129397,221.0710906982422,586.2536010742188
2651,228.44244384765625,-3.92502498626709,219.69854736328125,590.7564697265625
2652,238.1998443603516,-3.685671329498291,213.3781280517578,588.0786743164062
2653,236.80111694335938,-11.96580982208252,206.05165100097656,592.7835083007812
2654,232.58624267578125,-11.445963859558105,201.57125854492188,587.4578857421875
2655,249.5728759765625,-1.7745825052261353,215.55101013183597,609.9570922851562
2656,243.3421936035156,-8.629818916320799,213.16868591308597,618.768310546875
2657,243.86952209472656,-16.191896438598633,210.3562774658203,614.201904296875
2658,228.1731719970703,-11.909711837768555,219.66488647460938,624.2322998046875
2659,235.17051696777344,-17.747695922851562,219.74343872070312,630.6986083984375
2660,240.69435119628903,-9.433897972106934,220.8354797363281,631.0763549804688
2661,234.3178253173828,-6.729949951171875,222.57827758789062,630.2199096679688
2662,229.7813262939453,-16.03856086730957,217.2676239013672,620.3876953125
2663,241.0234680175781,-9.482516288757324,220.53628540039062,625.4851684570312
2664,241.820068359375,-14.486502647399902,214.6197662353516,623.839599609375
2665,236.12045288085938,-18.529335021972656,204.65293884277344,618.6224365234375
2666,236.15411376953125,-14.030234336853027,213.96902465820312,618.1774291992188
2667,246.93251037597656,-6.56913423538208,216.4149169921875,621.7826538085938
2668,253.181884765625,-2.0401153564453125,216.95346069335938,614.0336303710938
2669,251.4353485107422,-11.01213550567627,215.188232421875,600.996337890625
2670,226.4976959228516,-6.019369125366211,215.54351806640625,596.6318359375
2671,226.01898193359372,-3.8801462650299072,219.7135162353516,598.48681640625
2672,231.1202087402344,-2.1971912384033203,221.7517547607422,600.0725708007812
2673,227.1147766113281,-1.535228967666626,213.68853759765625,590.0833129882812
2674,224.77734375,-0.6451327204704285,215.89134216308597,584.2453002929688
2675,246.45005798339844,7.418091773986816,225.3719787597656,596.022216796875
2676,236.18777465820312,2.324347734451294,216.4859771728516,597.5069580078125
2677,226.9352569580078,-5.58180046081543,212.85079956054688,600.88037109375
2678,226.5986633300781,-16.37141227722168,216.9272918701172,611.8457641601562
2679,249.449462890625,-11.677837371826172,219.19366455078125,626.8614501953125
2680,244.7932891845703,-11.31132698059082,218.43446350097656,630.0179443359375
2681,230.30491638183597,-18.084285736083984,209.49237060546875,621.337646484375
2682,227.4999847412109,-19.17259788513184,216.4111785888672,618.3868408203125
2683,236.97314453125,-3.640792608261109,218.15023803710938,625.6759033203125
2684,231.70736694335938,-9.09356689453125,218.2773895263672,622.06689453125
2685,229.7813262939453,-20.1300106048584,212.18882751464844,621.375
2686,232.4254302978516,-16.831418991088867,216.373779296875,620.4437866210938
2687,238.32699584960938,-22.23557472229004,213.17990112304688,617.3883056640625
2688,243.2561798095703,-13.36079216003418,224.0181427001953,622.1753540039062
2689,234.06724548339844,-17.369964599609375,222.488525390625,609.646728515625
2690,235.43231201171875,-10.466110229492188,221.72183227539062,610.6265258789062
2691,237.5303955078125,-12.111665725708008,226.0414276123047,604.3809204101562
2692,228.65560913085938,-8.012735366821289,221.5684967041016,604.717529296875
2693,226.2545928955078,-10.948556900024414,216.4560546875,600.85791015625
2694,226.83428955078125,-10.518468856811523,215.6669464111328,589.8214721679688
2695,231.3969573974609,-0.5628549456596375,224.40708923339844,601.5236206054688
2696,231.4306182861328,-1.2061177492141724,224.2911529541016,599.952880859375
2697,230.0655517578125,-4.744062900543213,222.88494873046875,582.7081909179688
2698,238.44667053222656,-0.921885311603546,220.7793884277344,584.7501831054688
2699,239.1834259033203,0.5740746259689331,220.0987243652344,593.2808837890625
2700,240.8925628662109,-0.5703347325325012,220.7644195556641,607.9301147460938
2701,227.4139709472656,-10.623186111450195,215.19944763183597,609.0333862304688
2702,229.4148101806641,-19.037960052490234,213.6698303222656,617.7061767578125
2703,250.2984161376953,-14.856752395629885,212.8582763671875,622.3660888671875
2704,243.0542297363281,-3.3490803241729736,216.9385070800781,622.8672485351562
2705,224.8970184326172,-10.275375366210938,214.518798828125,617.5528564453125
2706,229.0819549560547,-10.454890251159668,212.53289794921875,615.750244140625
2707,226.35557556152344,-10.92985725402832,209.19317626953125,615.1480712890625
2708,236.1578521728516,-7.361992835998535,212.06167602539062,611.5914306640625
2709,231.61761474609372,-8.203470230102539,206.5789794921875,606.7632446289062
2710,224.7810821533203,-3.962424039840698,205.6140899658203,601.3328857421875
2711,235.6417388916016,-3.3603000640869136,208.3629150390625,603.1505126953125
2712,239.3180694580078,-0.6900115609169006,211.0706024169922,602.1781005859375
2713,229.67660522460938,-0.3085417449474335,210.75271606445312,590.0682983398438
2714,225.56271362304688,-2.5637013912200928,208.04129028320312,589.1370849609375
2715,237.7435760498047,1.838160872459412,215.76417541503903,593.3893432617188
2716,239.5985565185547,1.2248172760009766,211.7363128662109,596.714111328125
2717,239.87905883789062,0.9705040454864502,215.67442321777344,594.3579711914062
2718,226.86045837402344,-6.872066020965576,213.2771453857422,592.652587890625
2719,244.54270935058597,-1.916698694229126,217.4433898925781,595.599609375
2720,238.77952575683597,-10.200576782226562,215.7417449951172,604.4033813476562
2721,243.1776428222656,-9.306740760803224,217.00582885742188,613.7867431640625
2722,238.5813140869141,-8.629818916320799,214.81423950195312,618.9104614257812
2723,234.8638458251953,-8.326887130737305,215.1433563232422,621.5807495117188
2724,240.6419982910156,-10.36887264251709,223.7226867675781,628.2115478515625
2725,227.8889312744141,-9.198284149169922,219.10765075683597,625.1112060546875
2726,220.83921813964844,-11.300107955932615,214.26821899414062,612.9527587890625
2727,239.83042907714844,-4.9497575759887695,222.2491607666016,627.9161376953125
2728,229.21286010742188,-3.1546056270599365,217.9856719970703,621.2965087890625
2729,226.8679351806641,-1.7371835708618164,216.1381683349609,613.0537719726562
2730,235.18548583984372,-6.602793216705322,217.3835601806641,616.984375
2731,237.5790100097656,-5.750096321105957,221.1758117675781,610.4133911132812
2732,239.5237579345703,-6.872066020965576,223.69276428222656,613.8466186523438
2733,243.4581298828125,-8.633559226989746,219.9192047119141,603.42724609375
2734,242.8485412597656,-13.68242359161377,213.80821228027344,593.5538940429688
2735,245.41036987304688,-10.30903434753418,211.8896484375,590.4834594726562
2736,247.6131591796875,-9.29552173614502,218.88699340820312,584.0732421875
2737,236.2476043701172,-8.181031227111816,213.3594207763672,571.8923950195312
2738,243.2823638916016,-0.8134282231330872,219.859375,591.160400390625
2739,242.8709716796875,-4.725363731384277,222.4660797119141,598.2474975585938
2740,230.3759613037109,-7.313374519348144,209.5297698974609,604.848388671875
2741,222.79144287109372,-2.8628933429718018,214.26821899414062,613.24072265625
2742,223.72642517089844,-9.512435913085938,209.3801727294922,617.4556274414062
2743,233.98870849609372,-3.708110809326172,216.0708465576172,631.9177856445312
2744,228.36016845703125,-12.863386154174805,209.2866668701172,625.6646728515625
2745,231.22866821289062,-17.934690475463867,203.6057586669922,619.3106079101562
2746,229.3175811767578,-12.448257446289062,212.27859497070312,624.3333129882812
2747,228.27413940429688,-11.419784545898438,208.1235656738281,628.4210205078125
2748,232.54510498046875,-6.412058353424072,214.20089721679688,622.78125
2749,227.13720703125,2.690858125686645,218.3970642089844,611.6363525390625
2750,223.2028350830078,0.4618776440620422,212.20379638671875,598.53173828125
2751,238.0652008056641,9.460077285766602,218.8832550048828,605.0316772460938
2752,241.91729736328125,-0.6900115609169006,217.6116943359375,592.1776123046875
2753,239.50880432128903,2.346787214279175,211.02198791503903,578.2801513671875
2754,235.6529693603516,6.696290969848633,210.9434509277344,569.8280029296875
2755,243.8358612060547,0.7797691226005554,212.27859497070312,576.9188232421875
2756,253.5895233154297,2.31686806678772,211.1528778076172,586.5902099609375
2757,241.70037841796875,-4.332674026489259,213.34820556640625,591.9906616210938
2758,240.85142517089844,-12.545494079589846,214.6870880126953,598.0418090820312
2759,240.4362945556641,-11.741415977478027,213.2060852050781,614.2579956054688
2760,245.8030548095703,-6.24750280380249,220.9102783203125,619.4564819335938
2761,233.6521148681641,-17.115652084350586,213.21356201171875,609.90478515625
2762,228.79025268554688,-7.193697452545166,216.8412628173828,612.9265747070312
2763,229.3474884033203,-6.7149901390075675,212.0130615234375,618.4840698242188
2764,231.39321899414062,-5.050734996795653,209.9374084472656,618.416748046875
2765,213.7408905029297,-20.81441307067871,206.9828948974609,614.5459594726562
2766,216.79638671875,-10.656845092773438,204.91847229003903,610.996826171875
2767,231.8158264160156,2.249549865722656,215.92498779296875,620.4063720703125
2768,237.6837310791016,0.4095190465450287,211.8111114501953,616.2588500976562
2769,228.6593475341797,-4.874959468841553,210.5731964111328,602.7877197265625
2770,225.47296142578125,-1.5539283752441406,211.66151428222656,601.0860595703125
2771,228.7603302001953,2.4515044689178467,219.73220825195312,605.6524658203125
2772,231.6213531494141,1.9129588603973389,218.89447021484372,600.04638671875
2773,225.07652282714844,2.948911190032959,208.1048583984375,569.8429565429688
2774,229.9346618652344,6.8533668518066415,209.79904174804688,573.0443115234375
2775,243.2748870849609,5.8473334312438965,214.6758728027344,579.4507446289062
2776,237.13771057128903,4.414951801300049,214.8366851806641,584.9147338867188
2777,234.75164794921875,-1.2883955240249634,212.5890045166016,590.5582275390625
2778,237.747314453125,4.55706787109375,221.65826416015625,605.0092163085938
2779,226.1461334228516,2.1747517585754395,215.25929260253903,609.8486328125
2780,226.2957305908203,-5.862293243408202,215.1919708251953,616.1129760742188
2781,223.21031188964844,-10.16691780090332,211.7176055908203,609.0333862304688
2782,220.11741638183597,-5.7912349700927725,210.28521728515625,604.7437133789062
2783,219.78831481933597,0.7760292291641235,212.4655914306641,613.3865966796875
2784,224.5679016113281,-6.580353736877441,209.6307373046875,615.0321655273438
2785,216.4971923828125,-17.553220748901367,206.3022308349609,609.590576171875
2786,218.4830780029297,-9.59471321105957,209.2118682861328,608.8875122070312
2787,235.91476440429688,-1.9802770614624023,217.3498992919922,619.0712280273438
2788,238.10633850097656,-3.2555828094482417,220.79808044433597,613.08740234375
2789,227.2082672119141,-5.8473334312438965,217.2788391113281,601.1870727539062
2790,233.3753662109375,1.9840168952941892,223.25894165039062,592.4132690429688
2791,237.55657958984372,2.1261332035064697,218.8832550048828,590.644287109375
2792,245.0326385498047,2.5898807048797607,221.43760681152344,588.1572265625
2793,231.8158264160156,-3.09102725982666,217.13671875,583.1607055664062
2794,227.38031005859372,-6.262462615966798,210.66668701171875,579.6489868164062
2795,241.65924072265625,-4.385032653808594,213.497802734375,590.0084838867188
2796,241.5881805419922,-9.650812149047852,211.6727294921875,597.230224609375
2797,235.7913360595703,-16.644424438476562,211.6577606201172,589.4998779296875
2798,233.8316345214844,-8.816814422607422,220.3231201171875,610.4246215820312
2799,225.787109375,-6.124086380004883,217.3162384033203,612.25341796875
2800,224.13034057617188,-7.2049174308776855,215.89508056640625,612.23095703125
2801,228.1956024169922,-7.623785972595215,215.3079071044922,614.0709838867188
2802,221.1159820556641,-12.6090726852417,209.15203857421875,616.31494140625
2803,223.6703338623047,-10.611966133117676,211.4595489501953,620.365234375
2804,232.7059326171875,-4.504709720611572,214.1223602294922,620.0025024414062
2805,224.5080718994141,-11.98824977874756,212.74981689453125,619.16845703125
2806,218.87203979492188,-12.059307098388672,211.98687744140625,621.1019897460938
2807,234.92369079589844,-1.426771879196167,221.35533142089844,630.2273559570312
2808,232.28330993652344,-11.11685276031494,213.29959106445312,627.3887939453125
2809,220.4502716064453,-6.097907066345215,216.8936309814453,610.6004028320312
2810,221.2954864501953,6.872066020965576,217.7762451171875,601.0411987304688
2811,232.07388305664062,7.795821666717528,218.14649963378903,590.6779174804688
2812,237.7024383544922,5.705217361450195,218.20632934570312,573.9718017578125
2813,232.38803100585938,7.186217784881593,211.6802062988281,565.5457763671875
2814,232.8349456787109,8.111843109130861,212.6095733642578,572.2047119140625
2815,246.37713623046875,0.4151288866996765,212.3440399169922,579.1160278320312
2816,247.58511352539062,-5.546271800994873,205.8216552734375,586.7155151367188
2817,237.2742156982422,-10.026671409606934,204.5987091064453,591.8428955078125
2818,232.6143035888672,-14.522031784057615,205.84034729003903,597.000244140625
2819,239.54432678222656,-8.096883773803711,209.91683959960938,608.9342651367188
2820,233.95318603515625,-9.046817779541016,206.18817138671875,614.0354614257812
2821,219.90611267089844,-11.98263931274414,203.7310485839844,613.8110961914062
2822,220.6129608154297,-18.101116180419922,203.2373809814453,611.7242431640625
2823,225.2130279541016,-10.082770347595217,206.22930908203125,614.4393920898438
2824,230.0337677001953,-8.108102798461914,205.7730407714844,613.4370727539062
2825,222.51657104492188,-8.175421714782715,207.8598937988281,612.0682983398438
2826,227.33355712890625,-0.9499346017837524,208.5293426513672,607.9431762695312
2827,229.15863037109372,-0.938714861869812,210.4404296875,615.0714111328125
2828,228.59390258789062,-3.100377082824707,212.49737548828125,612.049560546875
2829,211.8765563964844,-5.594890117645264,205.84783935546875,600.0332641601562
2830,210.60498046875,3.3322508335113525,201.5394744873047,590.2123413085938
2831,227.04183959960938,7.0272722244262695,214.56553649902344,584.8792114257812
2832,233.33984375,10.165047645568848,208.78366088867188,585.9301147460938
2833,228.57894897460938,5.553751468658447,205.62718200683597,578.7681884765625
2834,235.01531982421875,-1.3688033819198608,204.3668365478516,584.5126953125
2835,230.72190856933597,-3.900715589523315,207.79632568359372,596.824462890625
2836,233.13414001464844,-15.707579612731935,210.8032073974609,603.7881469726562
2837,231.7354278564453,-11.096282958984377,210.4628753662109,609.3231811523438
2838,222.9129943847656,-10.94668674468994,210.63116455078125,611.3389892578125
2839,233.22764587402344,-3.582824230194092,211.4651641845703,619.877197265625
2840,232.6591796875,-4.054051399230957,216.6710968017578,625.1430053710938
2841,223.72830200195312,-5.789365291595459,207.0109405517578,613.5193481445312
2842,225.08213806152344,-5.512612342834473,214.15040588378903,618.9010620117188
2843,227.06802368164062,-1.7502732276916504,219.0571594238281,624.5894775390625
2844,230.38531494140625,-4.570157527923584,218.3690185546875,629.7916870117188
2845,215.9418182373047,-13.261685371398926,216.27093505859372,614.8732299804688
2846,216.5102844238281,-12.809157371520994,217.6846160888672,613.3473510742188
2847,237.91748046875,-0.3403308987617493,220.0332794189453,610.052490234375
2848,235.32199096679688,-1.73905348777771,219.74530029296875,603.1934814453125
2849,234.0653839111328,-7.65931510925293,214.46456909179688,587.9122924804688
2850,238.164306640625,3.033058881759644,219.4423675537109,588.536865234375
2851,243.1234130859375,10.78961181640625,227.53550720214844,592.3328247070312
2852,228.7098388671875,7.07589054107666,224.15464782714844,592.400146484375
2853,218.64202880859372,-2.2476799488067627,212.02615356445312,581.7601318359375
2854,219.14317321777344,1.03595232963562,210.38807678222656,578.783203125
2855,224.37155151367188,0.721800684928894,206.5397186279297,583.9105834960938
2856,228.0254364013672,-0.7554597854614258,208.8173065185547,594.7188720703125
2857,228.0927581787109,-0.7778992056846619,206.52101135253903,601.3385009765625
2858,224.54733276367188,-8.007125854492188,203.34210205078125,597.4752197265625
2859,239.9893798828125,-11.257099151611328,207.32135009765625,613.7400512695312
2860,230.73312377929688,-20.550750732421875,200.1781463623047,617.364013671875
2861,221.91070556640625,-21.624101638793945,200.14822387695312,618.6953735351562
2862,221.77980041503903,-24.17845344543457,199.81912231445312,619.6378173828125
2863,227.55421447753903,-20.146841049194336,209.3970031738281,627.0540771484375
2864,222.389404296875,-15.445786476135256,207.38119506835938,623.9088134765625
2865,222.87933349609372,-17.570049285888672,206.8463897705078,613.6502685546875
2866,230.25816345214844,-12.416467666625975,212.0074462890625,613.65771484375
2867,243.8003387451172,-9.271211624145508,212.53851318359372,615.2471923828125
2868,230.42645263671875,-5.87164306640625,214.2027740478516,606.8286743164062
2869,226.2115936279297,-4.708534240722656,219.23667907714844,594.9133911132812
2870,236.7431488037109,-5.082523822784424,217.8678741455078,586.7229614257812
2871,246.05923461914062,5.710827350616455,224.45384216308597,590.814453125
2872,244.9447479248047,9.020638465881348,229.9440155029297,589.0866088867188
2873,231.7989959716797,4.8543901443481445,223.9339904785156,575.8922119140625
2874,231.1968688964844,7.4611005783081055,228.4592742919922,577.7247924804688
2875,228.0927581787109,13.175667762756348,229.525146484375,581.77880859375
2876,225.52719116210938,10.759692192077637,227.7823486328125,583.6001586914062
2877,220.4970245361328,7.4872798919677725,222.01168823242188,576.3970947265625
2878,224.7268524169922,9.899515151977539,228.4630126953125,582.7138061523438
2879,227.2737274169922,2.1541824340820312,223.05511474609372,587.8486938476562
2880,227.10916137695312,-1.8549903631210327,221.61524963378903,590.2085571289062
2881,223.86666870117188,-4.072751045227052,216.49159240722656,583.2635498046875
2882,226.54818725585938,0.09349749982357024,216.7309417724609,595.7660522460938
2883,238.53829956054688,-2.472073793411255,221.79103088378903,608.1414184570312
2884,234.74978637695312,-3.9455945491790767,216.9141998291016,607.142822265625
2885,225.0709228515625,-8.590550422668457,207.8598937988281,602.63623046875
2886,224.92132568359372,-7.060931205749513,217.1348571777344,614.8544921875
2887,233.22015380859372,-4.7197537422180185,222.7035675048828,623.0560913085938
2888,240.3072662353516,-5.49017333984375,222.5240478515625,622.1099243164062
2889,229.0539093017578,-12.82785701751709,216.5963134765625,610.217041015625
2890,233.7699279785156,-5.164802074432373,218.6270751953125,610.3666381835938
2891,250.61817932128903,-3.571604490280152,221.6975250244141,606.3612060546875
2892,260.78695678710943,-8.807464599609375,219.70042419433597,598.59716796875
2893,242.3642120361328,-7.326464176177978,214.9245758056641,587.2578125
2894,234.8544921875,-0.7442401051521301,216.83192443847656,588.0357055664062
2895,240.01182556152344,1.047171950340271,217.1460723876953,588.185302734375
2896,239.78369140625,-2.681508302688598,215.9044189453125,593.8886108398438
2897,218.6569976806641,-3.309811353683472,212.7255096435547,595.556640625
2898,218.47373962402344,-3.6838014125823975,220.92710876464844,597.9314575195312
2899,223.48146057128903,-2.1317429542541504,219.47976684570312,603.915283203125
2900,223.8554534912109,-3.403308868408203,222.55023193359372,610.886474609375
2901,220.0070953369141,-6.114736557006836,219.42367553710938,611.7466430664062
2902,224.9250640869141,-5.718307018280028,220.5792999267578,613.8372802734375
2903,231.6045227050781,-4.2223472595214835,222.92047119140625,616.343017578125
2904,233.26878356933597,-7.154428482055664,222.03411865234372,627.2859497070312
2905,219.62936401367188,-5.460253715515137,212.7778625488281,615.2322387695312
2906,221.1515045166016,-0.4338283836841583,221.18142700195312,620.239990234375
2907,230.72564697265625,-1.8175914287567136,220.358642578125,628.0638427734375
2908,222.6063232421875,-5.497653007507324,217.68087768554688,634.2234497070312
2909,223.4178771972656,-12.281831741333008,213.8362579345703,619.4396362304688
2910,225.52719116210938,-13.366402626037598,218.85520935058597,617.5360107421875
2911,235.69972229003903,-5.2657790184021,217.0189208984375,615.7557983398438
2912,231.4586639404297,-6.541085243225098,209.9392852783203,602.6885986328125
2913,233.81854248046875,-5.430334568023682,210.4030303955078,596.6112670898438
2914,228.90805053710938,-10.060331344604492,208.8808898925781,592.1271362304688
2915,233.0705718994141,-1.0883108377456665,212.29542541503903,594.935791015625
2916,236.133544921875,-2.2364602088928223,219.0160217285156,606.5631713867188
2917,237.01242065429688,-6.922554969787598,217.85665893554688,608.3059692382812
2918,236.0886688232422,-7.633135795593263,213.2229156494141,609.8692016601562
2919,238.4410552978516,-10.553997993469238,216.09141540527344,616.7468872070312
2920,237.21437072753903,-8.848603248596191,215.69873046875,619.8921508789062
2921,224.8502655029297,-13.190627098083494,214.1167449951172,611.5184936523438
2922,240.8794708251953,-4.46544075012207,218.4475555419922,623.49365234375
2923,238.77764892578125,-7.7303733825683585,217.8267364501953,621.3544311523438
2924,237.06103515625,-2.9507811069488525,221.6563873291016,621.6910400390625
2925,229.58871459960938,-12.330450057983398,215.05172729492188,610.3329467773438
2926,228.7248077392578,-2.3823163509368896,216.285888671875,613.7138671875
2927,236.5673675537109,3.122816562652588,225.6132049560547,626.3584594726562
2928,230.76304626464844,-6.066117763519287,217.10867309570312,625.8311157226562
2929,220.93458557128903,-15.397168159484865,209.5204162597656,613.2650756835938
2930,224.85400390625,-16.44059944152832,205.06619262695312,612.4796752929688
2931,234.5104217529297,-12.547364234924315,208.2899932861328,610.8004760742188
2932,242.7494201660156,-3.414528608322144,210.9079132080078,602.5128173828125
2933,236.88526916503903,-8.979499816894531,211.0874328613281,587.856201171875
2934,237.68186950683597,-10.950427055358887,210.30953979492188,590.3207397460938
2935,239.4844970703125,-6.178314685821532,212.8601531982422,598.4625244140625
2936,243.27674865722656,-10.539037704467773,216.36817932128903,603.6011352539062
2937,231.8177032470703,-16.526617050170902,210.7059631347656,600.2913208007812
2938,224.15464782714844,-14.16300106048584,210.2609100341797,609.6485595703125
2939,230.2731170654297,-6.612143039703369,212.29916381835938,618.8973388671875
2940,229.58123779296875,-6.671981334686278,216.21109008789062,621.8630981445312
2941,222.81576538085938,-20.59188842773437,211.47637939453125,614.6937255859375
2942,225.2242584228516,-12.027518272399902,217.7257537841797,618.0147094726562
2943,238.09698486328125,-6.952474117279053,222.46046447753903,626.7810668945312
2944,231.0846710205078,-5.03764533996582,223.48146057128903,619.6154174804688
2945,225.5571136474609,-1.9447479248046875,220.13424682617188,610.4900512695312
2946,233.57171630859372,-7.218007087707519,226.65289306640625,616.55615234375
2947,231.8812713623047,-0.8713966608047485,221.6339569091797,610.5125122070312
2948,233.6913909912109,2.39353609085083,218.89634704589844,607.9431762695312
2949,227.9095001220703,-10.434320449829102,214.62164306640625,598.7879028320312
2950,228.328369140625,-7.965986728668213,208.69015502929688,596.5028076171875
2951,234.4730224609375,-13.568357467651367,206.22930908203125,597.3817138671875
2952,240.84580993652344,-9.772358894348145,207.9833221435547,598.3316040039062
2953,237.34527587890625,-17.143701553344727,204.17984008789062,598.61962890625
2954,237.01242065429688,-15.602862358093262,208.4358367919922,598.7205810546875
2955,243.0785369873047,-15.083016395568848,211.30435180664062,607.8272705078125
2956,241.06272888183597,-12.573543548583984,211.06124877929688,616.5262451171875
2957,224.5585479736328,-16.190027236938473,214.0344696044922,609.0875854492188
2958,219.20675659179688,-9.166494369506836,217.42282104492188,613.4595336914062
2959,228.5826873779297,-7.247926235198975,217.92022705078125,620.2623901367188
2960,228.0927581787109,-6.496206283569336,218.7691802978516,617.5547485351562
2961,221.6975250244141,-8.92340087890625,219.2666015625,618.42236328125
2962,223.66845703125,-7.879969120025635,218.4512939453125,615.8007202148438
2963,232.1842041015625,-4.716013908386231,225.6954803466797,621.6760864257812
2964,229.173583984375,-2.0045864582061768,223.94520568847656,616.7992553710938
2965,218.0847930908203,-0.5684648156166077,217.62852478027344,604.19580078125
2966,222.6025848388672,-7.857529640197754,219.31521606445312,597.176025390625
2967,234.16261291503903,0.5048865079879761,226.0694732666016,603.8591918945312
2968,234.34213256835938,1.2117276191711426,219.0160217285156,591.5250244140625
2969,229.71961975097656,-1.6530357599258425,220.60548400878903,586.2667236328125
2970,233.2613067626953,-6.847756862640381,210.45913696289062,588.1703491210938
2971,232.6591796875,-5.093743801116943,212.91998291015625,610.7406005859375
2972,230.95751953125,-13.403800964355467,210.5264434814453,618.362548828125
2973,230.6545867919922,-14.462193489074707,205.6009979248047,615.8605346679688
2974,236.95257568359372,-14.810004234313965,202.87461853027344,608.9678955078125
2975,249.05490112304688,-12.775498390197756,204.3743133544922,615.9353637695312
2976,238.1605682373047,-19.95236587524414,199.501220703125,613.7923583984375
2977,227.25875854492188,-22.218746185302734,203.46925354003903,606.6790771484375
2978,233.49317932128903,-17.252159118652347,207.5681915283203,618.3849487304688
2979,234.07659912109372,-15.213912963867188,207.8598937988281,612.2777099609375
2980,232.7302398681641,-5.766925811767577,212.0859832763672,618.8150634765625
2981,231.11459350585938,-5.243339538574219,208.9930877685547,607.5467529296875
2982,234.8956298828125,5.048864841461182,212.3365631103516,605.3252563476562
2983,234.9442596435547,0.2879723012447357,216.0839385986328,601.6676025390625
2984,234.00927734375,-4.308364868164063,210.84434509277344,599.524658203125
2985,236.0101318359375,-6.686941146850586,212.9424285888672,589.853271484375
2986,240.89817810058597,1.3725433349609375,220.08189392089844,598.7430419921875
2987,248.5612335205078,-3.2462332248687744,221.0355682373047,603.4253540039062
2988,237.6033172607422,-1.9073489904403689,217.49761962890625,594.2962646484375
2989,231.8326568603516,1.2229472398757937,212.2093963623047,574.5682983398438
2990,232.75267028808597,12.663301467895508,208.08428955078125,577.5826416015625
2991,226.2415008544922,13.370141983032227,202.7250213623047,592.6095581054688
2992,233.4482879638672,4.0615315437316895,202.1677703857422,593.2266845703125
2993,228.7921142578125,-0.254313200712204,205.9637756347656,603.7283325195312
2994,230.17962646484372,-9.62650203704834,203.76844787597656,604.9325561523438
2995,232.7900695800781,-12.906394958496096,208.50315856933597,622.9326782226562
2996,226.7501373291016,-14.17422103881836,205.20083618164062,624.1107788085938
2997,226.14427185058597,-12.098576545715332,207.34005737304688,626.0181274414062
2998,229.83555603027344,-7.550858020782472,211.0462951660156,635.2968139648438
2999,235.6099548339844,-5.8118042945861825,209.1539001464844,634.40673828125
3000,230.20579528808597,-9.929434776306152,209.7560272216797,639.8108520507812
3001,215.69873046875,-15.56920337677002,207.0109405517578,629.6644897460938
3002,221.2113494873047,-12.19581413269043,204.2172393798828,624.6231079101562
3003,226.4210205078125,-8.788764953613281,209.172607421875,624.7427978515625
3004,215.54913330078125,-5.434074401855469,210.41798400878903,606.2302856445312
3005,224.5548095703125,10.191226959228516,213.2902374267578,599.8013916015625
3006,230.9126434326172,5.306918144226074,216.6299591064453,595.9156494140625
3007,227.7524261474609,3.0405385494232178,218.8215484619141,594.86474609375
3008,221.6750946044922,3.59778380393982,216.88427734375,590.6461181640625
3009,224.05740356445312,3.762339353561402,212.02989196777344,575.2115478515625
3010,234.2112274169922,6.746779441833496,209.10528564453125,571.1949462890625
3011,239.46578979492188,12.622162818908693,210.60498046875,577.4330444335938
3012,234.3458709716797,1.4847402572631836,203.7871551513672,570.8695678710938
3013,227.318603515625,-3.874536275863648,201.77134704589844,576.2886352539062
3014,240.4306945800781,-3.0031397342681885,201.2103576660156,589.3222045898438
3015,254.4048309326172,-12.717530250549315,201.2870330810547,599.8612670898438
3016,245.14483642578125,-13.446810722351074,202.7605438232422,606.4659423828125
3017,232.2720947265625,-20.91164970397949,197.9360809326172,601.6002807617188
3018,231.890625,-12.822246551513672,202.0387420654297,609.1174926757812
3019,237.0105438232422,-13.439330101013185,210.6180725097656,615.2808837890625
3020,229.5232696533203,-10.784001350402832,203.63568115234372,613.5006713867188
3021,217.9557647705078,-18.544294357299805,197.66680908203125,611.6494140625
3022,229.20538330078125,-13.674943923950195,201.5937042236328,610.359130859375
3023,235.59312438964844,-8.988849639892578,205.4084014892578,616.3991088867188
3024,232.34689331054688,-9.908864974975586,206.80337524414062,623.104736328125
3025,226.0339508056641,-8.147372245788574,208.63592529296875,619.3236694335938
3026,236.61412048339844,1.4566910266876218,222.75030517578125,626.908203125
3027,235.3612518310547,-4.055921554565431,214.0625305175781,612.5021362304688
3028,221.7629852294922,0.7797691226005554,214.48513793945312,601.5928344726562
3029,229.15301513671875,8.708356857299805,214.87408447265625,581.0982055664062
3030,225.39068603515625,5.604239940643311,212.1402130126953,569.94580078125
3031,234.89376831054688,8.326887130737305,212.46185302734372,584.3855590820312
3032,235.1219024658203,2.4515044689178467,210.8798675537109,582.2687377929688
3033,224.21261596679688,-3.494936466217041,208.93511962890625,585.8179321289062
3034,234.5571746826172,0.08040785044431686,209.45870971679688,595.781005859375
3035,246.49493408203125,0.9106656312942504,209.57464599609372,610.7144165039062
3036,244.58384704589844,-5.372366428375244,208.14599609375,614.6450805664062
3037,233.9625244140625,-10.387572288513184,205.2363586425781,611.3240356445312
3038,230.00572204589844,-7.702323913574219,207.80941772460938,619.1890258789062
3039,234.91619873046875,-8.435344696044924,209.4736633300781,622.9027709960938
3040,235.67913818359372,-15.21578311920166,208.3629150390625,621.51904296875
3041,229.88604736328125,-17.44476318359375,208.7855224609375,621.33203125
3042,229.40733337402344,-13.746002197265625,209.4325256347656,622.4876708984375
3043,236.86094665527344,-14.68097686767578,211.9345245361328,638.374755859375
3044,229.74766540527344,-6.722470283508301,214.96383666992188,638.550537109375
3045,227.900146484375,-15.163424491882324,214.93017578125,631.3848876953125
3046,226.35183715820312,-4.8899192810058585,219.765869140625,630.3115234375
3047,240.6719055175781,3.659492015838623,229.6990509033203,632.622802734375
3048,236.0419158935547,-0.4169988334178925,227.7318572998047,619.0394897460938
3049,236.45330810546875,-2.746956586837769,227.0624084472656,602.6885986328125
3050,238.076416015625,2.541261911392212,224.87831115722656,596.8880615234375
3051,246.17330932617188,0.974243938922882,227.08859252929688,591.5062866210938
3052,245.6385040283203,-0.3235013484954834,225.08775329589844,588.1478881835938
3053,234.3327789306641,0.4581377506256104,223.2364959716797,582.5230712890625
3054,227.4476318359375,0.2561831474304199,216.3289031982422,576.5916137695312
3055,235.00222778320312,8.794374465942383,222.93356323242188,586.0759887695312
3056,237.9081268310547,-0.2374836504459381,213.09014892578125,594.4346313476562
3057,227.29803466796875,-5.888472557067871,212.6787567138672,589.0791015625
3058,233.91017150878903,-1.1051404476165771,223.7750396728516,608.8108520507812
3059,243.8321228027344,-7.548987865447997,216.72906494140625,611.9598388671875
3060,241.23663330078125,-16.782800674438473,216.8375244140625,614.4132080078125
3061,242.04444885253903,-22.99851417541504,211.86346435546875,614.8021240234375
3062,237.3134765625,-14.456583023071287,216.3363800048828,621.545166015625
3063,238.32325744628903,-11.528241157531738,218.7336578369141,633.247314453125
3064,227.9562530517578,-9.112266540527344,218.04551696777344,625.0419921875
3065,216.17556762695312,-6.441977500915527,215.2705078125,621.9715576171875
3066,232.4665679931641,-2.70955753326416,220.9925537109375,621.578857421875
3067,239.30311584472656,2.1261332035064697,224.7212371826172,619.6004638671875
3068,237.911865234375,-6.374659538269043,218.8346405029297,610.5125122070312
3069,225.61508178710938,-7.537768363952638,213.7857666015625,614.5328979492188
3070,234.2318115234375,-8.637298583984375,216.0521545410156,602.5726928710938
3071,241.1468811035156,-10.447410583496094,216.044677734375,609.0651245117188
3072,237.2199859619141,-5.204070568084717,213.95407104492188,606.166748046875
3073,214.88156127929688,-1.0901808738708496,214.35797119140625,595.4556274414062
3074,215.7828826904297,1.9391381740570068,211.4109344482422,586.74169921875
3075,227.66079711914062,2.44776463508606,218.0642242431641,589.583984375
3076,227.4139709472656,0.5254559516906738,215.22189331054688,587.1680297851562
3077,227.00631713867188,0.25244325399398804,208.9687805175781,590.2684326171875
3078,245.97509765625,-4.800161361694336,221.1758117675781,601.6376953125
3079,246.48745727539062,-3.86518669128418,216.68792724609372,619.6228637695312
3080,238.8468475341797,-9.639592170715332,217.6640472412109,627.5626831054688
3081,232.7919464111328,-15.062447547912598,210.7676696777344,626.8446044921875
3082,224.8035125732422,-13.772181510925293,211.52313232421875,622.9625854492188
3083,234.5160369873047,-6.703770637512207,221.8564758300781,628.7781372070312
3084,226.23963928222656,-7.87809944152832,216.5906982421875,620.322265625
3085,226.91282653808597,-7.354513168334961,215.2069396972656,612.16552734375
3086,232.79942321777344,-5.8735127449035645,220.25579833984372,611.0996704101562
3087,240.5784149169922,-3.251842975616455,218.72991943359372,622.5325317382812
3088,227.28680419921875,-8.285748481750487,220.6073455810547,623.4899291992188
3089,224.96807861328125,-12.631511688232422,219.65367126464844,624.5221557617188
3090,229.06326293945312,-5.817414283752441,223.80870056152344,626.122802734375
3091,234.2991180419922,-10.264155387878418,221.4226531982422,624.1444091796875
3092,230.106689453125,-4.4897499084472665,217.735107421875,624.009765625
3093,226.01524353027344,-2.982570171356201,219.44798278808597,607.72998046875
3094,230.7013397216797,-3.517375946044922,215.0498504638672,600.1866455078125
3095,242.489501953125,-5.368626594543457,217.6004638671875,598.44384765625
3096,236.8983459472656,-9.897644996643066,211.3323974609375,591.4913330078125
3097,228.90245056152344,-8.78315544128418,212.28233337402344,589.94677734375
3098,226.84176635742188,-4.456090927124023,214.43276977539062,599.7864379882812
3099,233.82041931152344,-8.124932289123535,209.39886474609372,609.0501708984375
3100,229.777587890625,-10.245455741882324,205.20269775390625,608.713623046875
3101,227.63836669921875,-14.101292610168455,206.99411010742188,606.1031494140625
3102,232.6086883544922,-6.928164482116699,213.56137084960938,613.3623046875
3103,238.5364227294922,-6.221323490142822,218.3447113037109,617.7940673828125
3104,239.06375122070312,-6.026848793029785,221.1047515869141,620.1090698242188
3105,226.2957305908203,-9.445116996765137,216.78143310546875,617.3751831054688
3106,240.1221466064453,-5.237730026245117,224.03309631347656,617.1919555664062
3107,240.7616729736328,-10.331473350524902,220.3193817138672,616.2008666992188
3108,243.3309783935547,-6.49807596206665,217.4733123779297,619.5443725585938
3109,233.251953125,-7.481669902801514,223.0382843017578,614.39453125
3110,234.14578247070312,-0.7087110280990601,225.5028839111328,609.4915161132812
3111,233.9774932861328,-4.190557956695557,218.33349609375,614.71240234375
3112,225.3719787597656,-9.145925521850586,216.22044372558597,610.2694091796875
3113,225.2485656738281,-9.445116996765137,219.22732543945312,606.3724365234375
3114,227.395263671875,-3.0162293910980225,216.58322143554688,597.71826171875
3115,242.9906463623047,2.350527048110962,214.77310180664062,600.3773803710938
3116,236.78240966796875,-8.562500953674316,210.8275146484375,596.6823120117188
3117,229.1978912353516,-4.033482074737549,215.53977966308597,599.5059814453125
3118,220.6073455810547,0.9405848383903505,225.1588134765625,608.3919677734375
3119,228.0647125244141,0.23000384867191315,220.2632751464844,615.7857666015625
3120,231.81956481933597,-2.31686806678772,219.62374877929688,614.4954833984375
3121,213.486572265625,-6.83092737197876,214.847900390625,611.0585327148438
3122,224.89328002929688,-0.25244325399398804,222.00233459472656,621.9603271484375
3123,237.2798156738281,-4.310234546661377,223.2888641357422,631.6167602539062
3124,232.1299743652344,-8.427864074707031,218.6850433349609,627.3383178710938
3125,228.7154541015625,-12.265002250671387,217.2713623046875,618.4747314453125
3126,232.55258178710938,-3.09102725982666,222.32769775390625,621.4666748046875
3127,237.76974487304688,-8.431604385375978,219.16748046875,619.7575073242188
3128,247.6954498291016,-2.7170372009277344,226.2134552001953,626.2761840820312
3129,235.29019165039062,-11.943370819091795,218.68130493164062,611.2230834960938
3130,232.05892944335938,-13.1663179397583,221.1309356689453,615.288330078125
3131,230.6115875244141,-7.455490589141847,216.6355743408203,609.9290771484375
3132,231.07159423828125,-7.193697452545166,218.27365112304688,608.0591430664062
3133,224.31358337402344,-9.321701049804688,205.2887115478516,598.0997314453125
3134,234.5609130859375,2.8516736030578613,213.8231658935547,600.0033569335938
3135,236.5430603027344,0.6750519275665283,213.89796447753903,609.1698608398438
3136,234.6057891845703,-4.2092576026916495,215.9885711669922,607.7487182617188
3137,227.63087463378903,-7.347033500671388,217.1741180419922,607.5317993164062
3138,236.78240966796875,-10.323993682861328,219.1637420654297,610.3516845703125
3139,241.0608673095703,-9.101046562194824,222.3090057373047,614.9891357421875
3140,241.19923400878903,-9.2843017578125,216.06336975097656,609.3045043945312
3141,236.1054992675781,-11.24774932861328,215.1844940185547,601.4918212890625
3142,225.34954833984372,-5.155452251434326,210.63677978515625,601.97802734375
3143,233.9288787841797,-2.1747517585754395,215.80905151367188,610.60595703125
3144,238.2559356689453,4.736583232879639,223.9919586181641,611.81396484375
3145,224.92318725585938,-4.837560653686523,214.99375915527344,605.661865234375
3146,229.426025390625,-8.113713264465332,223.04949951171875,612.0196533203125
3147,236.6328125,-13.674943923950195,221.01499938964844,614.2860717773438
3148,236.4308624267578,-18.21518325805664,219.4330139160156,620.8944702148438
3149,233.0537414550781,-22.183216094970703,213.8231658935547,609.5064697265625
3150,226.80062866210938,-12.84842586517334,210.446044921875,614.454345703125
3151,244.00042724609372,-10.806441307067873,218.14276123046875,624.9783935546875
3152,231.4306182861328,-11.96580982208252,214.2981414794922,614.9517211914062
3153,220.2857208251953,-13.716083526611328,206.3695526123047,601.9032592773438
3154,233.6670837402344,-5.989449977874756,215.97735595703125,606.6528930664062
3155,227.79917907714844,-4.7552828788757315,214.7282257080078,601.4395141601562
3156,231.20248413085938,-2.930211544036865,213.4080352783203,605.0185546875
3157,226.74452209472656,-6.419538497924805,209.88131713867188,601.7686157226562
3158,234.83392333984372,-0.6750519275665283,215.2929534912109,608.6724853515625
3159,237.64633178710938,2.679638385772705,222.23046875,611.0061645507812
3160,227.5560760498047,-2.3580069541931152,219.6798553466797,610.7630615234375
3161,221.7629852294922,-6.105386734008789,220.5400238037109,604.5062255859375
3162,233.5511474609375,-1.9092189073562624,225.12515258789062,609.9814453125
3163,234.49359130859372,-5.907172203063965,224.5155487060547,616.7169799804688
3164,234.0036773681641,-6.587833881378174,221.19825744628903,617.823974609375
3165,234.09716796875,-8.498922348022461,219.601318359375,612.3225708007812
3166,227.8702392578125,-9.269342422485352,223.416015625,617.0947265625
3167,237.3209686279297,-1.2210773229599,230.1141815185547,621.414306640625
3168,228.3639068603516,0.18886494636535645,231.40069580078125,624.806396484375
3169,223.4534149169922,-6.064247608184815,224.1415557861328,613.0892944335938
3170,229.8149871826172,-8.356806755065918,220.80929565429688,610.6882934570312
3171,240.4550018310547,-6.135305881500244,221.19451904296875,620.2586669921875
3172,239.41156005859372,-11.064494132995604,209.03610229492188,604.89892578125
3173,238.076416015625,-18.97812271118164,208.9575653076172,596.0241088867188
3174,239.4452209472656,-13.659984588623047,214.92269897460938,594.1466674804688
3175,244.29586791992188,-5.839853763580322,220.55499267578125,593.3875122070312
3176,242.2875518798828,-8.513882637023926,219.6050567626953,586.6519165039062
3177,239.0113983154297,-2.6684186458587646,223.2701568603516,588.8958740234375
3178,231.39321899414062,-2.0326356887817383,218.2848663330078,588.3648071289062
3179,244.03782653808597,-2.6384994983673096,221.7180938720703,600.2614135742188
3180,240.83273315429688,-6.397099018096924,219.5938415527344,600.5643310546875
3181,232.9564971923828,-4.874959468841553,219.06277465820312,599.5396118164062
3182,234.4748992919922,0.8620469570159912,218.7187042236328,605.6318969726562
3183,231.6213531494141,-5.641639232635497,221.05239868164062,602.6773681640625
3184,222.84381103515625,-3.3378608226776123,220.7906036376953,608.3021850585938
3185,216.4223937988281,-1.6399461030960083,220.0426177978516,611.896240234375
3186,214.6758728027344,1.3519738912582395,223.0195770263672,607.7673950195312
3187,230.20767211914062,4.254136085510254,228.756591796875,623.5198364257812
3188,232.60494995117188,0.6301731467247009,224.5454559326172,620.9505615234375
3189,224.1639862060547,-0.6114736199378967,220.9439392089844,618.8487548828125
3190,224.92318725585938,1.6137667894363403,225.6636962890625,620.3858032226562
3191,230.18148803710938,-8.816814422607422,226.11248779296875,619.0693969726562
3192,232.88169860839844,-10.67928409576416,219.32081604003903,616.3541870117188
3193,229.5494537353516,-15.974982261657715,211.2351531982422,599.9622192382812
3194,225.1288909912109,-9.957483291625977,205.5093688964844,590.7733154296875
3195,232.17111206054688,-1.9017391204833984,212.5216827392578,599.4910278320312
3196,228.64813232421875,-7.911758422851562,207.07638549804688,594.7413330078125
3197,220.63726806640625,-12.149065017700195,205.93946838378903,588.151611328125
3198,224.8970184326172,-0.23374374210834506,210.93597412109372,595.0592041015625
3199,227.72064208984372,-1.4903501272201538,207.92535400390625,596.5402221679688
3200,232.84056091308597,-5.5182223320007315,210.4310760498047,598.2044677734375
3201,225.8880920410156,-7.762162208557129,207.0128173828125,587.7327880859375
3202,223.02333068847656,-4.504709720611572,214.25326538085938,600.3362426757812
3203,224.6240081787109,-3.79412841796875,218.9169158935547,611.6045532226562
3204,227.7729949951172,2.7170372009277344,215.92498779296875,613.2725219726562
3205,222.3613586425781,-4.979676723480225,217.62290954589844,609.8392944335938
3206,232.85926818847656,-5.3574066162109375,224.3996124267578,619.3798217773438
3207,243.1664276123047,-2.129873037338257,233.24073791503903,639.82958984375
3208,234.04107666015625,-5.0021162033081055,227.8403167724609,630.2255249023438
3209,238.18487548828125,-13.921777725219727,224.42578125,624.67919921875
3210,234.9984893798828,-9.493736267089844,227.36160278320312,622.4652099609375
3211,244.4791259765625,-7.758422374725343,228.7378845214844,626.003173828125
3212,240.4961395263672,-10.772781372070312,219.5639190673828,611.2417602539062
3213,237.9717102050781,-15.212042808532715,211.00701904296875,601.6339721679688
3214,244.1500244140625,-10.17813777923584,208.404052734375,594.947021484375
3215,241.61062622070312,-2.702077627182007,205.9806060791016,592.8489379882812
3216,227.5149383544922,-11.419784545898438,204.0526885986328,584.4547119140625
3217,223.44219970703125,-5.671558380126952,215.1564483642578,592.04296875
3218,234.5983123779297,-4.770242214202881,215.3995361328125,600.7233276367188
3219,228.84634399414062,-6.602793216705322,216.6299591064453,603.4459228515625
3220,228.0834045410156,-3.2892420291900635,210.3506774902344,604.0667724609375
3221,219.56765747070312,-4.845040321350098,212.8676300048828,608.5134887695312
3222,235.60809326171875,0.8807464241981506,214.4159393310547,615.8362426757812
3223,237.71365356445312,-4.5944671630859375,217.7855987548828,615.8886108398438
3224,228.55838012695312,0.07666794955730437,220.4708404541016,620.57470703125
3225,223.6591033935547,3.9100654125213614,218.8252868652344,629.097900390625
3226,225.7422332763672,-2.025155782699585,219.9921417236328,625.8965454101562
3227,234.70677185058597,-0.8844863176345825,225.59825134277344,633.3651733398438
3228,240.3016662597656,1.4791303873062134,225.14198303222656,636.891845703125
3229,233.5436553955078,-1.1537591218948364,222.729736328125,618.5065307617188
3230,234.8376617431641,-0.7087110280990601,225.25418090820312,619.9837646484375
3231,245.458984375,-2.9077723026275635,223.95643615722656,612.2010498046875
3232,236.1503753662109,-6.737429618835449,216.57012939453125,600.8654174804688
3233,229.4447326660156,-4.770242214202881,211.48385620117188,595.6632080078125
3234,233.9438323974609,-1.703524470329285,211.6633758544922,594.7955322265625
3235,235.8362274169922,-8.005255699157715,210.4441680908203,595.8427124023438
3236,235.7427215576172,-8.136152267456055,212.9499053955078,599.1974487304688
3237,226.13491821289062,-13.345832824707033,209.98789978027344,600.0838012695312
3238,222.0509490966797,-5.432204723358153,210.76205444335938,606.7669677734375
3239,229.61676025390625,-8.753235816955566,209.62139892578125,612.6685180664062
3240,227.3167266845703,-8.525101661682129,209.28854370117188,614.343994140625
3241,221.72183227539062,-11.412304878234865,211.59979248046875,614.2542724609375
3242,228.251708984375,-5.948310852050781,222.63250732421875,620.0885009765625
3243,232.2870635986328,2.2869489192962646,220.5755615234375,627.5234375
3244,228.2591857910156,-4.011042594909668,219.8462829589844,619.4788818359375
3245,229.4634246826172,-6.053028106689452,222.1014404296875,611.2960205078125
3246,237.8333282470703,4.91235876083374,228.833251953125,625.31689453125
3247,247.42242431640625,6.946864128112793,232.8947906494141,623.6077270507812
3248,234.9947509765625,0.7087110280990601,225.12701416015625,608.4536743164062
3249,237.63885498046875,-7.788341522216798,226.7987518310547,595.034912109375
3250,241.37127685546875,0.6750519275665283,230.5910186767578,603.0345458984375
3251,248.6304168701172,0.4469180405139923,235.09385681152344,605.3458251953125
3252,243.09536743164062,1.0976606607437134,229.2259521484375,600.8242797851562
3253,235.3575134277344,-3.54355525970459,225.06344604492188,598.8645629882812
3254,240.5709381103516,-0.7648095488548279,224.45008850097656,603.3486938476562
3255,243.96676635742188,-1.4978299140930176,226.1629638671875,611.7073974609375
3256,237.6949462890625,-5.192851066589356,221.0280914306641,606.7108764648438
3257,230.72003173828125,-7.735982894897461,217.17225646972656,602.0397338867188
3258,230.5816650390625,-8.469003677368164,215.2200164794922,605.3383178710938
3259,243.40203857421875,-1.6773451566696167,214.2177276611328,611.2099609375
3260,232.7582855224609,-9.149664878845217,212.0411071777344,612.7321166992188
3261,222.80267333984372,-9.456336975097656,212.03363037109372,607.241943359375
3262,223.07568359375,0.12154674530029295,219.3002471923828,617.3508911132812
3263,236.9282684326172,-2.548741817474365,222.8980407714844,622.1155395507812
3264,227.2120056152344,-9.445116996765137,215.68002319335938,615.4547729492188
3265,222.653076171875,-18.1815242767334,215.06668090820312,609.7925415039062
3266,229.12684631347656,-4.448610782623291,210.5675811767578,612.3543701171875
3267,237.80714416503903,-2.9937899112701416,216.72720336914062,616.572998046875
3268,232.20851135253903,-7.2011775970458975,215.4855499267578,607.9188842773438
3269,230.6676788330078,-9.243163108825684,211.73069763183597,600.2782592773438
3270,231.07159423828125,-9.389019012451172,208.656494140625,600.2745361328125
3271,240.6270294189453,1.340754151344299,217.987548828125,608.3527221679688
3272,243.7610626220703,-5.757575988769531,217.8267364501953,600.0089721679688
3273,231.49046325683597,-1.0191227197647097,219.4685516357422,589.2680053710938
3274,242.72511291503903,1.1986379623413086,223.2832489013672,599.89306640625
3275,240.7841033935547,0.7236706614494324,224.24066162109372,603.015869140625
3276,230.0206756591797,-7.792081356048584,212.37396240234372,596.5271606445312
3277,214.99002075195312,-6.430757999420166,209.5615539550781,592.8021850585938
3278,230.98556518554688,2.5038630962371826,214.10179138183597,605.0167236328125
3279,228.9099273681641,-4.063401222229004,211.719482421875,605.962890625
3280,231.65875244140625,-9.063647270202637,208.80609130859372,614.1345825195312
3281,221.68443298339844,-7.156298637390138,207.58688354492188,616.4121704101562
3282,221.7180938720703,-3.59217381477356,216.2260589599609,620.8701171875
3283,236.6552581787109,-0.050488650798797614,219.07211303710938,621.6929321289062
3284,228.61073303222656,-2.690858125686645,218.3091735839844,613.0799560546875
3285,224.9269256591797,-3.666971921920776,216.4167938232422,615.4210815429688
3286,227.28306579589844,-10.174397468566896,217.5761566162109,612.1860961914062
3287,231.33338928222656,-6.539215087890625,215.5715789794922,617.077880859375
3288,228.5995178222656,-13.080300331115724,213.55577087402344,614.3851318359375
3289,232.4441375732422,-14.710896492004395,214.68521118164062,613.2220458984375
3290,235.4697113037109,-13.985356330871582,218.97862243652344,611.5166625976562
3291,240.05856323242188,-4.014782428741455,223.60861206054688,613.06494140625
3292,249.0193634033203,-2.952651023864746,223.2832489013672,600.6185913085938
3293,229.34375,-5.133012771606445,219.8014068603516,592.0729370117188
3294,222.76901245117188,1.561408281326294,223.21592712402344,596.2578735351562
3295,233.6296844482422,2.369226694107056,222.3594970703125,596.6842041015625
3296,235.30142211914062,10.4287109375,222.9915313720703,592.476806640625
3297,230.13661193847656,4.960977077484131,223.82553100585938,578.2053833007812
3298,238.427978515625,7.866879463195801,223.55252075195312,591.7288208007812
3299,236.0531311035156,-1.0266025066375732,221.3721618652344,599.5564575195312
3300,232.76202392578125,-1.830681085586548,213.50714111328125,607.2606201171875
3301,222.6979522705078,-5.133012771606445,213.0321807861328,610.2376098632812
3302,230.08799743652344,-2.1036937236785893,215.6613311767578,615.1181640625
3303,226.83053588867188,-4.53088903427124,210.8667755126953,619.1572875976562
3304,222.9971466064453,-10.039761543273926,210.4628753662109,615.3350830078125
3305,216.68418884277344,-11.6404390335083,204.594970703125,617.5154418945312
3306,224.0592803955078,-9.755529403686523,208.7126007080078,621.0047607421875
3307,229.17919921875,-12.882085800170898,207.23907470703125,621.5358276367188
3308,235.0845031738281,-10.544648170471193,209.48675537109372,620.5709228515625
3309,226.49395751953125,-9.602192878723145,211.05751037597656,617.9193725585938
3310,225.90304565429688,-0.4095190465450287,212.63575744628903,616.1129760742188
3311,235.78759765625,-3.8539669513702393,206.9548492431641,611.7373046875
3312,237.1900634765625,0.001869949977844953,218.6270751953125,615.5669555664062
3313,235.89605712890625,-7.7434630393981925,213.3912048339844,602.2828369140625
3314,243.43569946289062,2.5786609649658203,215.3696136474609,598.7337036132812
3315,246.33038330078125,3.891366004943848,216.18865966796875,603.4347534179688
3316,250.26475524902344,0.8358676433563232,222.71104431152344,599.6424560546875
3317,232.28330993652344,3.767949104309082,220.1791229248047,594.0662841796875
3318,227.1596527099609,-1.6249865293502808,222.29965209960938,593.7371826171875
3319,238.427978515625,-4.691704273223877,223.64601135253903,595.80908203125
3320,230.5666961669922,-8.274528503417969,212.8489227294922,589.5559692382812
3321,225.6973571777344,-7.324594020843506,206.98101806640625,593.755859375
3322,224.8670959472656,-6.494336128234862,212.893798828125,602.1444702148438
3323,238.05398559570312,-4.007302761077882,211.74191284179688,612.9078979492188
3324,235.1779937744141,-10.772781372070312,203.80958557128903,607.8814697265625
3325,223.53195190429688,-10.436190605163574,206.21807861328125,614.3926391601562
3326,230.20767211914062,-7.062800884246826,213.3126678466797,616.7786865234375
3327,236.57298278808597,-7.339553833007812,215.85206604003903,626.431396484375
3328,224.57911682128903,-12.998022079467773,215.08538818359372,620.5784301757812
3329,221.7554931640625,-9.549834251403807,209.26235961914062,622.4259643554688
3330,234.53099060058597,-9.849026679992676,214.595458984375,622.0744018554688
3331,233.3417053222656,-5.555621147155762,211.4277648925781,621.9322509765625
3332,225.77215576171875,-8.704617500305176,207.1493225097656,612.6273803710938
3333,221.43386840820312,-6.11660623550415,207.3998870849609,595.2443237304688
3334,237.25738525390625,-1.2435166835784912,215.2200164794922,596.9534912109375
3335,246.726806640625,0.14772604405879974,217.57989501953125,596.6131591796875
3336,237.9717102050781,2.6945979595184326,212.8339691162109,582.9288330078125
3337,223.17291259765625,-1.6773451566696167,207.2615203857422,570.18701171875
3338,242.05941772460938,3.0648479461669917,209.66253662109372,571.6343383789062
3339,242.11924743652344,7.6985840797424325,210.4404296875,576.7318725585938
3340,236.61785888671875,-2.215890645980835,203.3308868408203,587.6785278320312
3341,219.601318359375,-7.160038471221924,207.4672088623047,598.3148193359375
3342,221.94248962402344,-5.364886283874512,202.8147735595703,610.3385620117188
3343,219.5863494873047,-8.035175323486326,205.9338531494141,619.6284790039062
3344,219.2385406494141,-10.727903366088867,204.03024291992188,622.0220336914062
3345,223.8161773681641,-12.298661231994627,208.1553497314453,617.111572265625
3346,229.57188415527344,-5.129272937774658,211.73069763183597,619.5238037109375
3347,236.2588348388672,-3.872666358947754,210.54888916015625,619.3255615234375
3348,228.5359344482422,-10.884979248046877,211.68955993652344,615.013427734375
3349,230.05807495117188,-9.21324348449707,209.54660034179688,609.5008544921875
3350,229.3512420654297,-13.349573135375975,214.8198547363281,616.3074340820312
3351,224.343505859375,-9.299261093139648,207.6317596435547,613.005126953125
3352,229.36245727539062,-2.31686806678772,216.8954925537109,613.9700317382812
3353,225.14010620117188,-7.380692481994629,207.71029663085938,603.6553955078125
3354,223.18040466308597,-1.942878007888794,210.4815673828125,600.70458984375
3355,227.0474548339844,3.820307731628418,220.2427062988281,598.3671875
3356,233.6296844482422,7.765902042388916,212.03363037109372,583.2879028320312
3357,233.42398071289062,2.2570295333862305,208.51063537597656,578.2465209960938
3358,231.77468872070312,1.5464485883712769,206.9099578857422,580.5203857421875
3359,239.96881103515625,0.267402857542038,210.6162109375,586.702392578125
3360,229.33253479003903,-5.230249881744385,204.7146453857422,589.3951416015625
3361,233.69699096679688,-7.029141902923584,209.56903076171875,594.58984375
3362,216.01849365234372,-5.600500106811523,208.12542724609372,602.5595703125
3363,236.97689819335938,2.3617467880249023,212.19070434570312,611.8270874023438
3364,233.68951416015625,-4.048441886901856,208.9893493652344,613.5361938476562
3365,221.8452606201172,-13.686163902282715,203.5290985107422,605.199951171875
3366,229.6392059326172,-3.2929818630218506,213.49966430664062,615.0733032226562
3367,231.9654235839844,5.10309362411499,216.7384185791016,619.3255615234375
3368,224.4781494140625,-3.771689176559448,213.83999633789062,609.7476806640625
3369,218.44569396972656,-2.649718999862671,210.1898498535156,606.32568359375
3370,225.76466369628903,-1.4454712867736816,216.7384185791016,610.282470703125
3371,232.17486572265625,1.194898009300232,214.3037414550781,607.982421875
3372,240.5784149169922,-0.29358214139938354,209.8046417236328,599.0067138671875
3373,241.33387756347656,4.284055233001709,214.8385467529297,591.7737426757812
3374,243.14398193359372,7.006702423095702,213.914794921875,594.9077758789062
3375,248.2676544189453,4.990896701812744,217.25827026367188,594.0438232421875
3376,243.73863220214844,-3.5398154258728027,212.65444946289062,580.5427856445312
3377,230.2114105224609,4.635605812072754,218.75796508789062,583.3514404296875
3378,236.2663116455078,5.7949748039245605,219.07960510253903,585.77490234375
3379,239.0562744140625,8.502662658691406,217.50509643554688,591.1678466796875
3380,236.8946075439453,3.3789997100830083,213.2715301513672,593.344482421875
3381,234.60205078125,4.669265270233153,213.09202575683597,594.42529296875
3382,237.17510986328125,6.513035774230957,215.6538543701172,601.4525756835938
3383,240.97483825683597,3.0760676860809326,218.997314453125,607.2008056640625
3384,229.8187255859375,1.6362062692642212,218.1969757080078,612.2608642578125
3385,225.2410888671875,3.012489318847656,216.6299591064453,612.687255859375
3386,220.80555725097656,5.215290546417236,220.97198486328125,620.3914184570312
3387,224.57911682128903,7.167518138885497,218.9113006591797,622.9196166992188
3388,224.55294799804688,4.6767449378967285,216.4242706298828,621.1319580078125
3389,228.2292633056641,-1.1313197612762451,208.6303253173828,610.3385620117188
3390,236.4645233154297,-4.830080986022949,207.9945373535156,609.0745239257812
3391,247.39251708984372,1.8792997598648071,211.85411071777344,610.2263793945312
3392,241.83128356933597,-3.898845672607422,206.6219940185547,596.0708618164062
3393,231.3857421875,11.101893424987793,214.50196838378903,591.6390991210938
3394,232.2534027099609,20.0589542388916,219.62936401367188,592.74609375
3395,232.56007385253903,20.133750915527344,223.27951049804688,592.4132690429688
3396,226.77818298339844,15.559853553771973,217.34054565429688,584.8212280273438
3397,226.32565307617188,14.666017532348633,212.69558715820312,582.03125
3398,228.85757446289062,10.163178443908693,210.1150665283203,584.1929321289062
3399,239.6434326171875,3.3191611766815186,210.0626983642578,599.3694458007812
3400,237.54161071777344,-7.339553833007812,202.75868225097656,607.1072998046875
3401,241.83876037597656,-7.560207843780518,198.7943878173828,611.0753173828125
3402,236.4907073974609,-8.64103889465332,202.80355834960938,618.9291381835938
3403,224.5679016113281,-5.6304192543029785,207.7589263916016,632.6134033203125
3404,214.765625,-1.3893728256225586,212.6095733642578,637.3444213867188
3405,217.1778564453125,-0.17390534281730652,208.58169555664062,624.5165405273438
3406,215.1770172119141,8.394205093383789,213.37998962402344,621.38623046875
3407,236.5393218994141,-1.5539283752441406,211.45394897460938,631.2296752929688
3408,230.31613159179688,-6.090426921844482,206.77532958984372,620.7803955078125
3409,226.3667907714844,-13.416891098022461,203.82080078125,611.5465698242188
3410,235.8175201416016,-7.874359130859375,213.15185546875,613.6221923828125
3411,241.6854248046875,-8.27078914642334,218.997314453125,610.7275390625
3412,234.32156372070312,-0.4656175374984741,218.21942138671875,599.03662109375
3413,227.9151153564453,9.183324813842773,219.8350524902344,585.8534545898438
3414,228.44992065429688,11.408564567565918,223.0326690673828,590.375
3415,235.71653747558597,7.952897071838379,222.7372283935547,587.7794799804688
3416,240.0959625244141,9.048687934875488,219.25537109375,592.2000732421875
3417,236.6814422607422,-1.3781530857086182,211.38101196289062,592.0504760742188
3418,245.06629943847656,4.538368701934815,219.41058349609372,607.017578125
3419,233.08364868164062,-5.316267967224121,209.10340881347656,606.1873168945312
3420,237.395751953125,-14.363085746765135,208.77056884765625,611.8233032226562
3421,227.0437164306641,-22.22061538696289,206.8145904541016,607.15966796875
3422,225.7497100830078,-17.912250518798828,211.1341857910156,616.6477661132812
3423,222.9522705078125,-12.624032020568848,209.35772705078125,618.8505859375
3424,221.43760681152344,-6.1203460693359375,216.9571990966797,624.3333129882812
3425,212.0392303466797,-7.717283725738525,208.4451904296875,622.2314453125
3426,224.3622131347656,-0.9966833591461182,222.817626953125,629.5018310546875
3427,236.11671447753903,-5.420985221862793,217.66030883789062,633.08837890625
3428,238.5513916015625,-14.295767784118652,207.1399688720703,626.891357421875
3429,238.90293884277344,-10.002362251281738,213.0265655517578,620.1707763671875
3430,240.55596923828125,-6.722470283508301,214.5561981201172,623.263671875
3431,245.4253234863281,-11.932150840759276,216.05963134765625,622.149169921875
3432,247.9086151123047,-11.64417839050293,222.9073944091797,619.2769165039062
3433,228.38633728027344,-8.083793640136719,222.9747009277344,610.046875
3434,240.0473480224609,5.290088653564453,227.9076385498047,610.3497924804688
3435,240.8028106689453,5.5780606269836435,227.0250244140625,602.488525390625
3436,229.0744781494141,13.136398315429688,223.4608917236328,585.9656372070312
3437,217.8173828125,16.909957885742188,221.23565673828125,582.3903198242188
3438,227.0474548339844,19.09405899047852,221.27305603027344,588.4676513671875
3439,236.79737854003903,20.373104095458984,218.42698669433597,600.457763671875
3440,232.20477294921875,1.6848249435424805,213.27340698242188,595.177001953125
3441,228.95480346679688,-8.577460289001465,209.23431396484372,604.1265869140625
3442,234.3028564453125,-10.92985725402832,209.41009521484372,612.2571411132812
3443,233.39031982421875,-9.86772632598877,208.13104248046875,625.7731323242188
3444,224.0106506347656,-9.430157661437988,210.0608367919922,625.4963989257812
3445,216.56077575683597,-15.743108749389648,204.31634521484372,614.343994140625
3446,231.35581970214844,-6.946864128112793,201.3580780029297,615.1593017578125
3447,245.6646728515625,-9.314220428466797,204.94464111328125,614.1832275390625
3448,239.35546875,-10.787741661071776,203.29161071777344,606.7333374023438
3449,226.9838714599609,-11.778815269470215,203.145751953125,597.570556640625
3450,235.4622344970703,1.2883955240249634,209.3016357421875,611.7522583007812
3451,233.0013732910156,3.218183994293213,210.5657196044922,608.4686279296875
3452,226.0376892089844,7.8593997955322275,213.4491729736328,610.0880126953125
3453,227.63836669921875,4.658045291900635,211.5044250488281,603.5132446289062
3454,242.4857635498047,8.614859580993652,220.6185607910156,605.9479370117188
3455,244.37066650390625,6.019369125366211,222.9373016357422,608.4424438476562
3456,245.51882934570312,7.02166223526001,223.5917816162109,601.5460815429688
3457,236.35606384277344,10.552127838134766,223.64041137695312,596.7440185546875
3458,237.41819763183597,14.030234336853027,221.60589599609372,599.612548828125
3459,236.96192932128903,12.395898818969727,221.6283416748047,602.3763427734375
3460,237.5603179931641,9.837806701660156,222.40997314453125,589.5484619140625
3461,226.8267974853516,9.306740760803224,214.27569580078125,590.8649291992188
3462,240.08474731445312,8.147372245788574,215.3079071044922,595.7342529296875
3463,241.54330444335938,5.106833457946777,214.60855102539062,599.777099609375
3464,229.18667602539062,-2.1223931312561035,208.0188446044922,591.3436279296875
3465,228.3377227783203,-2.8928127288818364,212.7460784912109,600.0576171875
3466,228.4573974609375,3.6258330345153813,210.52084350585938,611.0529174804688
3467,229.8897857666016,0.20756444334983826,205.59913635253903,607.5972290039062
3468,225.3420562744141,2.3916659355163574,204.7613983154297,612.0364990234375
3469,215.83897399902344,3.2294034957885738,203.1943817138672,597.5406494140625
3470,229.7813262939453,0.6713120341300964,206.8856506347656,597.6491088867188
3471,245.45150756835938,-0.4394382536411285,201.7245941162109,596.8973999023438
3472,244.2397766113281,-6.872066020965576,201.12994384765625,594.8255004882812
3473,246.0611114501953,-11.752635955810547,200.72604370117188,591.3997192382812
3474,247.55706787109372,2.0176761150360107,209.78033447265625,602.9485473632812
3475,242.6951904296875,2.7955751419067383,214.0625305175781,604.8072509765625
3476,238.8954620361328,9.239422798156738,219.36944580078125,598.1165771484375
3477,238.5850524902344,16.109619140625,223.59927368164062,593.9054565429688
3478,240.7467041015625,14.785694122314453,223.0345458984375,597.570556640625
3479,237.3284454345703,14.939030647277832,220.56246948242188,598.015625
3480,231.1688232421875,14.38178539276123,222.34266662597656,600.6821899414062
3481,225.56271362304688,6.464416980743407,214.3243103027344,598.5242309570312
3482,229.53448486328125,3.5809543132781982,209.14830017089844,605.8058471679688
3483,234.6581573486328,1.48287034034729,209.5110626220703,617.1302490234375
3484,233.4875640869141,-9.14218521118164,210.1019744873047,611.2623291015625
3485,232.33941650390625,-9.46381664276123,209.01739501953125,613.1135864257812
3486,242.71763610839844,-4.171858310699463,213.9615478515625,622.0220336914062
3487,244.4679107666016,-5.282608509063722,209.53350830078125,628.9183959960938
3488,232.6012115478516,-4.788941860198975,205.82351684570312,623.58154296875
3489,216.6729736328125,-5.783755302429199,201.60491943359372,616.4158935546875
3490,225.11392211914062,-2.675898313522339,205.5654754638672,617.0629272460938
3491,234.2766876220703,-0.843347430229187,211.59793090820312,618.37939453125
3492,229.23529052734372,4.9198384284973145,213.55389404296875,609.0109252929688
3493,226.92030334472656,2.836714029312134,210.0084686279297,593.2734375
3494,247.81138610839844,8.850473403930664,209.85513305664062,580.9055786132812
3495,257.2733154296875,1.9914966821670528,211.32492065429688,585.81982421875
3496,241.21420288085938,-3.109726905822754,202.24444580078125,582.2108154296875
3497,238.96278381347656,-1.168718695640564,207.2970428466797,580.258544921875
3498,245.97134399414062,4.661785125732422,208.89398193359372,588.5087890625
3499,239.2320556640625,6.314821243286133,210.6891326904297,601.138427734375
3500,225.9142608642578,4.807641506195068,206.64630126953125,603.4833374023438
3501,223.1168212890625,5.39106559753418,211.1080017089844,604.2911376953125
3502,224.9456329345703,7.780861854553223,220.5736846923828,619.8753051757812
3503,230.7275238037109,14.853013038635256,223.47959899902344,626.0237426757812
3504,221.3702850341797,4.635605812072754,215.3565216064453,620.986083984375
3505,222.817626953125,1.1275798082351685,215.89881896972656,615.31640625
3506,231.3109436035156,-5.559361457824707,210.84620666503903,620.0510864257812
3507,237.3920135498047,-3.5697345733642583,208.37413024902344,621.6293334960938
3508,235.8885803222656,-9.67699146270752,204.39488220214844,621.0421752929688
3509,231.0678558349609,-16.233036041259766,202.7605438232422,606.6136474609375
3510,229.36993408203125,-12.646471977233887,196.76922607421875,604.3995971679688
3511,233.3379669189453,0.1140669509768486,198.3885955810547,607.4513549804688
3512,240.70556640625,-6.221323490142822,201.3356475830078,602.7727661132812
3513,236.0045166015625,-2.5898807048797607,197.3414306640625,591.7288208007812
3514,244.21359252929688,2.5786609649658203,200.46798706054688,590.5844116210938
3515,256.73477172851557,3.027449131011963,204.4996032714844,592.7872314453125
3516,247.9647216796875,-1.2696959972381592,197.87249755859372,587.6598510742188
3517,241.01597595214844,-2.37670636177063,199.14405822753903,582.8203735351562
3518,246.23313903808597,4.310234546661377,205.04188537597656,599.4031372070312
3519,237.37705993652344,6.580353736877441,209.52603149414062,607.241943359375
3520,226.8941192626953,-2.1523125171661377,202.5024871826172,606.067626953125
3521,221.5946807861328,-3.1994843482971187,202.9438018798828,609.9720458984375
3522,222.6343688964844,1.9241784811019895,205.63278198242188,613.8877563476562
3523,226.11622619628903,-1.8755598068237305,209.7017974853516,622.11181640625
3524,224.9792938232422,-1.7446633577346802,208.2469787597656,619.56494140625
3525,217.5668029785156,1.5277491807937622,212.4132232666016,621.6256103515625
3526,222.0135498046875,-0.7423701286315918,219.2647247314453,625.8030395507812
3527,232.2683563232422,1.7409234046936035,212.9442901611328,623.4656372070312
3528,231.13890075683597,-5.507002830505371,213.9652862548828,620.7355346679688
3529,221.87892150878903,-5.499522686004639,207.9814453125,608.8463745117188
3530,229.0744781494141,-4.3513736724853525,203.6169891357422,610.0767822265625
3531,246.0947723388672,0.4917968511581421,201.2271881103516,610.9033203125
3532,236.561767578125,-1.0827010869979858,199.44699096679688,600.5549926757812
3533,244.9167022705078,1.0153828859329224,201.47776794433597,590.8162841796875
