,T7,F8,Cz,P4
2000,136.51756286621094,-119.8263931274414,124.13475799560548,517.4600219726561
2001,122.77717590332031,-122.65750122070312,123.38677978515624,510.7843017578125
2002,113.50970458984376,-129.19857788085938,117.9975814819336,505.4736633300781
2003,129.10134887695312,-126.09446716308594,125.73543548583984,513.2937622070311
2004,141.83570861816406,-121.88333892822266,123.34564208984376,516.1361083984375
2005,137.30668640136722,-131.22186279296878,120.0844497680664,506.24407958984375
2006,128.24490356445312,-134.39704895019528,120.73892974853516,499.45989990234375
2007,132.33636474609378,-128.48800659179688,122.74725341796876,499.8862609863281
2008,138.73533630371094,-121.53553009033205,124.07492065429688,502.9454956054688
2009,124.70696258544922,-130.11485290527344,118.89141845703124,497.6610107421875
2010,119.76468658447266,-126.00657653808594,116.97097778320312,484.6480102539063
2011,129.6866455078125,-113.87808227539062,123.22409057617188,496.27911376953125
2012,140.39772033691406,-114.2296371459961,128.22807312011722,503.1231384277344
2013,134.53729248046878,-121.44390106201172,123.8523941040039,493.2460632324219
2014,128.80027770996094,-129.03590393066406,121.07365417480469,486.7984619140625
2015,135.17308044433594,-130.36355590820312,124.63029479980469,493.201171875
2016,142.72019958496094,-126.65357971191406,125.06038665771484,506.676025390625
2017,125.38949584960938,-127.33798217773438,122.13204193115234,505.8009033203125
2018,112.16520690917969,-126.86675262451172,118.03311157226562,490.76275634765625
2019,119.13638305664062,-127.36416625976562,121.08860778808594,499.4169006347656
2020,128.95736694335938,-123.65044403076172,125.995361328125,516.2015380859375
2021,132.63742065429688,-121.2045440673828,123.27645111083984,509.1817626953125
2022,120.396728515625,-133.18717956542972,117.48334503173828,494.8579406738281
2023,130.71885681152344,-124.5704574584961,119.15882110595705,503.800048828125
2024,138.39312744140622,-116.86626434326172,127.33424377441406,515.5770263671875
2025,130.94699096679688,-118.99427032470705,126.89667510986328,511.1676635742188
2026,113.73223114013672,-121.77301025390624,121.87399291992188,495.63958740234375
2027,122.43871307373048,-118.21636962890624,125.31095886230469,501.07366943359375
2028,140.96243286132812,-111.37235260009766,131.43316650390622,508.4263000488281
2029,137.20758056640622,-119.81704711914062,123.74019622802734,502.8351440429688
2030,131.46308898925778,-124.11418914794922,120.94649505615234,494.6260681152344
2031,138.17994689941406,-120.7557601928711,126.94529724121094,502.7491455078125
2032,141.5907440185547,-113.72100830078124,130.98065185546878,514.2642822265625
2033,136.160400390625,-114.7345199584961,126.22349548339844,497.95458984375
2034,120.28079223632812,-123.27645111083984,123.60930633544922,486.58154296875
2035,132.81694030761722,-119.68614959716795,122.86506652832031,489.2144470214844
2036,146.82659912109375,-110.1568832397461,124.68639373779295,500.6585388183594
2037,130.28501892089844,-115.1982650756836,118.90451049804688,500.3369140625
2038,121.29056549072266,-118.64645385742188,120.38551330566406,497.0458068847656
2039,130.98065185546878,-116.14820098876952,125.60640716552734,508.9798278808594
2040,139.563720703125,-117.87603759765624,125.81958770751952,522.3798828125
2041,126.39179229736328,-130.74128723144528,117.43473052978516,504.8846130371094
2042,120.00778198242188,-128.35150146484378,115.1758270263672,504.151611328125
2043,131.51171875,-125.52039337158205,121.20829010009766,509.739013671875
2044,138.99151611328122,-115.24688720703124,122.9249038696289,514.316650390625
2045,130.67022705078122,-121.9674835205078,121.76553344726562,502.7566223144531
2046,128.14205932617188,-124.26378631591795,122.14700317382812,500.0713806152344
2047,129.80632019042972,-123.44474792480469,123.3662109375,500.1349487304688
2048,135.73405456542972,-110.4336395263672,125.88690185546876,509.3687744140625
2049,134.76542663574222,-113.52653503417969,127.52497863769531,506.99017333984375
2050,118.84467315673828,-126.33194732666016,128.41880798339844,495.7031555175781
2051,121.26438903808594,-129.06207275390622,120.9764175415039,492.9692993164063
2052,135.82382202148438,-112.95433044433594,130.96942138671878,498.2687377929688
2053,135.55455017089844,-117.29261016845705,124.40589904785156,492.0455627441406
2054,127.85782623291016,-125.50169372558594,121.32796478271484,474.0117492675781
2055,126.86675262451172,-122.40879821777344,119.40565490722656,478.5819091796875
2056,134.54850769042972,-120.49022674560548,123.17547607421876,497.6553955078125
2057,121.1783676147461,-120.32941436767578,121.01007080078124,494.8429870605469
2058,118.0443344116211,-121.47382354736328,119.94419860839844,494.1211853027344
2059,126.49276733398438,-116.93732452392578,119.9965591430664,507.1435241699219
2060,130.83479309082028,-114.26703643798828,121.13349151611328,510.1279602050781
2061,118.8484115600586,-116.24543762207031,121.8590316772461,504.3797302246094
2062,113.51905059814452,-124.974365234375,118.01067352294922,501.5448913574219
2063,123.43352508544922,-126.26837158203124,122.41627502441406,508.7516784667969
2064,133.4901123046875,-115.3590850830078,127.51375579833984,515.6181640625
2065,124.65647888183594,-115.53485870361328,129.65298461914062,507.0201110839844
2066,119.08028411865234,-116.91114044189452,121.30178833007812,493.5041198730469
2067,129.40614318847656,-112.00439453125,129.66419982910156,499.1064758300781
2068,140.43511962890622,-112.7860336303711,123.33255004882812,502.3564453125
2069,131.6239013671875,-113.94914245605469,132.13627624511722,503.05206298828125
2070,123.46344757080078,-120.4977035522461,123.35872650146484,489.50616455078125
2071,129.67915344238278,-118.67637634277344,123.67288208007812,491.70147705078125
2072,138.15377807617188,-112.74115753173828,122.943603515625,493.0440979003906
2073,129.35005187988278,-110.70664978027344,119.3121566772461,474.7485046386719
2074,118.0069351196289,-120.47900390625,113.24230194091795,467.7960510253906
2075,127.97377014160156,-111.71268463134766,113.70230865478516,477.7740783691406
2076,137.69377136230472,-107.94286346435548,118.62027740478516,494.6784362792969
2077,125.05664825439452,-122.05350494384766,115.21322631835938,480.83331298828125
2078,120.20599365234376,-120.04891967773438,113.33580017089844,482.6097717285156
2079,123.35872650146484,-109.76419067382812,122.3863525390625,492.68505859375
2080,129.09573364257812,-107.81944274902344,124.43582153320312,511.72491455078125
2081,121.82910919189452,-116.2641372680664,123.4036102294922,505.4530944824219
2082,113.4853973388672,-120.20973205566406,116.03600311279295,495.8826904296875
2083,113.71726989746094,-125.04916381835938,117.2028579711914,498.706298828125
2084,131.36212158203122,-114.6746826171875,126.36186981201172,509.0059814453125
2085,124.63777923583984,-116.66805267333984,123.83744049072266,499.3346252441406
2086,121.06243133544922,-117.685302734375,124.71631622314452,486.52545166015625
2087,133.4078369140625,-117.29634857177734,129.13313293457028,486.7199401855469
2088,140.068603515625,-114.88785552978516,131.38081359863278,497.6628723144531
2089,134.49241638183594,-116.70919036865234,132.62994384765622,486.3982849121094
2090,122.44245147705078,-120.88665771484376,120.99137115478516,475.1449279785156
2091,127.71197509765624,-117.2028579711914,126.1412124633789,482.108642578125
2092,137.40205383300778,-111.09185791015624,124.74996948242188,488.0588073730469
2093,128.6656494140625,-117.4870834350586,119.55525207519531,481.4092712402344
2094,115.396484375,-134.39517211914062,115.05241394042969,481.4504089355469
2095,124.29370880126952,-122.67433166503906,120.70713806152344,490.231689453125
2096,133.55743408203122,-114.40914916992188,123.69905853271484,500.5912170410156
2097,131.72862243652344,-113.91921997070312,126.26837158203124,502.9249267578125
2098,126.63488006591795,-126.1150360107422,118.5529556274414,491.8361206054688
2099,140.56974792480472,-118.11913299560548,123.8075180053711,506.3693542480469
2100,137.24871826171878,-114.40167236328124,124.69387817382812,510.6066589355469
2101,131.07040405273438,-127.56985473632812,117.15797424316406,496.6156921386719
2102,122.41253662109376,-133.03384399414062,115.2768096923828,491.18536376953125
2103,128.30287170410156,-119.07654571533205,117.7040023803711,497.9471130371094
2104,135.5732421875,-117.68156433105469,118.95687103271484,504.7163391113281
2105,123.61678314208984,-122.44245147705078,114.22215270996094,495.8901672363281
2106,120.92031860351562,-130.6964111328125,112.99546813964844,490.8712158203125
2107,137.60400390625,-119.60761260986328,123.15677642822266,500.0190124511719
2108,144.1263885498047,-113.87434387207031,124.24134826660156,497.4384765625
2109,131.48553466796878,-124.06182861328124,116.79520416259766,483.5111083984375
2110,122.37139892578124,-134.73176574707028,113.447998046875,472.4148254394531
2111,125.7373046875,-125.13518524169922,113.8481674194336,483.44378662109375
2112,131.57154846191406,-115.2955093383789,115.42639923095705,492.35595703125
2113,123.4671859741211,-125.3745346069336,109.6557388305664,486.37213134765625
2114,110.8412857055664,-133.800537109375,110.76648712158205,489.3640441894531
2115,121.12600708007812,-123.93841552734376,113.9154815673828,499.9329833984375
2116,130.48698425292972,-117.81620025634766,118.21263122558594,511.1414794921875
2117,122.99221801757812,-123.4073486328125,110.8599853515625,501.6196899414063
2118,117.50578308105469,-132.83563232421878,111.09185791015624,492.08294677734375
2119,130.75625610351562,-121.44763946533205,117.6479034423828,508.0074462890625
2120,139.1298828125,-112.10163116455078,126.41049194335938,514.9000854492189
2121,131.26113891601562,-122.16570281982422,123.0483169555664,511.2050476074219
2122,120.36306762695312,-133.31808471679688,113.21986389160156,496.9074096679688
2123,128.33653259277344,-138.29214477539062,122.08342742919922,504.5106201171875
2124,133.65467834472656,-123.8486557006836,126.19357299804688,516.369873046875
2125,124.75745391845705,-128.01864624023438,127.49505615234376,510.255126953125
2126,119.74224853515624,-137.29733276367188,117.20659637451172,494.3081970214844
2127,130.92454528808594,-128.29165649414062,121.41024017333984,498.4781799316406
2128,137.91067504882812,-123.56068420410156,118.88581085205078,507.1584777832031
2129,132.38310241699222,-125.2922592163086,119.11394500732422,491.7875061035156
2130,112.41952514648438,-133.31060791015622,107.41927337646484,475.8106384277344
2131,123.48214721679688,-120.93153381347656,113.92296600341795,482.0899353027344
2132,141.48602294921875,-120.056396484375,122.943603515625,495.4114685058594
2133,119.97038269042969,-126.47032928466795,117.75636291503906,494.0875244140625
2134,116.6269073486328,-126.57130432128906,115.15338897705078,493.54150390625
2135,112.5279769897461,-123.35498809814452,114.52134704589844,500.0489196777344
2136,130.57673645019528,-115.00005340576172,124.39842224121094,515.6854248046875
2137,123.23531341552734,-118.37718200683594,118.94938659667969,507.6745910644531
2138,121.66455841064452,-122.80148315429688,115.00379180908205,496.88873291015625
2139,130.39347839355472,-125.13892364501952,120.60242462158205,507.5399475097656
2140,140.67446899414062,-122.23676300048828,126.0402374267578,515.5994262695311
2141,121.31674194335938,-124.7911148071289,115.80786895751952,504.5929260253906
2142,122.51351165771484,-123.80004119873048,117.81246185302734,494.9664001464844
2143,125.6774673461914,-121.36910247802734,120.38925170898438,508.0523071289063
2144,143.98802185058594,-116.33519744873048,123.3288116455078,508.86761474609375
2145,131.32472229003906,-119.41687774658205,124.77989196777344,500.5126953125
2146,116.87000274658205,-133.64720153808594,116.8774871826172,487.63995361328125
2147,121.7206573486328,-127.26318359375,122.88002014160156,492.8384094238281
2148,140.81283569335938,-111.44715118408205,128.43377685546878,499.97412109375
2149,136.61666870117188,-112.8309097290039,130.80487060546878,497.8087463378906
2150,118.11164855957031,-126.00283813476562,118.75491333007812,480.8669738769531
2151,131.94927978515622,-126.7770004272461,122.42375183105469,486.345947265625
2152,138.4080810546875,-122.49107360839844,118.99427032470705,497.0308227539063
2153,126.06641387939452,-123.31758880615234,115.04867553710938,496.0771484375
2154,117.49082946777344,-128.11213684082028,114.09500122070312,493.77337646484375
2155,122.08716583251952,-120.4378662109375,115.1608657836914,506.2983093261719
2156,132.03155517578122,-122.95855712890624,116.32023620605469,504.4021911621094
2157,126.41049194335938,-126.55260467529295,114.98135375976562,500.9577331542969
2158,114.6522445678711,-133.27320861816406,108.12611389160156,493.21612548828125
2159,128.26173400878906,-125.92803955078124,113.12262725830078,502.0909118652344
2160,132.3157958984375,-121.9450454711914,118.8297119140625,507.2407531738281
2161,125.6924285888672,-120.85299682617188,124.22638702392578,506.4104919433594
2162,117.55814361572266,-129.01345825195312,114.08377838134766,492.3222961425781
2163,126.0327606201172,-122.26667785644531,118.7511749267578,500.7782287597656
2164,134.26802062988278,-109.64825439453124,121.1222686767578,508.9274597167969
2165,127.10984802246094,-116.08836364746094,120.80437469482422,494.4203796386719
2166,123.283935546875,-123.86735534667969,115.02997589111328,481.3157653808594
2167,129.64176940917972,-119.6524887084961,121.45137786865234,486.5628662109375
2168,143.81597900390625,-106.45064544677734,122.77156829833984,500.84552001953125
2169,124.86216735839844,-111.80618286132812,119.58517456054688,490.4860229492188
2170,115.68071746826172,-119.37947845458984,113.5078353881836,482.9052429199219
2171,126.97521209716795,-113.33206176757812,118.38092041015624,489.3266296386719
2172,140.068603515625,-116.80642700195312,123.82247924804688,509.1256713867188
2173,131.25740051269528,-131.65756225585938,120.13867950439452,503.3475341796875
2174,121.06990814208984,-135.87617492675778,119.3308563232422,503.8636169433594
2175,116.6269073486328,-120.44908905029295,115.30672454833984,507.9139404296875
2176,124.03191375732422,-108.4926300048828,118.38092041015624,509.09576416015625
2177,124.43582153320312,-110.8001480102539,120.28453063964844,509.739013671875
2178,110.1793212890625,-126.59374237060548,110.8786849975586,490.0933227539063
2179,113.85938262939452,-117.60302734375,109.78663635253906,495.9836730957031
2180,133.89402770996094,-106.828369140625,119.08402252197266,507.2931213378906
2181,119.98534393310548,-109.98484802246094,116.73536682128906,499.0092468261719
2182,109.43134307861328,-125.6138916015625,108.70206451416016,487.0452880859375
2183,122.54717254638672,-116.3015365600586,111.2825927734375,490.5645446777344
2184,137.6451416015625,-108.78060150146484,119.73102569580078,501.5523681640625
2185,121.33170318603516,-117.90221405029295,110.7964096069336,494.10247802734375
2186,110.64307403564452,-119.3158950805664,117.7264404296875,490.3663330078125
2187,113.59758758544922,-123.86735534667969,109.82777404785156,490.1793518066406
2188,122.47611236572266,-109.16954803466795,118.96434783935548,501.264404296875
2189,118.81848907470705,-115.68819427490234,115.34412384033205,491.1741638183594
2190,109.74175262451172,-119.91802215576172,102.9538345336914,484.4198913574219
2191,116.15193939208984,-119.36825561523438,109.1171875,490.32891845703125
2192,129.73152160644528,-111.51072692871094,116.09210205078124,505.2137451171875
2193,131.17138671875,-117.0420379638672,119.2523193359375,502.4275207519531
2194,113.11514282226562,-128.97605895996094,105.37355041503906,493.22735595703125
2195,125.995361328125,-122.56961059570312,114.15857696533205,504.3797302246094
2196,141.78147888183594,-119.3121566772461,122.55091094970705,513.6509399414061
2197,137.87701416015622,-116.10706329345705,126.72463989257812,512.3382568359375
2198,123.63174438476562,-116.9410629272461,119.44679260253906,507.0874328613281
2199,130.55804443359378,-115.63957977294922,119.5889129638672,506.4890441894531
2200,139.96388244628906,-114.45028686523438,124.70509338378906,516.6840209960939
2201,128.15327453613278,-122.10586547851562,118.9905242919922,503.3325805664063
2202,122.57708740234376,-123.29141235351562,119.2523193359375,496.0135803222656
2203,122.65937042236328,-121.00633239746094,121.9637451171875,499.54779052734375
2204,133.33303833007812,-115.5011978149414,127.16968536376952,509.234130859375
2205,123.85987854003906,-115.42266082763672,129.211669921875,495.0075378417969
2206,116.52967071533205,-118.29116821289062,119.43557739257812,480.9342956542969
2207,137.63018798828122,-125.49795532226562,122.86506652832031,489.7193298339844
2208,138.91671752929688,-119.42061614990234,121.69447326660156,499.057861328125
2209,127.40530395507812,-119.34955596923828,114.633544921875,492.0455627441406
2210,123.87109375,-124.58168029785156,117.344970703125,488.6048278808594
2211,129.99143981933594,-119.82078552246094,117.60115051269531,499.0391540527344
2212,128.50296020507812,-119.52532958984376,119.91615295410156,497.6105041503906
2213,122.24610900878906,-119.90679931640624,118.83905792236328,500.1274719238281
2214,114.0594711303711,-123.8486557006836,116.31462860107422,490.736572265625
2215,117.07756805419922,-117.3262710571289,119.2803726196289,503.3512573242188
2216,124.3404541015625,-114.42411041259766,114.67281341552734,511.87451171875
2217,113.56954193115234,-119.01670837402344,112.5597686767578,508.4113464355469
2218,117.48147583007812,-124.34606170654295,119.58704376220705,504.9781188964844
2219,125.11087036132812,-117.12057495117188,121.44577026367188,509.058349609375
2220,134.74485778808594,-115.138427734375,123.37181854248048,514.118408203125
2221,131.48365783691406,-115.89015197753906,122.99034881591795,506.4591369628906
2222,122.33960723876952,-123.89727783203124,119.24297332763672,491.1068420410156
2223,132.49343872070312,-121.08113098144531,116.95415496826172,498.3472900390625
2224,134.96925354003906,-121.30178833007812,124.56484985351562,504.9369812011719
2225,129.36688232421878,-120.2770538330078,118.62214660644531,500.3294372558594
2226,125.1669692993164,-126.79196166992188,116.91675567626952,493.3432922363281
2227,124.87152099609376,-121.7991943359375,123.2147445678711,497.9471130371094
2228,136.43528747558594,-123.9084930419922,127.6502685546875,511.0031127929688
2229,129.75956726074222,-125.78592681884766,128.454345703125,505.853271484375
2230,104.05897521972656,-119.83574676513672,113.4049835205078,489.2668151855469
2231,111.72950744628906,-114.2558135986328,115.93689727783205,494.973876953125
2232,131.96611022949222,-107.5464324951172,119.35516357421876,508.9798278808594
2233,123.6410903930664,-117.53570556640624,113.3002700805664,498.2051696777344
2234,117.67221069335938,-120.86421966552734,113.0384750366211,495.07861328125
2235,127.54554748535156,-120.63982391357422,116.0303955078125,502.966064453125
2236,138.39874267578122,-116.6194305419922,120.2490005493164,509.6343078613281
2237,130.22705078125,-126.07763671875,115.97429656982422,502.1245727539063
2238,115.03184509277344,-132.76832580566406,110.29712677001952,498.6988220214844
2239,117.64603424072266,-121.84407043457031,109.5080108642578,502.1694641113281
2240,133.88841247558594,-112.50553894042969,119.72915649414062,511.38458251953125
2241,118.41645050048828,-116.42121887207031,114.9233856201172,496.4511413574219
2242,111.54999542236328,-120.4341278076172,117.32440185546876,494.1361389160156
2243,124.65460205078124,-121.25690460205078,119.03353881835938,497.04205322265625
2244,131.64073181152344,-107.39683532714844,128.03547668457028,500.924072265625
2245,124.98371887207031,-114.92151641845705,123.14742279052734,485.829833984375
2246,113.62564086914062,-121.51122283935548,109.79224395751952,480.92681884765625
2247,126.80878448486328,-113.24230194091795,120.17046356201172,492.0006713867188
2248,125.3427505493164,-112.55416107177734,119.19435119628906,496.8587951660156
2249,124.20581817626952,-116.323974609375,112.9001007080078,488.8628845214844
2250,125.73169708251952,-115.44509887695312,112.54854583740234,491.1068420410156
2251,120.38363647460938,-118.4071044921875,112.81407928466795,492.7149963378906
2252,132.28773498535156,-103.7317352294922,126.05332946777344,510.52813720703125
2253,130.57485961914062,-117.43473052978516,119.04475402832031,506.44415283203125
2254,120.9708023071289,-121.61219787597656,119.04475402832031,496.0659484863281
2255,125.40632629394531,-110.00354766845705,123.05392456054688,501.57855224609375
2256,131.17698669433594,-107.49407196044922,126.19544219970705,506.0103454589844
2257,134.34841918945312,-117.62920379638672,127.27627563476562,501.3653869628906
2258,129.32574462890622,-131.077880859375,119.56834411621094,488.7132873535156
2259,128.58897399902344,-120.86421966552734,118.70442199707031,497.28515625
2260,137.0523681640625,-118.38092041015624,122.8968505859375,506.3170166015625
2261,131.08723449707028,-121.86650848388672,122.64627838134766,503.09320068359375
2262,121.29617309570312,-124.39468383789062,116.83073425292969,491.7351379394531
2263,124.89022064208984,-121.14845275878906,119.73289489746094,503.10443115234375
2264,136.62228393554688,-110.23168182373048,125.48112487792969,507.3641662597656
2265,129.92411804199222,-118.23880767822266,120.15176391601562,499.23736572265625
2266,122.85197448730469,-114.9327392578125,119.38508605957031,485.6615295410156
2267,124.07492065429688,-111.82862091064452,115.89202117919922,490.1681213378906
2268,122.26107025146484,-110.15314483642578,121.22137451171876,500.9465026855469
2269,117.50765991210938,-113.4105987548828,119.7852554321289,491.6678161621094
2270,116.3108901977539,-122.95855712890624,116.24730682373048,487.1687316894531
2271,126.21414184570312,-114.94021606445312,124.17215728759766,495.9836730957031
2272,129.40054321289062,-108.45149230957031,119.96851348876952,501.9151306152344
2273,125.87755584716795,-112.41204071044922,120.73145294189452,492.77484130859375
2274,114.87850952148438,-122.4835968017578,113.75653839111328,488.8741149902344
2275,130.48136901855472,-126.09259796142578,121.33731079101562,500.3331604003906
2276,136.39041137695312,-116.91862487792969,124.2768783569336,505.0416870117188
2277,120.9521026611328,-118.15653228759766,120.6080322265625,495.2282104492188
2278,122.70985412597656,-114.2483367919922,123.2409210205078,494.6672058105469
2279,131.26675415039062,-110.220458984375,124.43021392822266,495.9873962402344
2280,134.22500610351562,-107.49781799316406,128.87321472167972,502.4985656738281
2281,128.10279846191406,-113.15628051757812,125.15201568603516,494.9140625
2282,113.35263061523438,-122.75660705566406,122.7734375,486.7311401367188
2283,126.47219848632812,-111.10681915283205,129.28834533691406,497.8872680664063
2284,138.97468566894528,-109.00125122070312,129.65110778808594,508.0822448730469
2285,134.36338806152344,-119.34955596923828,131.22561645507812,500.68096923828125
2286,122.5340805053711,-127.26318359375,121.93943786621094,487.8793029785156
2287,135.60128784179688,-126.58252716064452,128.454345703125,493.3171081542969
2288,140.59405517578122,-119.37574005126952,125.31656646728516,506.27960205078125
2289,121.4308090209961,-121.79170989990234,122.92303466796876,498.6689147949219
2290,117.71709442138672,-126.32820892333984,118.18831634521484,493.810791015625
2291,118.40523529052734,-122.85384368896484,116.3707275390625,501.8739929199219
2292,130.87405395507812,-109.6146011352539,121.19893646240234,512.6823120117189
2293,116.09771728515624,-120.51266479492188,114.3437042236328,497.7862854003906
2294,110.43550872802734,-119.77964782714844,108.35237884521484,486.5703430175781
2295,123.1773452758789,-116.29405975341795,114.7850112915039,502.2367858886719
2296,130.73194885253906,-114.68590545654295,123.9365463256836,508.48614501953125
2297,132.5570068359375,-119.00922393798828,118.9961395263672,500.0975646972656
2298,120.01712799072266,-124.02442932128906,110.22607421875,481.56634521484375
2299,125.3614501953125,-119.41687774658205,115.11412048339844,489.9624328613281
2300,138.795166015625,-102.7107391357422,123.62987518310548,498.728759765625
2301,127.3735122680664,-117.09813690185548,123.74954986572266,485.5082092285156
2302,113.01603698730469,-120.56502532958984,115.81722259521484,477.508544921875
2303,129.60623168945312,-111.3424301147461,123.25214385986328,494.5812072753906
2304,131.78659057617188,-112.83464813232422,125.69055938720705,504.7350158691406
2305,124.77428436279295,-117.76383972167969,125.45868682861328,491.8697814941406
2306,116.37820434570312,-127.14724731445312,113.55458068847656,480.4032287597656
2307,128.28604125976562,-124.31614685058594,114.62793731689452,490.055908203125
2308,130.06623840332028,-116.35015869140624,123.55133819580078,505.64007568359375
2309,121.29991149902344,-128.70304870605472,115.46192932128906,497.6067810058594
2310,114.88972473144531,-133.965087890625,118.02750396728516,493.305908203125
2311,127.1528549194336,-121.74309539794922,115.27867889404295,506.3656311035156
2312,138.12947082519528,-115.9238052368164,124.16468048095705,512.4429321289061
2313,127.44831085205078,-119.1476058959961,120.15550231933594,507.0649719238281
2314,116.13885498046876,-126.5413818359375,116.0266571044922,494.996337890625
2315,129.44168090820312,-122.97351837158205,121.31861114501952,506.0626831054688
2316,135.15625,-113.05530548095705,124.95005798339844,511.72491455078125
2317,120.15924835205078,-124.69761657714844,120.05078887939452,499.9853515625
2318,109.68004608154295,-132.48408508300778,117.00650787353516,494.8804016113281
2319,124.55736541748048,-126.68350219726562,118.52864837646484,501.4925231933594
2320,133.75004577636722,-120.28453063964844,123.91036224365234,501.5710754394531
2321,126.27772521972656,-125.09030151367188,118.27059936523438,491.3573913574219
2322,115.87705993652344,-133.789306640625,112.84774017333984,483.8738708496094
2323,131.56219482421878,-118.51930236816406,117.73953247070312,494.6522521972656
2324,134.81591796875,-118.64271545410156,121.59910583496094,496.8962097167969
2325,123.73458862304688,-121.90764617919922,113.94727325439452,488.9713439941406
2326,114.96078491210938,-130.43087768554688,108.56555938720705,483.0548400878906
2327,124.75558471679688,-129.21540832519528,115.2637176513672,492.097900390625
2328,133.3311767578125,-114.28947448730469,125.37640380859376,509.92974853515625
2329,128.40946960449222,-120.8417739868164,119.49354553222656,498.73248291015625
2330,104.96028900146484,-130.82731628417972,116.54276275634766,486.0841369628906
2331,116.04161834716795,-118.33230590820312,120.85112762451172,497.3749084472656
2332,121.47943115234376,-113.80702209472656,121.59162902832031,507.3155517578125
2333,118.00506591796876,-123.33628845214844,116.92423248291016,501.8515625
2334,112.12593841552734,-125.04916381835938,115.35347747802734,493.025390625
2335,121.50186920166016,-124.16281127929688,123.87296295166016,497.0495300292969
2336,137.36279296875,-118.025634765625,126.40861511230469,509.058349609375
2337,133.71638488769528,-120.7146224975586,125.5297393798828,508.1383361816406
2338,118.19953918457031,-131.02926635742188,113.72661590576172,489.4537963867188
2339,129.69598388671878,-124.78736877441406,115.19265747070312,499.5178527832031
2340,131.81277465820312,-114.70834350585938,125.95235443115234,505.5466003417969
2341,123.76451110839844,-118.01067352294922,119.31402587890624,499.20745849609375
2342,116.13885498046876,-124.1927261352539,117.07756805419922,493.3507690429688
2343,122.56774139404295,-124.43955993652344,119.60948181152344,496.9298706054688
2344,133.32743835449222,-120.3518524169922,125.3614501953125,501.2980651855469
2345,125.226806640625,-124.89582824707031,118.21075439453124,489.4051818847656
2346,117.9826202392578,-132.92166137695312,112.98611450195312,483.25677490234375
2347,128.74606323242188,-129.16305541992188,117.01024627685548,493.77337646484375
2348,134.90940856933594,-121.79544830322266,121.23259735107422,503.2540283203125
2349,125.5484390258789,-127.94010925292969,114.25020599365234,502.55841064453125
2350,123.06888580322266,-134.59712219238278,113.03473663330078,498.98681640625
2351,125.33152770996094,-129.58566284179688,113.19181060791016,504.7611999511719
2352,132.78889465332028,-123.94215393066406,114.91590881347656,514.57470703125
2353,129.06021118164062,-130.98812866210938,116.78211975097656,502.2517395019531
2354,116.23235321044922,-132.18862915039062,109.57907104492188,485.2613830566406
2355,124.8228988647461,-122.3676528930664,111.3929214477539,494.6223449707031
2356,132.82254028320312,-118.8297119140625,119.45240783691406,495.2132568359375
2357,131.17698669433594,-119.62256622314452,116.34455108642578,495.6994323730469
2358,119.63939666748048,-132.80946350097656,113.49848175048828,494.5325927734375
2359,129.21728515625,-127.685791015625,114.32874298095705,504.89208984375
2360,146.60781860351562,-130.53559875488278,120.98202514648438,513.8903198242189
2361,130.5374755859375,-133.33303833007812,116.99903106689452,502.0797119140625
2362,120.94088745117188,-129.91104125976562,114.81867218017578,487.8531188964844
2363,132.64303588867188,-123.25775146484376,121.10169982910156,501.4476623535156
2364,141.166259765625,-118.2088851928711,127.23887634277344,506.0552062988281
2365,128.55157470703122,-118.5679168701172,121.33357238769531,492.943115234375
2366,125.74665832519531,-125.15762329101562,117.17106628417969,487.6025390625
2367,135.71348571777344,-125.87194061279295,124.27313232421876,499.7759094238281
2368,140.64642333984378,-117.69277954101562,124.16094207763672,509.6941223144531
2369,131.09471130371094,-122.11334228515624,123.45783996582031,509.7315368652344
2370,122.19749450683594,-133.10116577148438,117.2122039794922,508.6282653808594
2371,124.9425811767578,-133.16848754882812,119.99095153808594,510.89837646484375
2372,122.14513397216795,-129.552001953125,118.89141845703124,514.7205810546875
2373,120.98202514648438,-134.00248718261722,117.33187866210938,507.88775634765625
2374,110.82445526123048,-136.31748962402344,117.52635955810548,505.2922668457031
2375,122.66123962402344,-124.68639373779295,123.1736068725586,511.2125244140625
2376,130.28689575195312,-115.16461181640624,126.25154113769531,518.8531494140625
2377,119.7628173828125,-125.96917724609376,120.06201171875,505.4792785644531
2378,116.10519409179688,-130.84226989746094,116.06031799316406,497.01214599609375
2379,130.14851379394528,-122.34521484375,116.65869903564452,509.4360961914063
2380,130.29437255859378,-116.55585479736328,124.39281463623048,513.8453979492189
2381,127.95319366455078,-126.18983459472656,122.25733184814452,497.1280822753906
2382,121.05308532714844,-128.37767028808594,116.41560363769531,491.87725830078125
2383,122.71733856201172,-127.79798889160156,116.46048736572266,495.3291931152344
2384,124.20207977294922,-120.1947784423828,121.87960052490234,503.96087646484375
2385,123.35685729980469,-121.06616973876952,123.59247589111328,499.7198181152344
2386,108.58425903320312,-131.54536437988278,112.10723876953124,480.9417724609375
2387,120.36493682861328,-127.45391845703124,113.3376693725586,493.4554748535156
2388,134.64387512207028,-114.88037872314452,122.12643432617188,510.5767517089844
2389,129.45663452148438,-128.190673828125,121.43829345703124,504.8472290039063
2390,118.6371078491211,-133.32182312011722,116.0116958618164,500.0713806152344
2391,129.75956726074222,-126.78447723388672,117.26830291748048,514.9150390625
2392,136.07252502441406,-121.8852081298828,117.35806274414062,518.6661376953125
2393,125.5484390258789,-130.232666015625,112.46253204345705,508.0036926269531
2394,123.05018615722656,-137.28985595703122,113.30774688720705,496.20806884765625
2395,130.44023132324222,-128.91621398925778,114.70647430419922,501.69073486328125
2396,132.84498596191406,-117.9844970703125,116.95040893554688,507.1435241699219
2397,130.03257751464844,-124.0655746459961,114.22028350830078,501.06243896484375
2398,118.85028076171876,-133.88655090332028,114.66159057617188,494.3081970214844
2399,132.50465393066406,-138.74093627929688,120.9296646118164,505.4418640136719
2400,142.4827117919922,-121.9600067138672,123.1362075805664,501.4626159667969
2401,132.23912048339844,-134.08102416992188,118.58848571777344,499.6225891113281
2402,131.8052978515625,-133.624755859375,115.35347747802734,494.2857360839844
2403,131.76416015625,-128.65069580078122,120.37242126464844,491.9670104980469
2404,143.60093688964844,-120.52014923095705,126.07202911376952,498.0929565429688
2405,132.45977783203122,-124.1104507446289,119.9460678100586,491.8697814941406
2406,117.39171600341795,-136.78123474121094,119.24671173095705,481.5289611816406
2407,127.71758270263672,-124.18151092529295,121.41959381103516,492.015625
2408,131.60333251953122,-116.25292205810548,120.43599700927734,499.3682861328125
2409,122.28724670410156,-123.5083236694336,122.44058227539062,498.9381713867188
2410,109.3247528076172,-131.26861572265622,113.0571746826172,491.85107421875
2411,115.43949127197266,-129.46598815917972,114.61297607421876,495.7330932617188
2412,135.33763122558594,-117.54879760742188,123.34190368652344,510.9170837402344
2413,124.79859161376952,-130.96382141113278,110.59258270263672,502.3302612304688
2414,118.24628448486328,-138.48475646972656,113.93231201171876,498.97930908203125
2415,129.95965576171878,-132.59066772460938,117.40293884277344,505.9168395996094
2416,142.16294860839844,-127.13790130615234,123.84304809570312,507.97003173828125
2417,126.29080963134766,-137.34034729003906,122.3957061767578,498.5679321289063
2418,123.80004119873048,-131.14706420898438,119.00735473632812,498.8446960449219
2419,128.871337890625,-125.91495513916016,121.24007415771484,500.18731689453125
2420,136.20155334472656,-121.5691909790039,122.10025024414062,499.7983703613281
2421,120.84552001953124,-130.37290954589844,115.23379516601562,491.4957885742188
2422,116.33519744873048,-134.56533813476562,114.9495620727539,485.3922729492188
2423,131.10780334472656,-124.8266372680664,118.782958984375,496.69049072265625
2424,141.7291259765625,-119.56085968017578,121.0493392944336,500.5089416503906
2425,136.05195617675778,-130.50381469726562,120.09192657470705,495.2207336425781
2426,125.87567901611328,-133.48825073242188,113.12823486328124,485.8111267089844
2427,118.7661361694336,-130.24201965332028,112.92627716064452,488.3729553222656
2428,139.13362121582028,-124.79298400878906,112.03244018554688,500.44537353515625
2429,126.99391174316406,-129.82315063476562,118.00506591796876,499.2972106933594
2430,117.01586151123048,-134.07167053222656,116.67739868164062,500.09381103515625
2431,124.4320831298828,-127.69514465332031,119.1606903076172,500.8791809082031
2432,133.64720153808594,-121.78236389160156,120.47713470458984,515.9884033203125
2433,127.25944519042969,-132.27651977539062,119.0597152709961,508.2056579589844
2434,118.17523193359376,-138.08084106445312,108.81613159179688,497.7376708984375
2435,125.87942504882812,-125.53348541259766,117.54131317138672,505.7896728515625
2436,136.02577209472656,-127.85221862792969,119.4000473022461,516.0220336914061
2437,122.57334899902344,-133.54434204101562,116.19121551513672,497.202880859375
2438,120.11997985839844,-127.0518798828125,120.82868957519531,490.6954345703125
2439,130.73381042480472,-120.47339630126952,122.62384033203124,498.4220886230469
2440,143.2437744140625,-113.01603698730469,128.8358154296875,503.8187561035156
2441,135.99958801269528,-125.23055267333984,118.97369384765624,489.18450927734375
2442,123.36247253417969,-126.46097564697266,116.72602081298828,487.1687316894531
2443,123.44474792480469,-125.5222625732422,116.59886169433594,495.6620178222656
2444,130.32615661621094,-120.8698272705078,119.32524871826172,495.7667541503906
2445,130.75251770019528,-130.36917114257812,117.60489654541016,483.43255615234375
2446,122.55091094970705,-133.85850524902344,109.69874572753906,478.0171813964844
2447,120.20973205566406,-125.13331604003906,108.8049087524414,484.6480102539063
2448,129.727783203125,-111.57243347167969,123.82434844970705,502.5097961425781
2449,120.9577178955078,-120.824951171875,123.21100616455078,497.0083923339844
2450,110.77022552490234,-124.54241180419922,113.62190246582031,488.9638671875
2451,121.43267822265624,-119.69175720214844,117.66099548339844,498.4632263183594
2452,125.15388488769531,-119.4860610961914,120.51079559326172,508.64697265625
2453,123.8897933959961,-119.06719207763672,119.32898712158205,504.5218505859375
2454,116.14820098876952,-128.618896484375,115.21884155273438,489.7342834472656
2455,126.7807388305664,-133.96321105957028,118.7605209350586,508.2580261230469
2456,130.50193786621094,-120.37242126464844,118.72686767578124,510.9881286621094
2457,126.49650573730469,-124.6209487915039,120.89600372314452,502.6070251464844
2458,117.18789672851562,-132.63929748535156,117.2196807861328,488.4066162109375
2459,128.87507629394528,-118.6408462524414,128.95175170898438,499.49542236328125
2460,138.29214477539062,-111.9763412475586,129.49029541015622,499.7609558105469
2461,123.22035217285156,-118.21075439453124,119.97972869873048,488.3841857910156
2462,121.23072814941406,-125.8625946044922,120.32006072998048,482.0188903808594
2463,123.71775817871094,-126.57317352294922,123.9141082763672,493.6574401855469
2464,137.36091613769528,-115.30859375,130.46641540527344,507.1136169433594
2465,128.22059631347656,-115.09915924072266,129.639892578125,499.9554443359375
2466,111.38731384277344,-126.44227600097656,117.1748046875,484.8125915527344
2467,123.94963073730469,-122.68741607666016,114.0220718383789,493.4293212890625
2468,134.49241638183594,-116.95415496826172,123.69718933105469,507.79052734375
2469,120.24713134765624,-127.11920166015624,122.59766387939452,498.99053955078125
2470,108.8329620361328,-136.25576782226562,111.94642639160156,487.5726318359375
2471,124.20021057128906,-125.81397247314452,114.63167572021484,497.28515625
2472,135.19924926757812,-115.40957641601562,123.1511688232422,507.2220764160156
2473,124.81355285644531,-124.721923828125,121.10169982910156,496.2230224609375
2474,121.30552673339844,-135.70974731445312,113.2366943359375,484.7303161621094
2475,136.91960144042972,-118.56978607177734,121.8122787475586,494.2707824707031
2476,141.3775634765625,-120.41729736328124,127.82978057861328,505.74853515625
2477,124.09548950195312,-116.669921875,122.5340805053711,493.0889892578125
2478,120.53136444091795,-118.84654235839844,121.69634246826172,494.7046203613281
2479,128.8302001953125,-110.6075439453125,121.93569946289062,500.36309814453125
2480,127.10610961914062,-113.16189575195312,123.1773452758789,502.3227844238281
2481,122.1582260131836,-113.9809341430664,120.17046356201172,496.0360107421875
2482,110.9833984375,-120.6304702758789,110.63372039794922,484.0309448242188
2483,125.78218841552734,-121.7748794555664,116.0116958618164,499.31964111328125
2484,134.1707763671875,-116.7970733642578,124.0188217163086,499.9703979492188
2485,135.13941955566406,-123.6597900390625,118.47254943847656,489.9886169433594
2486,113.88556671142578,-132.86369323730472,109.57532501220705,484.2852478027344
2487,123.76264190673828,-119.57582092285156,119.7665557861328,498.3734436035156
2488,133.46768188476562,-105.6110382080078,120.62299346923828,507.0313415527344
2489,120.52014923095705,-116.28470611572266,123.18108367919922,505.32220458984375
2490,109.54354095458984,-116.64747619628906,114.83362579345705,495.4151916503906
2491,112.2848892211914,-116.09771728515624,113.0609130859375,498.0069580078125
2492,121.0399932861328,-113.52840423583984,117.24212646484376,504.1815185546875
2493,113.37693786621094,-119.19808959960938,110.00167846679688,497.8236999511719
2494,116.1818618774414,-116.86439514160156,113.16189575195312,493.5602111816406
2495,133.33303833007812,-115.906982421875,120.76136779785156,508.3365478515625
2496,132.68229675292972,-116.411865234375,116.66617584228516,507.9588317871094
2497,125.94300079345705,-118.18083953857422,118.20327758789062,493.4816589355469
2498,114.91777801513672,-123.536376953125,115.7686004638672,490.1007995605469
2499,119.47297668457031,-119.4187469482422,121.66642761230469,495.9088745117188
2500,127.10237121582031,-117.76197052001952,122.37700653076172,500.8904113769531
2501,122.0048828125,-120.53323364257812,111.62105560302734,492.9468688964844
2502,116.17063903808594,-129.87924194335938,109.53044891357422,478.7913513183594
2503,122.52847290039062,-115.23753356933594,108.1616439819336,491.49951171875
2504,126.4553680419922,-109.95305633544922,113.20303344726562,500.2882995605469
2505,114.04264068603516,-122.60140228271484,108.22896575927734,497.4160461425781
2506,107.69976806640624,-126.6068344116211,107.87741088867188,488.33929443359375
2507,117.27765655517578,-127.093017578125,114.5643539428711,503.8786010742188
2508,127.9812469482422,-119.5645980834961,120.17794799804688,514.5111083984375
2509,109.6557388305664,-121.65520477294922,109.8857421875,506.7770080566406
2510,111.74259948730469,-123.76077270507812,114.8485870361328,501.86279296875
2511,119.05784606933594,-121.0904769897461,117.88912963867188,510.3897705078125
2512,128.00369262695312,-122.74725341796876,127.82230377197266,516.4259643554689
2513,117.07569885253906,-122.44058227539062,117.17854309082031,502.5509338378906
2514,105.81485748291016,-119.5010223388672,107.5370864868164,483.458740234375
2515,122.54717254638672,-112.09976196289062,110.7720947265625,489.9212951660156
2516,129.72404479980472,-112.2194366455078,112.00252532958984,495.7443237304688
2517,125.18379974365234,-113.7602767944336,114.59427642822266,490.2204895019531
2518,123.0071792602539,-114.66159057617188,114.37735748291016,488.7469482421875
2519,122.82392120361328,-117.43659973144531,107.96717071533205,493.66119384765625
2520,131.8931884765625,-105.84664916992188,114.54191589355469,504.4582824707031
2521,115.94625091552734,-115.00940704345705,115.2076187133789,490.8899230957031
2522,109.62955474853516,-123.11750793457031,109.11906433105469,486.61895751953125
2523,124.79859161376952,-119.30654907226562,116.19121551513672,500.1424255371094
2524,135.47975158691406,-115.72372436523438,116.39690399169922,510.9058532714844
2525,123.37368774414062,-117.74700927734376,116.01917266845705,501.4102478027344
2526,113.73223114013672,-130.84039306640622,108.43840026855469,491.6977233886719
2527,121.76553344726562,-123.4952392578125,111.0301513671875,499.9891052246094
2528,135.45356750488278,-115.93689727783205,117.4739990234375,510.0269775390625
2529,120.52762603759766,-123.08010864257812,111.52381896972656,499.727294921875
2530,109.0536117553711,-126.01219177246094,106.42633056640624,493.3470458984375
2531,120.34062957763672,-119.80769348144531,115.1814422607422,504.2563171386719
2532,132.36814880371094,-119.79647827148438,120.03956604003906,510.3785400390625
2533,116.75032806396484,-127.0107421875,109.95680236816406,500.2135009765625
2534,107.98400115966795,-132.175537109375,109.6052474975586,493.8332214355469
2535,112.99172973632812,-127.08554077148438,110.84689331054688,501.88897705078125
2536,123.39612579345705,-122.4779815673828,115.6040496826172,513.6397094726561
2537,123.81499481201172,-118.08360290527344,120.09192657470705,510.2962646484375
2538,112.43074035644531,-130.63096618652344,114.80744934082031,498.51556396484375
2539,122.01610565185548,-123.71588897705078,121.65520477294922,507.5923156738281
2540,131.1190185546875,-116.411865234375,121.19893646240234,508.6170349121094
2541,126.96399688720705,-120.98576354980469,120.45469665527344,503.0558166503906
2542,125.18379974365234,-127.16033935546876,120.83990478515624,497.027099609375
2543,126.3805694580078,-123.18856811523438,126.3076400756836,506.5451354980469
2544,132.64115905761722,-121.74122619628906,125.5035629272461,511.6875
2545,128.63198852539062,-121.78236389160156,117.82928466796876,504.61907958984375
2546,119.9105453491211,-130.16722106933594,113.26660919189452,493.7584228515625
2547,127.37911987304688,-127.08927917480469,118.60344696044922,495.2244567871094
2548,128.42630004882812,-126.99578094482422,122.24984741210938,509.1181945800781
2549,124.60411834716795,-126.93968200683594,116.74472045898438,501.68701171875
2550,114.21841430664062,-134.7635498046875,110.80201721191406,490.3214416503906
2551,127.24822235107422,-121.12039947509766,118.958740234375,502.943603515625
2552,131.50422668457028,-115.04679870605469,125.67185974121094,511.8595275878906
2553,127.40904235839844,-120.29762268066406,121.12039947509766,499.97412109375
2554,123.31011199951172,-123.58499145507812,122.21993255615234,500.6136474609375
2555,129.69412231445312,-127.4557876586914,117.34683990478516,499.34210205078125
2556,140.72682189941406,-125.91120910644531,126.33382415771484,511.8258666992188
2557,138.80825805664062,-119.31402587890624,127.40343475341795,511.605224609375
2558,130.78242492675778,-127.94945526123048,118.38653564453124,493.4218444824219
2559,132.89921569824222,-126.17300415039062,120.45843505859376,501.3803405761719
2560,136.33244323730472,-118.6408462524414,130.23454284667972,510.7787170410156
2561,129.94468688964844,-118.67076873779295,127.94197845458984,505.1239929199219
2562,122.9024658203125,-125.85511016845705,125.73917388916016,493.2497863769531
2563,139.37672424316406,-125.73543548583984,127.68766784667969,497.707763671875
2564,144.0628204345703,-124.20207977294922,128.77223205566406,500.90911865234375
2565,127.77181243896484,-122.5565185546875,128.44686889648438,495.6321105957031
2566,113.72474670410156,-130.75064086914062,120.51827239990234,493.1376037597656
2567,122.42749786376952,-123.56255340576172,119.67305755615234,501.6683044433594
2568,135.2852783203125,-120.49958038330078,126.4684600830078,503.037109375
2569,119.38695526123048,-129.83810424804688,117.65351104736328,488.7132873535156
2570,110.58697509765624,-130.47015380859378,110.76087951660156,491.3312377929688
2571,126.3768310546875,-119.67679595947266,115.75364685058594,505.9205627441406
2572,127.76807403564452,-119.0185775756836,121.13162231445312,506.6498718261719
2573,125.13518524169922,-124.80793762207031,119.24297332763672,507.3454895019531
2574,116.42121887207031,-130.52250671386722,115.35347747802734,498.4557495117188
2575,125.00428771972656,-118.58474731445312,122.1152114868164,508.8713684082031
2576,131.30601501464844,-117.33936309814452,123.29328155517578,510.4645690917969
2577,124.90705108642578,-128.20002746582028,126.77886962890624,506.4217224121094
2578,121.14845275878906,-126.93220520019531,121.58414459228516,500.8006591796875
2579,128.7479248046875,-122.5752182006836,126.3487777709961,504.9893493652344
2580,131.48553466796878,-124.65086364746094,125.402587890625,509.0658264160156
2581,132.15122985839844,-129.32200622558594,126.6292724609375,501.0661926269531
2582,124.82476806640624,-132.73652648925778,120.7090072631836,491.922119140625
2583,137.79847717285156,-118.49498748779295,133.30125427246094,505.7148742675781
2584,141.73660278320312,-118.9774398803711,131.31910705566406,508.718017578125
2585,123.45970916748048,-123.31198120117188,125.7653579711914,500.92779541015625
2586,119.68614959716795,-123.20352172851562,119.53842163085938,495.2917785644531
2587,127.60725402832031,-124.7406234741211,121.29991149902344,498.9194946289063
2588,147.00238037109375,-122.8781509399414,123.03897094726562,505.7073974609375
2589,131.16389465332028,-130.20835876464844,126.36373901367188,497.3898620605469
2590,121.15219116210938,-129.78575134277344,118.06864166259766,496.7540893554688
2591,132.15122985839844,-127.54928588867188,125.33900451660156,502.3078308105469
2592,139.0064697265625,-121.40463256835938,131.14332580566406,512.9815063476561
2593,132.39433288574222,-132.11196899414062,124.97249603271484,502.55841064453125
2594,119.70858764648438,-131.9698486328125,123.9141082763672,496.4249572753906
2595,127.8017349243164,-123.0950698852539,126.7900848388672,503.0445861816406
2596,134.91502380371094,-119.38134765625,132.48970031738278,513.2882080078125
2597,130.00079345703122,-127.7362823486328,128.97044372558594,509.2266540527344
2598,121.28682708740234,-131.95489501953122,123.6410903930664,498.8446960449219
2599,130.0980224609375,-125.17445373535156,129.299560546875,511.2723693847656
2600,136.4708251953125,-122.45928192138672,127.20147705078124,512.4055786132811
2601,134.47370910644528,-118.6819839477539,129.53143310546878,508.71429443359375
2602,117.4048080444336,-134.12028503417972,122.20123291015624,491.8323669433594
2603,125.64006805419922,-123.38304138183594,126.3899154663086,500.6361083984375
2604,132.77206420898438,-124.35167694091795,127.7961196899414,503.5382690429688
2605,126.54512786865234,-122.0740737915039,120.31632232666016,494.5176086425781
2606,116.6007308959961,-138.77272033691406,120.55567169189452,488.3542785644531
2607,132.44668579101562,-132.45977783203122,118.6819839477539,492.0904235839844
2608,133.54248046875,-117.92278289794922,122.80709838867188,497.4796142578125
2609,125.20249938964844,-125.39136505126952,115.226318359375,492.7598571777344
2610,120.31819152832031,-129.44915771484378,115.91819763183594,494.8355102539063
2611,126.05146026611328,-120.9483642578125,120.0844497680664,505.1426696777344
2612,139.48518371582028,-122.5527801513672,123.58873748779295,508.1271057128906
2613,130.50941467285156,-126.91163635253906,122.30968475341795,504.6134948730469
2614,118.44450378417969,-132.92913818359378,117.10749053955078,493.4872741699219
2615,129.51460266113278,-125.87567901611328,124.41151428222656,500.2565002441406
2616,135.66299438476562,-118.21263122558594,127.773681640625,508.5104675292969
2617,122.10212707519531,-121.66455841064452,123.20726776123048,498.7306213378906
2618,119.9554214477539,-125.08282470703124,117.28700256347656,493.0833740234375
2619,123.3475112915039,-129.88859558105472,119.67305755615234,497.7993774414063
2620,131.72862243652344,-116.42121887207031,123.30824279785156,504.908935546875
2621,128.30661010742188,-126.57504272460938,126.13560485839844,499.1756591796875
2622,126.38430786132812,-128.68060302734378,125.79153442382812,497.6610107421875
2623,128.16824340820312,-122.37513732910156,111.7893524169922,490.495361328125
2624,136.32496643066406,-111.38731384277344,124.97623443603516,494.5718383789063
2625,124.1889877319336,-126.54512786865234,117.80310821533205,488.27386474609375
2626,121.91513061523438,-132.80197143554688,113.98467254638672,480.1507873535156
2627,130.44210815429688,-125.31095886230469,118.43515014648438,496.73724365234375
2628,127.37164306640624,-123.49710845947266,118.88394165039062,498.0649108886719
2629,120.4603042602539,-124.5928955078125,118.9811782836914,496.1949768066406
2630,115.5198974609375,-127.09488677978516,114.68777465820312,490.3831481933594
2631,118.84093475341795,-119.16255950927734,115.49559020996094,497.36181640625
2632,132.42424011230472,-116.10332489013672,127.78115844726562,509.5202331542969
2633,118.36970520019531,-126.335693359375,121.6290283203125,505.83642578125
2634,119.94046020507812,-137.3048095703125,118.3154754638672,495.6564331054688
2635,130.3673095703125,-125.71112823486328,119.62069702148438,499.58331298828125
2636,134.24557495117188,-128.67312622070312,122.66871643066406,508.3645935058594
2637,129.06581115722656,-120.85299682617188,117.6572494506836,500.41357421875
2638,129.85867309570312,-122.45741271972656,111.153564453125,490.2896728515625
2639,125.92430114746094,-119.38695526123048,112.02870178222656,489.7735595703125
2640,133.61727905273438,-117.8872528076172,121.29991149902344,503.958984375
2641,119.29719543457031,-126.32073211669922,119.43370819091795,496.7297668457031
2642,117.35619354248048,-120.93901824951172,118.47628784179688,496.082763671875
2643,119.21492004394531,-127.71197509765624,120.85486602783205,503.2484130859375
2644,130.26258850097656,-119.61882781982422,125.1894073486328,502.8744201660156
2645,127.61100006103516,-123.08197784423828,116.96163177490234,496.3408203125
2646,121.88894653320312,-130.10551452636722,114.54191589355469,482.2750549316406
2647,123.04084014892578,-125.22493743896484,117.6385498046875,492.0474243164063
2648,131.70245361328122,-117.43473052978516,123.62987518310548,506.1206665039063
2649,121.87024688720705,-125.81210327148438,113.2366943359375,497.9190673828125
2650,113.5901107788086,-126.54886627197266,109.4818344116211,491.7369995117188
2651,121.57479858398438,-121.582275390625,115.45445251464844,501.5654602050781
2652,129.21914672851562,-120.50144958496094,121.3747100830078,509.1911315917969
2653,117.81620025634766,-127.2407455444336,116.21739196777344,495.23382568359375
2654,118.55670166015624,-123.5494613647461,121.17276000976562,492.197021484375
2655,129.07704162597656,-124.47695922851562,124.18338012695312,499.58331298828125
2656,135.3563232421875,-113.83694458007812,127.22765350341795,507.1865234375
2657,126.85179901123048,-116.67552947998048,124.56111145019531,499.7927551269531
2658,114.39044952392578,-130.92828369140622,117.1748046875,499.2616882324219
2659,121.5411376953125,-121.12600708007812,121.03438568115234,508.3309326171875
2660,127.34546661376952,-113.04034423828124,131.95489501953122,513.6565551757811
2661,118.81848907470705,-114.9925765991211,127.9943389892578,497.1935119628906
2662,113.952880859375,-120.8417739868164,120.68283081054688,485.39788818359375
2663,126.21601104736328,-113.77710723876952,126.9097671508789,495.14404296875
2664,134.24557495117188,-108.1672592163086,131.54350280761722,502.6687316894531
2665,122.262939453125,-117.95457458496094,122.19001007080078,491.5387878417969
2666,116.92984008789062,-128.61703491210938,118.10604095458984,482.6602783203125
2667,126.52642822265624,-124.72005462646484,123.41295623779295,495.6115417480469
2668,132.64863586425778,-118.34352111816406,127.64652252197266,499.3663940429688
2669,126.94903564453124,-118.03684997558594,124.10858154296876,494.227783203125
2670,115.82656860351562,-127.03131103515624,120.5893325805664,487.89239501953125
2671,125.78592681884766,-116.08462524414062,126.90228271484376,500.4173278808594
2672,130.74502563476562,-110.0970458984375,131.07601928710938,500.3649597167969
2673,118.82223510742188,-115.56478118896484,120.24152374267578,488.617919921875
2674,112.17269134521484,-115.68071746826172,117.5338363647461,488.8610229492188
2675,133.04133605957028,-114.11370086669922,124.67330169677734,501.3784790039063
2676,139.55998229980472,-114.09500122070312,132.76644897460938,506.58441162109375
2677,126.53016662597656,-116.68675231933594,123.60369110107422,498.0836181640625
2678,113.70230865478516,-125.57649230957031,120.21534729003906,491.2358703613281
2679,133.12734985351562,-114.42784881591795,125.2455062866211,504.51251220703125
2680,134.78038024902344,-109.4350814819336,128.46182250976562,497.6235961914063
2681,121.81414794921876,-112.20635223388672,125.63072204589844,493.4498901367188
2682,112.7037582397461,-121.25690460205078,116.91675567626952,482.4545593261719
2683,130.32241821289062,-119.16255950927734,127.60912322998048,492.3765258789063
2684,137.79100036621094,-112.35220336914062,128.94801330566406,499.3065490722656
2685,122.62944793701172,-116.2229995727539,123.1549072265625,495.5704040527344
2686,110.48599243164062,-125.6176300048828,114.20158386230469,483.9468078613281
2687,124.39094543457031,-118.54174041748048,122.3695297241211,501.7823791503906
2688,130.34112548828122,-114.79061889648438,123.47279357910156,505.3726806640625
2689,110.37379455566406,-118.05181121826172,121.18023681640624,498.9998779296875
2690,109.40142059326172,-127.58855438232422,116.2884521484375,492.79913330078125
2691,126.21601104736328,-116.89617919921876,121.46446990966795,505.6269836425781
2692,125.92430114746094,-113.64247131347656,128.64881896972656,512.8749389648439
2693,122.9847412109375,-130.18405151367188,122.00675964355469,510.4888610839844
2694,111.55560302734376,-135.15811157226562,115.23753356933594,492.94873046875
2695,128.11213684082028,-121.06243133544922,123.1549072265625,509.0003967285156
2696,132.64863586425778,-113.52279663085938,129.10134887695312,503.7308654785156
2697,135.03096008300778,-115.0337142944336,124.91265869140624,495.84716796875
2698,112.96180725097656,-120.3593292236328,115.5068130493164,486.4786987304688
2699,124.7911148071289,-111.06568145751952,124.26939392089844,501.2999267578125
2700,126.9041519165039,-114.9364776611328,122.30220794677734,500.2041320800781
2701,127.3043212890625,-117.42350769042969,127.48944854736328,498.3828125
2702,121.1821060180664,-125.58396911621094,121.83472442626952,485.7830810546875
2703,127.25570678710938,-121.72439575195312,122.4106674194336,489.7810363769531
2704,133.08995056152344,-114.48768615722656,122.26107025146484,495.05804443359375
2705,121.0175552368164,-127.63343811035156,119.38882446289062,483.6700439453125
2706,120.14615631103516,-126.0177993774414,119.60199737548828,486.20196533203125
2707,133.25076293945312,-126.00657653808594,124.35541534423828,493.9472961425781
2708,128.22059631347656,-119.5889129638672,123.91036224365234,505.5858459472656
2709,116.5633316040039,-127.91767120361328,114.040771484375,499.8899841308594
2710,117.19537353515624,-130.90959167480472,116.8531723022461,494.51202392578125
2711,119.57769012451172,-124.87712860107422,119.17191314697266,499.8675537109375
2712,132.44294738769528,-124.57793426513672,125.75787353515624,510.2420349121094
2713,125.37079620361328,-130.57673645019528,118.17335510253906,505.8962707519531
2714,123.10067749023438,-131.15641784667972,119.20557403564452,500.53326416015625
2715,129.81379699707028,-119.03914642333984,122.30968475341795,510.0700073242188
2716,133.71824645996094,-122.09464263916016,121.13162231445312,505.084716796875
2717,122.6219711303711,-124.63777923583984,114.35118103027344,499.1981201171875
2718,121.32048797607422,-124.67517852783205,115.09168243408205,487.46978759765625
2719,129.05833435058594,-116.94853973388672,121.83846282958984,500.9408874511719
2720,135.22917175292972,-119.26728057861328,124.63590240478516,508.6750183105469
2721,122.79774475097656,-118.7698745727539,124.64338684082031,498.99615478515625
2722,115.31046295166016,-127.28936767578124,114.6466293334961,484.6087646484375
2723,122.85010528564452,-120.76323699951172,116.26226806640624,491.4939270019531
2724,129.72030639648438,-116.25292205810548,124.83412170410156,498.8689880371094
2725,117.76383972167969,-123.64295959472656,120.29762268066406,493.8911743164063
2726,114.18101501464844,-133.33303833007812,117.45903778076172,484.732177734375
2727,128.40011596679688,-139.16354370117188,129.72590637207028,504.5386962890625
2728,120.55380249023438,-128.38890075683594,116.99529266357422,502.4443359375
2729,117.73391723632812,-123.44474792480469,114.33248138427734,498.7418518066406
2730,110.80388641357422,-128.22433471679688,113.7453155517578,494.36614990234375
2731,129.26029968261722,-117.92091369628906,120.69031524658205,509.2098083496094
2732,129.22663879394528,-118.05554962158205,128.701171875,513.970703125
2733,114.73078155517578,-124.5143585205078,117.432861328125,501.845947265625
2734,107.29212188720705,-129.90354919433594,115.2038803100586,497.773193359375
2735,122.62944793701172,-120.23217010498048,121.31861114501952,504.1983642578125
2736,129.70907592773438,-117.79750061035156,124.0225601196289,510.4140625
2737,114.19597625732422,-124.33858489990234,115.21135711669922,495.66015625
2738,112.66261291503906,-125.55779266357422,114.06694793701172,492.8477478027344
2739,120.3555908203125,-116.89244079589844,113.20677185058594,500.2789306640625
2740,138.16499328613278,-107.28463745117188,122.40692901611328,511.1022033691406
2741,112.45692443847656,-112.1053695678711,121.98431396484376,497.2608337402344
2742,107.49781799316406,-119.98534393310548,114.38484191894531,487.70166015625
2743,122.55464935302734,-112.42326354980469,117.82928466796876,493.47979736328125
2744,127.9625473022461,-109.29296875,119.0634536743164,496.8307495117188
2745,112.00065612792969,-114.16605377197266,115.72746276855469,489.8932495117188
2746,101.99642181396484,-123.4036102294922,109.34345245361328,484.1150817871094
2747,113.0665283203125,-115.28428649902344,111.84545135498048,498.37158203125
2748,121.8216323852539,-113.78084564208984,113.0609130859375,507.44085693359375
2749,116.4586181640625,-121.02877044677734,115.66388702392578,498.7156677246094
2750,109.32662200927734,-119.96289825439452,108.04944610595705,493.8238830566406
2751,125.56526947021484,-102.08243560791016,115.32355499267578,510.76934814453125
2752,130.14665222167972,-104.73028564453124,122.27603149414062,520.0555419921875
2753,121.19332885742188,-115.7181167602539,122.98287200927734,508.9779357910156
2754,114.55874633789062,-116.9635009765625,119.94981384277344,503.734619140625
2755,117.01586151123048,-110.93478393554688,121.12039947509766,511.9062805175781
2756,126.74707794189452,-106.88821411132812,125.98974609375,509.81195068359375
2757,120.58746337890624,-109.29670715332031,119.91241455078124,500.9708251953125
2758,107.90546417236328,-117.344970703125,119.55338287353516,494.65411376953125
2759,115.7143783569336,-107.98026275634766,126.05332946777344,507.58294677734375
2760,125.56526947021484,-106.828369140625,125.91869354248048,504.14971923828125
2761,115.44509887695312,-116.11080169677734,125.69429779052734,495.8284606933594
2762,105.0781021118164,-117.09066009521484,114.20906829833984,478.8006896972656
2763,120.36306762695312,-104.55077362060548,129.00410461425778,492.6158752441406
2764,131.26861572265622,-105.1977767944336,122.73977661132812,498.4875183105469
2765,114.03515625,-116.61569213867188,111.08625030517578,482.8921508789063
2766,102.68830108642578,-119.08028411865234,114.05573272705078,489.95306396484375
2767,116.0771484375,-112.15399169921876,120.97454071044922,498.9064025878906
2768,123.52328491210938,-104.03466796875,123.1362075805664,510.7768249511719
2769,116.2192611694336,-117.0420379638672,118.07986450195312,502.9267883300781
2770,102.02259826660156,-123.16425323486328,112.81034088134766,495.7947998046875
2771,119.92176055908205,-112.5279769897461,121.50560760498048,502.37701416015625
2772,124.38346099853516,-110.33639526367188,121.40089416503906,507.29498291015625
2773,124.45452117919922,-109.0124740600586,124.93509674072266,506.8013305664063
2774,116.0397491455078,-114.87664031982422,118.22197723388672,495.9631042480469
2775,122.79400634765624,-112.31106567382812,116.19869232177734,501.329833984375
2776,133.2021484375,-109.28548431396484,124.7406234741211,508.9330749511719
2777,121.9450454711914,-114.03890228271484,116.72227478027344,491.8529357910156
2778,115.76299285888672,-110.90486145019531,119.93111419677734,487.02471923828125
2779,122.85384368896484,-109.70809173583984,126.26276397705078,493.85003662109375
2780,128.31784057617188,-111.46958923339844,126.17674255371094,497.38800048828125
2781,116.13323974609376,-114.64476013183594,122.44806671142578,493.66680908203125
2782,104.90980529785156,-117.20659637451172,121.32609558105469,481.7028503417969
2783,116.00608825683594,-103.86637115478516,121.57666778564452,492.7056274414063
2784,130.0157470703125,-103.12586975097656,126.41609954833984,493.1207580566406
2785,112.8683090209961,-120.07135772705078,118.3379135131836,481.5794372558594
2786,111.40601348876952,-116.51470947265624,116.91300964355469,487.8138427734375
2787,127.68953704833984,-113.9902801513672,124.28809356689452,499.1270446777344
2788,132.06147766113278,-104.64427185058594,122.28350830078124,505.8065185546875
2789,120.1947784423828,-110.59445190429688,122.56026458740234,502.7173461914063
2790,110.21672058105469,-118.78857421875,116.14259338378906,494.6802978515625
2791,115.54981994628906,-115.26932525634766,123.24465942382812,504.0113525390625
2792,128.4599609375,-110.8824234008789,125.83267211914062,506.8948059082031
2793,116.5184555053711,-110.68421173095705,123.16238403320312,499.4673767089844
2794,117.86107635498048,-114.6784210205078,120.9483642578125,496.5091247558594
2795,115.89762878417969,-107.03032684326172,126.3712158203125,497.1075134277344
2796,123.6691436767578,-100.31720733642578,125.0846939086914,501.4757080078125
2797,114.2109375,-105.85599517822266,120.72770690917969,487.8998718261719
2798,116.22673797607422,-113.05156707763672,121.11666107177734,488.9732055664063
2799,126.54512786865234,-115.9425048828125,125.57462310791016,493.3526306152344
2800,136.32870483398438,-115.36282348632812,126.3113784790039,493.47607421875
2801,122.42001342773438,-121.3578872680664,120.81372833251952,482.5218811035156
2802,119.9367218017578,-121.16340637207031,118.05368041992188,478.55010986328125
2803,120.32566833496094,-118.9119873046875,119.68801879882812,489.0966491699219
2804,125.96170043945312,-115.28802490234376,123.196044921875,494.9533081054688
2805,120.37055206298828,-118.953125,123.02027130126952,487.8998718261719
2806,121.61593627929688,-118.54174041748048,122.0553741455078,488.91339111328125
2807,128.542236328125,-117.76010131835938,126.91350555419922,507.268798828125
2808,127.93637084960938,-115.20574951171876,131.53602600097656,514.64013671875
2809,121.21576690673828,-118.32108306884766,129.46037292480472,505.4811401367188
2810,110.4411163330078,-118.953125,122.99034881591795,499.4823303222656
2811,118.51555633544922,-113.4704360961914,126.80130767822266,511.6631774902344
2812,132.56636047363278,-118.0667724609375,129.96525573730472,516.2146606445311
2813,125.5914535522461,-119.2523193359375,126.97708129882812,503.7196350097656
2814,121.84780883789062,-128.44686889648438,124.0188217163086,494.1922607421875
2815,124.41712188720705,-122.4742431640625,119.3177719116211,502.8314208984375
2816,131.14146423339844,-118.22945404052734,124.08614349365234,502.285400390625
2817,124.34606170654295,-118.3416519165039,123.52889251708984,500.9726867675781
2818,121.4401626586914,-125.09591674804688,119.07093811035156,495.5573120117188
2819,130.27006530761722,-122.63506317138672,125.0248565673828,500.5201721191406
2820,133.82296752929688,-121.80854034423828,128.32719421386722,508.564697265625
2821,136.04072570800778,-121.2699966430664,128.24116516113278,507.3454895019531
2822,118.0069351196289,-129.31451416015622,119.98346710205078,491.4845581054688
2823,125.00054931640624,-119.63939666748048,122.66871643066406,498.2350769042969
2824,129.66419982910156,-103.87946319580078,127.62408447265624,506.1524353027344
2825,120.81559753417969,-112.6607437133789,127.22017669677734,502.22930908203125
2826,116.33145904541016,-119.72541809082031,125.60079956054688,502.6294555664063
2827,133.84915161132812,-115.25997924804688,134.75607299804688,515.7677612304689
2828,136.71017456054688,-113.99588775634766,132.88986206054688,518.3557739257811
2829,121.81040954589844,-123.19978332519531,125.19315338134766,502.3639221191406
2830,120.34811401367188,-124.20955657958984,123.1549072265625,500.2097473144531
2831,114.5961456298828,-118.12847900390624,119.53094482421876,506.50775146484375
2832,124.74249267578124,-115.3310317993164,125.9486083984375,515.1693725585939
2833,123.1679916381836,-117.50391387939452,126.49837493896484,511.19384765625
2834,116.5221939086914,-120.37989807128906,126.57691192626952,503.5719299316406
2835,130.18405151367188,-118.79418182373048,134.87200927734378,510.96197509765625
2836,135.46478271484378,-114.1417465209961,137.269287109375,516.95703125
2837,130.71511840820312,-122.5378189086914,132.57571411132812,504.0917663574219
2838,119.13264465332031,-123.20352172851562,122.10025024414062,492.8384094238281
2839,120.056396484375,-114.19784545898438,123.61117553710938,506.4778137207031
2840,132.61497497558594,-109.01060485839844,135.4442138671875,515.8163452148439
2841,118.1266098022461,-112.81034088134766,125.24925231933594,504.6976318359375
2842,113.09270477294922,-118.94377899169922,123.2970199584961,496.0547180175781
2843,125.39323425292969,-115.89949798583984,123.69718933105469,498.048095703125
2844,127.46887969970705,-110.63372039794922,123.06514739990234,500.89788818359375
2845,123.33255004882812,-115.29737854003906,121.94317626953124,496.3426818847656
2846,115.76673126220705,-115.47689056396484,121.81602478027344,491.71270751953125
2847,125.08656311035156,-113.19929504394531,124.15719604492188,502.2143249511719
2848,130.04193115234378,-103.58026885986328,129.57630920410156,510.2700805664063
2849,118.94190979003906,-109.77354431152344,120.1629867553711,498.1004333496094
2850,109.0536117553711,-119.55338287353516,114.8411102294922,493.8033142089844
2851,121.84407043457031,-113.9809341430664,119.4411849975586,499.2037048339844
2852,133.54995727539062,-106.25055694580078,124.6620864868164,507.61474609375
2853,117.93961334228516,-114.6466293334961,124.29183197021484,503.1006774902344
2854,111.56682586669922,-120.23030090332031,114.9046859741211,498.6801452636719
2855,121.5598373413086,-105.78307342529295,122.23863220214844,503.9945373535156
2856,125.62885284423828,-104.1861343383789,122.8145751953125,507.6558837890625
2857,124.24508666992188,-114.71768951416016,126.76016998291016,503.72900390625
2858,113.88556671142578,-121.70382690429688,120.20038604736328,496.71295166015625
2859,127.00513458251952,-115.2711944580078,115.09168243408205,504.2637939453125
2860,132.93287658691406,-112.98611450195312,125.9673080444336,507.73443603515625
2861,120.75202178955078,-118.618408203125,118.1546630859375,495.489990234375
2862,112.19886779785156,-127.6502685546875,110.34201049804688,485.0070495605469
2863,127.52497863769531,-118.57352447509766,116.14259338378906,496.0210571289063
2864,124.129150390625,-121.27747344970705,113.91735076904295,499.6076354980469
2865,108.87409973144531,-119.05223846435548,108.58425903320312,489.0835571289063
2866,109.46126556396484,-119.69549560546876,114.45964050292969,487.7184753417969
2867,119.54777526855469,-117.38050079345705,110.80949401855469,492.9842529296875
2868,123.3886489868164,-114.70647430419922,115.84713745117188,498.025634765625
2869,126.75081634521484,-107.98960876464844,119.81517791748048,493.4367980957031
2870,111.16291809082031,-113.76775360107422,120.1667251586914,482.273193359375
2871,123.90101623535156,-112.8776626586914,126.9696044921875,495.1534118652344
2872,124.17776489257812,-110.32331085205078,125.15201568603516,504.046875
2873,111.89967346191406,-113.76775360107422,117.01399230957031,488.1597900390625
2874,107.8680648803711,-118.87271881103516,113.0609130859375,483.27923583984375
2875,127.45018005371094,-110.49534606933594,124.95379638671876,499.6225891113281
2876,139.73948669433594,-104.53020477294922,132.65798950195312,513.6734008789061
2877,126.32820892333984,-119.24297332763672,130.77682495117188,505.10528564453125
2878,117.39733123779295,-126.32260131835938,116.7933349609375,498.3584899902344
2879,121.8627700805664,-114.77378845214844,118.68572235107422,507.9588317871094
2880,117.5843276977539,-113.3002700805664,120.2078628540039,512.4205322265625
2881,107.60626983642578,-124.9425811767578,112.90757751464844,506.4254760742188
2882,103.59709930419922,-131.30415344238278,109.56037139892578,494.0501403808594
2883,118.96808624267578,-117.2159423828125,117.04764556884766,507.027587890625
2884,126.05146026611328,-117.06634521484376,117.7357940673828,508.6282653808594
2885,123.1268539428711,-122.20123291015624,121.99553680419922,498.7923278808594
2886,120.52014923095705,-129.80818176269528,123.48775482177734,487.8306884765625
2887,124.18524932861328,-113.95101165771484,126.13186645507812,488.18597412109375
2888,134.87762451171878,-114.75508880615234,126.31512451171876,502.2554626464844
2889,123.18669128417969,-110.88055419921876,126.47967529296876,493.26849365234375
2890,109.94371032714844,-116.83073425292969,118.69694519042969,484.1767883300781
2891,115.25811004638672,-111.78560638427734,124.88648223876952,490.18682861328125
2892,133.47515869140622,-103.43067169189452,130.69454956054688,505.10528564453125
2893,120.52762603759766,-114.43720245361328,125.5447006225586,491.2153015136719
2894,116.1182861328125,-113.19554901123048,129.23223876953122,488.6198120117188
2895,127.1622085571289,-103.79344177246094,134.81965637207028,506.3880615234375
2896,129.10694885253906,-107.0583724975586,140.12283325195312,511.4070129394531
2897,117.43846893310548,-112.86643981933594,133.87345886230472,510.8834228515625
2898,108.93767547607422,-120.89974212646484,122.54530334472656,505.6438293457031
2899,115.4189224243164,-116.40812683105469,129.69598388671878,514.88134765625
2900,126.55260467529295,-112.94871520996094,126.53203582763672,518.8531494140625
2901,120.59868621826172,-118.9811782836914,123.2970199584961,506.10382080078125
2902,120.85299682617188,-128.03921508789062,122.0478973388672,493.1413269042969
2903,131.242431640625,-118.96995544433594,119.80769348144531,500.4266662597656
2904,141.32521057128906,-120.89226531982422,122.84075164794922,498.7624206542969
2905,125.26608276367188,-109.23125457763672,122.20870971679688,496.2828674316406
2906,111.09559631347656,-116.20243072509766,120.824951171875,487.4791259765625
2907,125.3745346069336,-109.77728271484376,129.65484619140622,498.4781799316406
2908,133.54248046875,-104.36190795898438,133.66777038574222,500.9315490722656
2909,122.77530670166016,-111.44528198242188,129.44541931152344,493.7471923828125
2910,109.2742691040039,-117.75823211669922,122.175048828125,483.4811706542969
2911,125.50543212890624,-108.89840698242188,129.70347595214844,490.8712158203125
2912,139.27574157714844,-102.1179656982422,138.38003540039062,500.841796875
2913,117.42350769042969,-113.96597290039062,128.70866394042972,495.29925537109375
2914,114.22215270996094,-115.82096099853516,129.0003662109375,495.2431640625
2915,109.17328643798828,-107.77269744873048,128.70866394042972,509.234130859375
2916,112.41952514648438,-113.63311767578124,124.87152099609376,509.3575439453125
2917,106.6039810180664,-115.5890884399414,121.18023681640624,507.4090576171875
2918,106.29730987548828,-123.03148651123048,112.69066619873048,498.30615234375
2919,127.20708465576172,-123.6373519897461,116.57268524169922,502.3190612792969
2920,135.48722839355472,-125.11087036132812,120.69779205322266,500.2920227050781
2921,128.89752197265622,-130.45144653320312,120.14054870605469,492.3484802246094
2922,127.95132446289062,-128.24116516113278,121.3073959350586,487.9391479492188
2923,136.53065490722656,-113.9023895263672,128.61141967773438,499.8282775878906
2924,125.49420928955078,-115.60031127929688,126.63674926757812,500.5126953125
2925,124.81355285644531,-119.3589096069336,123.06514739990234,492.789794921875
2926,117.09813690185548,-130.72445678710938,124.34793090820312,484.995849609375
2927,130.94699096679688,-127.88961791992188,128.69743347167972,493.7023315429688
2928,139.24208068847656,-116.53528594970705,127.91954040527344,495.0411987304688
2929,125.48673248291016,-119.13451385498048,124.06744384765624,488.2495422363281
2930,119.23735809326172,-117.5338363647461,119.35516357421876,475.8966674804688
2931,117.68156433105469,-106.31413269042969,126.17674255371094,488.7768859863281
2932,124.09548950195312,-107.73529815673828,130.72445678710938,497.9284057617188
2933,119.98159790039062,-110.48786163330078,128.67500305175778,492.3185729980469
2934,113.45173645019531,-121.3747100830078,127.58294677734376,487.76708984375
2935,120.57250213623048,-119.66558074951172,125.32778930664062,506.66107177734375
2936,123.50458526611328,-124.95379638671876,124.17215728759766,509.1593322753906
2937,112.44196319580078,-127.74002075195312,117.16358947753906,502.1806640625
2938,113.29840087890624,-127.02570343017578,113.6593017578125,498.541748046875
2939,125.66250610351562,-120.63421630859376,118.84654235839844,506.32073974609375
2940,133.04881286621094,-124.75558471679688,118.0574188232422,506.3843383789063
2941,121.10356903076172,-134.46810913085938,108.97320556640624,493.8294677734375
2942,122.61074829101562,-134.49427795410156,110.39436340332031,486.8208923339844
2943,132.56636047363278,-126.97708129882812,115.43949127197266,493.71728515625
2944,133.28816223144528,-126.49837493896484,126.50959777832031,501.80670166015625
2945,126.1150360107422,-123.71588897705078,124.58728790283205,491.1666564941406
2946,117.2402572631836,-121.29991149902344,124.7406234741211,489.9474487304688
2947,131.94554138183594,-121.52056884765624,127.82978057861328,494.9215393066406
2948,132.92166137695312,-115.85088348388672,129.50151062011722,504.07305908203125
2949,122.81270599365234,-115.9294204711914,130.92268371582028,500.8118591308594
2950,111.45088958740234,-124.11605834960938,125.48112487792969,492.95806884765625
2951,118.11913299560548,-117.75074768066406,127.48571014404295,498.3921508789063
2952,121.83659362792969,-108.00830841064452,124.84908294677734,512.4541625976561
2953,110.22794342041016,-111.29942321777344,123.8168716430664,495.4825134277344
2954,108.19717407226562,-123.28205871582031,119.20557403564452,491.3274841308594
2955,112.8047332763672,-122.3957061767578,122.21993255615234,506.511474609375
2956,123.21287536621094,-121.30365753173828,126.71903228759766,522.6678466796875
2957,112.75985717773438,-122.52660369873048,125.5297393798828,513.7743530273439
2958,113.98280334472656,-131.53602600097656,118.9400405883789,506.182373046875
2959,125.47925567626952,-123.09880828857422,122.32464599609376,505.4269104003906
2960,132.274658203125,-113.49100494384766,128.36459350585938,505.9430236816406
2961,120.6996612548828,-127.40343475341795,119.20931243896484,487.4566955566406
2962,115.7143783569336,-128.38702392578122,117.62733459472656,484.22540283203125
2963,121.2793426513672,-122.010498046875,109.62394714355469,493.4143371582031
2964,129.24159240722656,-117.88538360595705,120.78006744384766,500.8380432128906
2965,122.35269927978516,-120.56315612792969,120.45843505859376,492.4943237304688
2966,120.7781982421875,-128.65255737304688,121.15032196044922,489.4762268066406
2967,130.55804443359378,-123.90662384033205,121.55422973632812,499.6487731933594
2968,137.02058410644528,-122.37700653076172,127.15660095214844,503.964599609375
2969,121.83284759521484,-121.2849578857422,123.80938720703124,495.9986267089844
2970,112.87953186035156,-120.95584106445312,121.97683715820312,487.4604187011719
2971,123.0071792602539,-108.36360168457031,129.19857788085938,499.9329833984375
2972,126.2982940673828,-111.0488510131836,129.33695983886722,499.4281005859375
2973,117.6217269897461,-111.14234924316406,133.14791870117188,492.7299499511719
2974,112.99920654296876,-119.35142517089844,125.78031158447266,481.4653625488281
2975,118.32482147216795,-114.0819091796875,128.98167419433594,484.6143798828125
2976,117.20659637451172,-113.52840423583984,131.91375732421878,494.49517822265625
2977,111.67528533935548,-120.02086639404295,127.5343246459961,497.2253112792969
2978,101.7084503173828,-123.70841217041016,118.5174331665039,494.6896667480469
2979,114.02767944335938,-119.71419525146484,121.67764282226562,508.0448303222656
2980,124.74249267578124,-116.63999938964844,120.55567169189452,504.9781188964844
2981,123.93467712402344,-130.9600830078125,121.75992584228516,498.3809509277344
2982,116.95227813720705,-136.64472961425778,122.3732681274414,488.3692321777344
2983,131.16764831542972,-124.03752136230469,127.24635314941406,501.275634765625
2984,141.02975463867188,-119.98721313476562,131.1246337890625,500.1985168457031
2985,128.01864624023438,-129.3406982421875,125.75039672851562,488.7619018554688
2986,136.53813171386722,-128.4954833984375,127.7138442993164,483.7654113769531
2987,140.19949340820312,-128.30848693847656,128.32719421386722,487.684814453125
2988,142.76881408691406,-113.82759857177734,127.51937103271484,496.675537109375
2989,120.50518798828124,-123.18108367919922,124.6022491455078,486.81341552734375
2990,110.53087615966795,-130.76934814453122,122.53034210205078,483.5073547363281
2991,117.99197387695312,-117.9826202392578,127.94197845458984,500.6585388183594
2992,122.48733520507812,-111.04511260986328,130.34298706054688,505.8233337402344
2993,110.9385223388672,-117.99010467529295,124.63216400146484,494.1361389160156
2994,107.4043197631836,-119.3215103149414,126.59561157226562,488.6759033203125
2995,121.67203521728516,-113.700439453125,128.03921508789062,502.2106018066406
2996,130.45706176757812,-115.72372436523438,127.96441650390624,507.7044982910156
2997,117.2402572631836,-123.34938049316406,120.91844177246094,491.71270751953125
2998,115.32168579101562,-130.35047912597656,116.7334976196289,488.1148986816406
2999,128.54597473144528,-118.95499420166016,118.3416519165039,496.8924560546875
3000,136.21650695800778,-120.75762939453124,122.24610900878906,506.8555603027344
3001,126.42170715332031,-117.26830291748048,124.73314666748048,495.819091796875
3002,114.12865447998048,-117.51887512207031,118.69694519042969,489.4126586914063
3003,116.58576965332031,-115.35347747802734,122.17131042480469,498.5118408203125
3004,126.38804626464844,-114.71021270751952,123.62987518310548,500.56878662109375
3005,118.18644714355469,-121.84593963623048,121.3934097290039,487.9316711425781
3006,110.37005615234376,-120.6678695678711,111.7893524169922,478.5444946289063
3007,123.89353942871094,-111.46398162841795,119.4823226928711,482.53497314453125
3008,132.77206420898438,-103.01554107666016,129.53517150878906,495.60968017578125
3009,127.18838500976562,-113.4423828125,130.22331237792972,481.7084655761719
3010,119.09898376464844,-120.65665435791016,124.05248260498048,477.9049987792969
3011,125.80462646484376,-119.26914978027344,129.16117858886722,491.2938232421875
3012,129.08451843261722,-105.84291076660156,132.45977783203122,498.8035583496094
3013,114.80184173583984,-111.56121826171876,127.64652252197266,489.9624328613281
3014,117.3861083984375,-118.2406768798828,123.14742279052734,485.3997497558594
3015,126.23657989501952,-110.10826110839844,125.78218841552734,495.02252197265625
3016,123.11750793457031,-114.24085235595705,130.73381042480472,505.0342102050781
3017,114.8485870361328,-116.78398895263672,124.20021057128906,498.7250061035156
3018,108.18782806396484,-116.3015365600586,125.60266876220705,493.8033142089844
3019,117.04764556884766,-116.43243408203124,124.5741958618164,499.7871398925781
3020,124.28809356689452,-111.42096710205078,137.15522766113278,510.5505676269531
3021,111.23210144042969,-116.29779815673828,126.86675262451172,498.4183349609375
3022,113.4423828125,-124.34606170654295,130.11299133300778,488.4028930664063
3023,134.65884399414062,-116.5371551513672,133.63597106933594,496.8288879394531
3024,137.37400817871094,-108.62726593017578,129.3350830078125,497.707763671875
3025,131.68936157226562,-115.26558685302734,124.83599090576172,482.3778991699219
3026,120.19664764404295,-116.55585479736328,122.82018280029295,479.4869689941406
3027,132.38871765136722,-110.0970458984375,125.71112823486328,489.1583557128906
3028,135.03657531738278,-109.16954803466795,128.09344482421878,493.7584228515625
3029,120.76136779785156,-112.63643646240234,117.75261688232422,484.7228088378906
3030,110.59632110595705,-119.78338623046876,119.03914642333984,479.4794921875
3031,118.3790512084961,-112.27740478515624,124.22264862060548,496.4810791015625
3032,122.27976989746094,-104.60313415527344,127.53245544433594,507.2407531738281
3033,110.47290802001952,-117.37114715576172,121.06243133544922,496.0846252441406
3034,106.22064208984376,-119.60012817382812,123.16425323486328,499.0354309082031
3035,119.31028747558594,-115.00379180908205,123.57564544677734,508.6207885742188
3036,128.27108764648438,-111.2190170288086,128.15327453613278,511.8109130859375
3037,121.18397521972656,-115.0150146484375,124.00572967529295,503.4485168457031
3038,112.80660247802734,-126.3581314086914,120.7594985961914,499.4617614746094
3039,126.2029266357422,-114.86915588378906,126.1786117553711,505.47552490234375
3040,137.96116638183594,-111.45462799072266,129.08451843261722,508.8451843261719
3041,115.9892578125,-125.22119903564452,122.59578704833984,492.8346557617188
3042,109.38459014892578,-122.08716583251952,122.68180847167969,493.7060546875
3043,121.48316955566406,-113.4105987548828,126.27959442138672,504.6938781738281
3044,125.01363372802734,-111.93707275390624,123.35124969482422,507.61474609375
3045,110.7907943725586,-111.48828887939452,123.48214721679688,484.8163146972656
3046,103.79344177246094,-117.09813690185548,112.41577911376952,470.64208984375
3047,123.5775146484375,-105.14167785644531,125.80462646484376,480.98291015625
3048,129.42671203613278,-104.457275390625,126.9602508544922,476.7643127441406
3049,119.91989135742188,-109.64077758789062,123.57564544677734,467.8521423339844
3050,112.09228515625,-121.13349151611328,115.23941040039062,471.5733337402344
3051,129.81941223144528,-110.66925048828124,122.11334228515624,487.6773376464844
3052,134.56159973144528,-111.82862091064452,134.78785705566406,510.6029357910156
3053,130.23078918457028,-122.16944122314452,131.01805114746094,506.4890441894531
3054,119.51972198486328,-126.4778060913086,128.68434143066406,495.8789367675781
3055,128.14393615722656,-119.30841827392578,136.38479614257812,502.5359802246094
3056,134.56907653808594,-120.78942108154295,134.80282592773438,510.10552978515625
3057,121.96187591552734,-127.1435089111328,126.41423034667969,498.6240234375
3058,121.7337417602539,-126.22723388671876,127.5586395263672,502.3601989746094
3059,127.6502685546875,-117.91717529296876,128.73297119140622,510.5206604003906
3060,128.94427490234378,-115.22818756103516,139.51884460449222,513.2283325195311
3061,114.79622650146484,-123.7476806640625,129.65672302246094,501.275634765625
3062,114.67281341552734,-120.38925170898438,126.29080963134766,494.996337890625
3063,124.22451782226562,-118.54174041748048,128.366455078125,498.2762145996094
3064,131.07601928710938,-113.96410369873048,133.73695373535156,500.6959228515625
3065,115.87332153320312,-120.06388092041016,120.76698303222656,487.4305114746094
3066,109.00686645507812,-127.5623779296875,115.70689392089844,473.5928955078125
3067,131.06852722167972,-115.29176330566406,120.78942108154295,491.1591796875
3068,138.49971008300778,-108.8890609741211,122.44993591308594,485.2950134277344
3069,136.52505493164062,-118.0667724609375,125.20249938964844,476.9700012207031
3070,129.12753295898438,-124.76493072509766,125.56900787353516,472.69903564453125
3071,141.95538330078125,-121.31674194335938,127.56985473632812,487.531494140625
3072,137.89759826660156,-120.14989471435548,129.96713256835938,497.37115478515625
3073,120.1667251586914,-123.86735534667969,122.45741271972656,492.1016540527344
3074,108.7375946044922,-135.6143798828125,119.82452392578124,489.4388427734375
3075,119.77029418945312,-118.5716552734375,129.62306213378906,508.224365234375
3076,124.25443267822266,-120.1947784423828,128.68060302734378,511.7211608886719
3077,117.10749053955078,-127.05748748779295,128.94239807128906,500.5500793457031
3078,115.39087677001952,-136.160400390625,119.61882781982422,491.0395202636719
3079,141.15504455566406,-122.27790069580078,128.65817260742188,506.5825500488281
3080,134.44940185546878,-117.81246185302734,122.71920776367188,499.6674499511719
3081,121.11292266845705,-126.33194732666016,120.23591613769531,490.0334777832031
3082,117.30570220947266,-119.37199401855469,117.51326751708984,484.3226623535156
3083,130.80299377441406,-118.96808624267578,120.9764175415039,491.3387145996094
3084,139.135498046875,-110.62811279296876,127.36790466308594,499.562744140625
3085,123.82808685302734,-119.1737823486328,120.0152587890625,481.240966796875
3086,121.0119400024414,-125.06786346435548,113.69483184814452,473.9780883789063
3087,125.99723052978516,-114.51760864257812,121.24568939208984,482.7032775878906
3088,124.83038330078124,-109.84647369384766,127.1435089111328,489.07232666015625
3089,114.61671447753906,-120.48648834228516,126.25341033935548,481.70098876953125
3090,107.54082489013672,-125.38949584960938,121.34666442871094,487.5240173339844
3091,120.11062622070312,-116.48853302001952,125.07908630371094,503.130615234375
3092,125.8251953125,-115.0150146484375,129.60810852050778,511.3284606933594
3093,115.7125015258789,-119.60387420654295,121.62715911865234,496.79522705078125
3094,114.27638244628906,-120.87169647216795,122.60700988769531,498.4295654296875
3095,131.97732543945312,-114.08377838134766,128.89752197265622,509.0284423828125
3096,141.6861114501953,-115.5198974609375,132.08766174316406,510.5767517089844
3097,125.66063690185548,-120.59868621826172,125.89437866210938,503.41485595703125
3098,117.82180786132812,-125.3520965576172,120.02273559570312,495.4264221191406
3099,121.6888656616211,-121.87399291992188,128.27296447753906,502.5097961425781
3100,130.61225891113278,-116.91862487792969,132.04277038574222,512.132568359375
3101,115.67884826660156,-121.5598373413086,124.45452117919922,498.1228942871094
3102,103.86824035644531,-119.84322357177734,115.48249816894531,479.84600830078125
3103,119.67679595947266,-116.09210205078124,116.87000274658205,485.0706481933594
3104,126.9883041381836,-117.27765655517578,115.25811004638672,488.189697265625
3105,117.8779067993164,-123.17173767089844,116.65682983398438,476.251953125
3106,115.19265747070312,-124.1740264892578,115.59469604492188,476.4501647949219
3107,127.99807739257812,-122.3040771484375,117.74140167236328,481.9478149414063
3108,130.97129821777344,-117.6666030883789,122.68180847167969,495.3403930664063
3109,121.80854034423828,-114.94769287109376,118.98678588867188,487.81573486328125
3110,111.4714584350586,-124.26004791259766,113.52279663085938,481.6822814941406
3111,127.0518798828125,-112.67757415771484,120.17233276367188,502.4985656738281
3112,132.85993957519528,-113.9080047607422,123.92719268798828,514.832763671875
3113,120.55941772460938,-117.47212982177734,128.38890075683594,513.7145385742189
3114,105.37541961669922,-124.73126983642578,117.49082946777344,508.6881103515625
3115,108.5431137084961,-106.63763427734376,125.10900115966795,515.2404174804689
3116,117.86294555664062,-109.0760498046875,130.62535095214844,522.0469970703125
3117,116.15381622314452,-116.69422912597656,128.82272338867188,512.5626220703125
3118,107.39122772216795,-122.03106689453124,122.63318634033205,497.3150634765625
3119,122.56400299072266,-115.22071075439452,127.89522552490234,504.5106201171875
3120,120.99324035644531,-117.49082946777344,126.76203918457031,503.8673706054688
3121,115.11412048339844,-118.92321014404295,122.1993637084961,492.7449035644531
3122,111.97260284423828,-118.52304077148438,116.45113372802734,484.8686828613281
3123,126.2926788330078,-111.63040161132812,117.2439956665039,492.2549743652344
3124,131.39390563964844,-106.35714721679688,121.28682708740234,493.5602111816406
3125,120.71275329589844,-113.2123794555664,114.96639251708984,474.961669921875
3126,120.989501953125,-113.11514282226562,122.943603515625,479.0793151855469
3127,131.91001892089844,-108.32807159423828,126.22349548339844,494.7906188964844
3128,129.16493225097656,-112.74115753173828,124.32736206054688,500.8380432128906
3129,108.95076751708984,-117.01212310791016,124.2525634765625,494.8168029785156
3130,109.1041030883789,-116.66056823730469,119.9292449951172,490.04095458984375
3131,118.85401916503906,-109.07979583740234,122.1993637084961,509.9073181152344
3132,130.62722778320312,-116.24543762207031,133.13108825683594,517.09912109375
3133,119.05597686767578,-117.87977600097656,125.01924896240234,504.9220275878906
3134,110.29712677001952,-118.19393157958984,124.54053497314452,497.3150634765625
3135,120.40233612060548,-111.95577239990234,130.72259521484378,509.1742858886719
3136,126.66667175292969,-109.4126434326172,134.21940612792972,508.7741088867188
3137,117.66473388671876,-112.39708709716795,130.05314636230472,502.6070251464844
3138,119.13451385498048,-114.82801818847656,130.32241821289062,494.91778564453125
3139,119.53468322753906,-115.62088012695312,131.60894775390622,500.4865112304688
3140,119.1045913696289,-113.07400512695312,131.35089111328122,507.6633605957031
3141,100.4537124633789,-120.4416046142578,122.65188598632812,495.1197509765625
3142,98.29205322265624,-122.85758209228516,117.4085464477539,496.3277282714844
3143,120.32006072998048,-108.70206451416016,126.34317016601562,501.7505798339844
3144,116.00048065185548,-108.66840362548828,122.3863525390625,498.57916259765625
3145,108.35986328125,-114.7606964111328,116.36511993408205,489.46875
3146,112.87017822265624,-118.46320343017578,120.4191665649414,486.6563415527344
3147,129.3406982421875,-116.02104949951172,129.03216552734378,495.4787902832031
3148,132.09326171875,-108.82547760009766,127.51750183105469,496.2342224121094
3149,124.60972595214844,-114.20719146728516,125.65876770019531,495.07861328125
3150,114.53817749023438,-118.4669418334961,125.16510009765624,490.4411315917969
3151,126.04210662841795,-113.87060546875,121.91139221191406,503.811279296875
3152,125.91120910644531,-114.0127182006836,136.00332641601562,509.7577209472656
3153,117.36180114746094,-118.69507598876952,134.61209106445312,503.635498046875
3154,99.08490753173828,-116.97472381591795,127.97377014160156,495.4526062011719
3155,112.80660247802734,-108.44774627685548,132.69352722167972,510.4608154296875
3156,114.99070739746094,-109.40516662597656,129.6043701171875,509.7988586425781
3157,105.67835235595705,-116.1220245361328,126.56382751464844,501.6346435546875
3158,100.97355651855469,-116.44365692138672,120.3742904663086,488.3168640136719
3159,115.23005676269531,-105.42964935302734,125.9542236328125,499.5440368652344
3160,115.83218383789062,-106.15892791748048,129.25654602050778,508.553466796875
3161,109.57532501220705,-112.56537628173828,123.18669128417969,495.7929382324219
3162,114.39605712890624,-112.27740478515624,125.57649230957031,497.2963562011719
3163,126.19170379638672,-112.98424530029295,122.37513732910156,505.1651306152344
3164,129.15370178222656,-120.58746337890624,117.03829956054688,496.4100036621094
3165,124.59102630615234,-124.5068817138672,112.64017486572266,483.23809814453125
3166,114.55687713623048,-121.33544158935548,115.67323303222656,481.345703125
3167,122.84075164794922,-121.52617645263672,122.13204193115234,493.8556518554688
3168,132.65425109863278,-112.0642318725586,126.4591064453125,499.4430847167969
3169,121.56170654296876,-113.7509307861328,128.16450500488278,501.0474853515625
3170,113.53588104248048,-123.89727783203124,124.07305145263672,493.9304504394531
3171,124.7854995727539,-116.23796081542969,130.24761962890622,508.9311828613281
3172,133.13296508789062,-109.97362518310548,130.62535095214844,513.1647338867189
3173,116.44178771972656,-118.60531616210938,127.85408782958984,496.3800964355469
3174,119.19435119628906,-120.23965454101562,127.19586944580078,492.7000427246094
3175,129.87924194335938,-116.17063903808594,130.46827697753906,501.5598449707031
3176,130.59356689453122,-112.849609375,132.94035339355472,509.7352600097656
3177,113.29278564453124,-125.96543884277344,118.12287139892578,491.26763916015625
3178,110.22232818603516,-124.45825958251952,115.9387664794922,489.4313659667969
3179,112.22317504882812,-114.45028686523438,120.65852355957031,498.9344482421875
3180,118.9998779296875,-114.7158203125,126.7209014892578,507.5511779785156
3181,106.58341217041016,-119.41313934326172,120.30696868896484,503.4485168457031
3182,111.751953125,-123.31758880615234,121.97870635986328,497.6329650878906
3183,127.05936431884766,-117.91343688964844,126.88919830322266,504.0618591308594
3184,125.77657318115234,-116.01356506347656,127.04627227783205,496.71295166015625
3185,116.93170928955078,-113.952880859375,122.33399963378906,480.8782043457031
3186,120.2265625,-120.68096160888672,121.9001693725586,480.38079833984375
3187,136.27073669433594,-119.3121566772461,129.2528076171875,493.810791015625
3188,138.6717529296875,-115.65827941894531,133.08621215820312,496.79522705078125
3189,123.8954086303711,-116.40251922607422,129.95965576171878,488.4365539550781
3190,121.58414459228516,-119.45801544189452,131.43316650390622,489.54730224609375
3191,136.29692077636722,-116.38381958007812,134.57469177246094,498.8222351074219
3192,132.42985534667972,-115.46754455566406,139.66094970703122,503.3998718261719
3193,120.53323364257812,-112.20260620117188,138.10890197753906,499.2448425292969
3194,105.2707061767578,-116.46983337402344,131.57902526855472,488.3318176269531
3195,114.45215606689452,-113.5751495361328,135.51715087890622,501.4962768554688
3196,111.91276550292969,-108.2345733642578,135.87617492675778,508.2804565429688
3197,104.64240264892578,-116.28658294677734,122.76408386230469,496.4100036621094
3198,115.9256820678711,-123.2652359008789,126.3805694580078,501.5598449707031
3199,120.43973541259766,-118.81848907470705,126.41796875,509.51837158203125
3200,130.14851379394528,-115.68445587158205,123.7663803100586,515.1992797851561
3201,121.10169982910156,-121.40276336669922,120.72209930419922,501.933837890625
3202,115.7125015258789,-130.88714599609378,110.6804656982422,493.0328674316406
3203,130.72821044921878,-117.53944396972656,120.90161895751952,497.4010925292969
3204,135.37315368652344,-110.87120056152344,122.1432647705078,493.1712646484375
3205,130.35421752929688,-116.15193939208984,119.47671508789062,483.4176025390625
3206,128.21124267578122,-125.86446380615234,120.87169647216795,476.18463134765625
3207,130.36917114257812,-116.70919036865234,124.98932647705078,492.2213134765625
3208,129.60623168945312,-112.18765258789062,134.65322875976562,494.6821899414063
3209,117.40293884277344,-120.57998657226562,123.4110870361328,493.48541259765625
3210,116.24356842041016,-123.15677642822266,133.35548400878906,493.8594055175781
3211,126.40487670898438,-113.13384246826172,134.09597778320312,505.2399291992188
3212,129.82315063476562,-109.19947052001952,131.33967590332028,507.0500183105469
3213,121.23259735107422,-115.22818756103516,125.83828735351562,498.119140625
3214,111.23958587646484,-122.2853775024414,122.07968139648438,488.63848876953125
3215,124.6770477294922,-118.25003051757812,126.8031768798828,498.2799682617188
3216,132.31765747070312,-115.2955093383789,131.95863342285156,506.0851440429688
3217,112.29049682617188,-115.67323303222656,124.73314666748048,494.4577941894531
3218,105.14728546142578,-109.86517333984376,123.93280792236328,496.7279052734375
3219,118.07238006591795,-106.91065216064452,120.67161560058594,505.3970031738281
3220,118.33417510986328,-105.37355041503906,121.84593963623048,512.1886596679689
3221,99.92264556884766,-117.43473052978516,109.1003646850586,496.2529296875
3222,95.81997680664062,-125.42689514160156,106.99105834960938,487.3594665527344
3223,118.00880432128906,-114.94769287109376,116.54650115966795,497.7825622558594
3224,123.33441925048828,-109.86891174316406,117.17854309082031,494.633544921875
3225,120.76885223388672,-113.22360229492188,117.88164520263672,481.9253845214844
3226,119.86005401611328,-124.01321411132812,117.4552993774414,472.57562255859375
3227,137.37400817871094,-111.3050308227539,128.53288269042972,492.7037658691406
3228,141.87310791015625,-110.48599243164062,130.35421752929688,495.9200744628906
3229,130.36543273925778,-118.4482421875,123.92532348632812,490.1082763671875
3230,116.87935638427734,-117.2439956665039,126.03836822509766,491.9819641113281
3231,130.83665466308594,-111.581787109375,138.02848815917972,504.56298828125
3232,136.11740112304688,-104.79013061523438,141.1251220703125,502.93988037109375
3233,115.74616241455078,-114.87289428710938,131.76042175292972,488.458984375
3234,106.2954330444336,-116.18933868408205,131.27796936035156,489.6183471679688
3235,113.6593017578125,-106.88446807861328,134.3409423828125,502.4275207519531
3236,106.5123519897461,-109.91378784179688,130.87405395507812,505.2286987304688
3237,96.739990234375,-113.26100158691406,123.84678649902344,499.1027526855469
3238,99.6683349609375,-116.43617248535156,121.59910583496094,497.9620666503906
3239,118.26685333251952,-108.66840362548828,128.43937683105472,510.1466674804688
3240,120.87356567382812,-114.79061889648438,130.44023132324222,506.2459411621094
3241,112.7018814086914,-123.98703002929688,116.40438842773438,486.5441589355469
3242,111.3704833984375,-119.79460906982422,117.1112289428711,484.9098205566406
3243,124.71818542480469,-120.3593292236328,115.61526489257812,484.8163146972656
3244,140.38836669921878,-115.13095092773438,124.23573303222656,490.1344604492188
3245,122.17131042480469,-116.35015869140624,121.37845611572266,480.560302734375
3246,118.52864837646484,-118.7474365234375,125.29039001464844,476.03131103515625
3247,129.59501647949222,-113.41807556152344,131.75666809082028,494.9477233886719
3248,130.42152404785156,-118.5529556274414,131.99977111816406,498.0854797363281
3249,112.33537292480469,-113.72100830078124,128.27482604980472,491.53692626953125
3250,109.1003646850586,-116.95227813720705,130.87031555175778,490.1082763671875
3251,126.06454467773438,-109.62955474853516,140.84463500976562,512.53271484375
3252,130.20088195800778,-104.18426513671876,142.88661193847656,512.8319091796875
3253,115.70502471923828,-115.66201782226562,138.95597839355472,506.80694580078125
3254,106.92748260498048,-121.76179504394531,133.80239868164062,492.80474853515625
3255,126.70033264160156,-112.29610443115234,143.1297149658203,510.0382080078125
3256,129.23971557617188,-119.13638305664062,141.07276916503906,512.768310546875
3257,110.92543029785156,-130.77120971679688,116.7110595703125,501.37286376953125
3258,108.60295104980469,-108.8516616821289,113.43864440917969,505.2660827636719
3259,114.1828842163086,-107.38187408447266,116.3108901977539,511.6014709472656
3260,115.85836029052734,-110.93104553222656,116.93545532226562,510.73382568359375
3261,100.99225616455078,-113.9080047607422,118.13221740722656,496.9971618652344
3262,98.00782012939452,-112.18765258789062,121.03438568115234,483.623291015625
3263,120.22282409667969,-108.2944107055664,127.9157943725586,494.2296447753906
3264,137.34408569335938,-109.09101104736328,129.5576171875,495.7518005371094
3265,129.32574462890622,-126.8854522705078,120.47339630126952,487.7558898925781
3266,123.77947235107422,-127.59977722167969,120.08818817138672,481.8692932128906
3267,131.96611022949222,-116.15568542480469,129.72964477539062,492.7187194824219
3268,135.54145812988278,-109.97362518310548,135.58633422851562,502.1844177246094
3269,123.32694244384766,-119.6936264038086,127.04066467285156,484.8424987792969
3270,124.95379638671876,-116.67179107666016,129.4229736328125,486.7274169921875
3271,129.75582885742188,-103.28294372558594,134.36712646484378,498.0817565917969
3272,130.16722106933594,-103.43254089355469,132.86369323730472,500.6211242675781
3273,115.48811340332031,-102.33675384521484,131.506103515625,502.42376708984375
3274,102.39472198486328,-110.82632446289062,128.07661437988278,496.1070861816406
3275,107.36505126953124,-102.21707916259766,137.42636108398438,515.8911743164061
3276,107.24536895751952,-106.43194580078124,131.22186279296878,514.1146850585939
3277,99.01759338378906,-120.3518524169922,124.62842559814452,508.7815856933594
3278,97.64878845214844,-118.63897705078124,117.1561050415039,505.80462646484375
3279,110.80949401855469,-116.87000274658205,123.08010864257812,514.6906127929689
3280,110.10265350341795,-110.84876251220705,121.8122787475586,511.3995361328125
3281,107.60813903808594,-117.6479034423828,117.90408325195312,502.1545104980469
3282,110.00167846679688,-124.49939727783205,111.16104888916016,491.69024658203125
3283,129.19483947753906,-120.63233947753906,123.53263854980469,501.7767639160156
3284,139.65534973144528,-117.97701263427734,125.51852416992188,501.099853515625
3285,130.35047912597656,-119.37199401855469,126.82748413085938,487.6997985839844
3286,121.79732513427734,-123.26148986816406,126.40487670898438,479.9245300292969
3287,132.21669006347656,-116.499755859375,130.62722778320312,492.8197021484375
3288,134.90567016601562,-112.63269805908205,134.38957214355472,497.3038330078125
3289,114.78874969482422,-114.80558013916016,123.14368438720705,486.4581298828125
3290,111.6135711669922,-117.27765655517578,123.02774810791016,479.6739501953125
3291,130.73568725585938,-113.5714111328125,131.02738952636722,491.4359436035156
3292,130.91519165039062,-114.72704315185548,130.43649291992188,499.25982666015625
3293,114.91964721679688,-119.83200073242188,126.33756256103516,487.6623840332031
3294,110.16997528076172,-125.3745346069336,123.28580474853516,483.6457214355469
3295,124.69574737548828,-115.8377914428711,132.18302917480472,508.67315673828125
3296,116.58390045166016,-113.96410369873048,123.76824951171876,505.2025146484375
3297,103.4605941772461,-121.59349822998048,116.50162506103516,495.6059265136719
3298,98.95027160644531,-125.15013885498048,113.65181732177734,499.0391540527344
3299,100.63697052001952,-120.49022674560548,114.31378173828124,508.2355651855469
3300,108.00457000732422,-115.04492950439452,112.20447540283205,510.4495849609375
3301,105.56241607666016,-124.7724151611328,112.52984619140624,496.48480224609375
3302,101.82999420166016,-124.48444366455078,114.5643539428711,489.31915283203125
3303,120.29762268066406,-114.5325698852539,117.66099548339844,500.4977111816406
3304,131.10592651367188,-115.7592544555664,125.95609283447266,504.9369812011719
3305,121.10169982910156,-126.24219512939452,116.94667053222656,486.8956909179688
3306,127.8372573852539,-128.19442749023438,123.56629180908205,483.9673767089844
3307,138.22669982910156,-124.12541198730469,126.49463653564452,497.2477416992188
3308,143.30921936035156,-116.95227813720705,130.48136901855472,503.10443115234375
3309,126.53951263427734,-132.55514526367188,118.50621032714844,487.0228576660156
3310,117.18976593017578,-128.02986145019528,117.14114379882812,481.6598510742188
3311,129.23597717285156,-127.8428726196289,127.58294677734376,494.0314331054688
3312,132.8150634765625,-119.49915313720705,130.63844299316406,502.3489685058594
3313,110.58135986328124,-122.89871978759766,126.39739990234376,490.5608215332031
3314,99.87403106689452,-115.55729675292969,120.29014587402344,488.9302062988281
3315,108.5618133544922,-114.86167907714844,124.90518188476562,498.2650146484375
3316,113.87995147705078,-116.14820098876952,123.10254669189452,503.6429748535156
3317,109.5641098022461,-126.63114166259766,115.82843780517578,489.6146240234375
3318,106.02616119384766,-125.24738311767578,111.0114517211914,486.3048095703125
3319,124.61720275878906,-123.18669128417969,113.9023895263672,495.7106628417969
3320,130.52998352050778,-116.06592559814452,124.38907623291016,494.633544921875
3321,121.51683044433594,-125.43811798095705,118.28555297851562,485.6428527832031
3322,114.61297607421876,-131.05545043945312,113.78271484375,488.212158203125
3323,131.76789855957028,-118.96434783935548,127.97563934326172,495.4376220703125
3324,136.08747863769528,-129.03964233398438,128.52914428710938,497.15423583984375
3325,125.72047424316406,-123.97955322265624,122.06285095214844,487.6436767578125
3326,121.26251983642578,-122.44619750976562,121.78610229492188,487.55767822265625
3327,121.01942443847656,-117.45716857910156,134.16143798828122,500.6959228515625
3328,119.06719207763672,-117.37114715576172,130.42901611328122,504.23760986328125
3329,113.02351379394531,-123.70654296875,125.63072204589844,489.88763427734375
3330,117.51513671875,-124.36476135253906,128.7423095703125,485.8597412109375
3331,134.47932434082028,-112.00439453125,140.60902404785156,508.9873046875
3332,129.13127136230472,-112.47562408447266,139.06069946289062,501.60845947265625
3333,111.81926727294922,-125.57275390625,127.40717315673828,483.9150085449219
3334,112.04366302490234,-120.18729400634766,124.2806167602539,489.1471252441406
3335,113.54710388183594,-115.28802490234376,122.12643432617188,500.0751037597656
3336,113.4835205078125,-115.73307037353516,116.19869232177734,501.1671752929688
3337,106.54975128173828,-122.46115112304688,112.05113983154295,494.1174621582031
3338,99.53369903564452,-130.83479309082028,102.80985260009766,484.0384216308594
3339,120.43973541259766,-118.2275848388672,116.78211975097656,503.8299865722656
3340,111.78560638427734,-106.18136596679688,120.95584106445312,501.4700927734375
3341,99.02507019042969,-111.07689666748048,117.78440856933594,487.68109130859375
3342,103.59896850585938,-114.76818084716795,121.65894317626952,490.0147705078125
3343,124.75184631347656,-111.27511596679688,127.85970306396484,499.0279541015625
3344,136.08747863769528,-110.15314483642578,126.13934326171876,495.9425354003906
3345,124.09362030029295,-118.21263122558594,119.29532623291016,484.8237915039063
3346,120.75015258789062,-126.24219512939452,118.9961395263672,483.4400329589844
3347,141.2148895263672,-116.7017059326172,125.64193725585938,498.53802490234375
3348,144.9510498046875,-115.91632843017578,131.19943237304688,503.5419921875
3349,125.11087036132812,-122.01984405517578,130.75437927246094,493.15631103515625
3350,120.8698272705078,-117.767578125,129.25468444824222,487.7745666503906
3351,123.6635284423828,-114.44654846191406,125.89625549316406,502.2517395019531
3352,113.85751342773438,-112.1091079711914,128.20376586914062,505.14642333984375
3353,101.32511138916016,-113.01416778564452,121.74496459960938,494.6933898925781
3354,99.63093566894531,-116.84382629394531,122.00301361083984,496.5857849121094
3355,109.87451934814452,-109.72305297851562,122.01423645019531,511.11529541015625
3356,118.89141845703124,-112.86457061767578,121.38219451904295,506.7471008300781
3357,109.10784149169922,-124.86216735839844,110.16997528076172,491.6528625488281
3358,109.45938873291016,-114.798095703125,113.20303344726562,488.52630615234375
3359,121.59536743164062,-108.11116027832031,121.66268920898438,499.9367370605469
3360,123.62987518310548,-114.58866119384766,118.24441528320312,494.5101318359375
3361,121.93569946289062,-120.94649505615234,118.49124908447266,485.9308166503906
3362,113.97344970703124,-121.35414123535156,115.5853500366211,482.1048889160156
3363,129.31077575683594,-110.0372085571289,120.8660888671875,492.9954833984375
3364,139.16542053222656,-109.45378112792969,125.33526611328124,501.6608276367188
3365,122.7360382080078,-115.4413604736328,126.32260131835938,489.1059875488281
3366,116.8157730102539,-114.64476013183594,119.15321350097656,484.9995727539063
3367,129.85307312011722,-113.07774353027344,128.25613403320312,492.9992370605469
3368,129.47908020019528,-111.241455078125,128.37954711914062,499.6113586425781
3369,109.54914855957031,-117.45716857910156,127.6502685546875,489.2854919433594
3370,112.63082885742188,-118.05181121826172,126.78260803222656,490.01104736328125
3371,131.40885925292972,-106.33096313476562,132.97213745117188,504.89208984375
3372,134.92811584472656,-110.31769561767578,127.1117172241211,506.9004211425781
3373,118.88394165039062,-131.20878601074222,117.60115051269531,489.1321716308594
3374,115.86583709716795,-117.93961334228516,114.70647430419922,489.4500427246094
3375,121.3672332763672,-113.96410369873048,117.10000610351562,497.64044189453125
3376,131.89505004882812,-113.50409698486328,126.84244537353516,505.84576416015625
3377,117.29074096679688,-118.59410095214844,124.41525268554688,498.5604553222656
3378,105.68582916259766,-124.86591339111328,116.17251586914062,491.7463684082031
3379,116.3894271850586,-119.66744995117188,120.64543151855469,497.51702880859375
3380,118.28181457519531,-117.3674087524414,119.38134765625,495.8078918457031
3381,104.74337768554688,-117.53570556640624,120.78380584716795,489.07232666015625
3382,101.6990966796875,-115.52738189697266,119.1008529663086,485.3511352539063
3383,117.82554626464844,-108.1709976196289,123.03148651123048,493.2198791503906
3384,134.24371337890622,-110.06712341308594,130.91145324707028,497.4235229492188
3385,131.82772827148438,-121.41024017333984,129.052734375,490.9460144042969
3386,125.13331604003906,-125.45307159423828,120.82868957519531,480.1152648925781
3387,131.6295166015625,-120.22469329833984,123.82434844970705,491.7052307128906
3388,134.11280822753906,-116.76154327392578,130.57485961914062,505.18756103515625
3389,121.72252655029295,-118.88207244873048,128.70866394042972,490.1232299804688
3390,121.55796813964844,-121.21576690673828,130.08494567871094,490.4224243164063
3391,129.99517822265622,-111.97073364257812,136.3829345703125,504.6116027832031
3392,124.65460205078124,-117.90221405029295,132.51213073730472,512.0091552734375
3393,110.40558624267578,-124.20768737792969,126.49463653564452,505.2286987304688
3394,104.06271362304688,-125.10152435302734,124.53492736816406,507.521240234375
3395,114.885986328125,-114.9963150024414,122.65001678466795,519.092529296875
3396,115.29737854003906,-114.7569580078125,127.6689682006836,522.110595703125
3397,103.00806427001952,-118.38092041015624,122.26107025146484,505.0342102050781
3398,94.8513412475586,-119.66371154785156,112.33163452148438,497.2140808105469
3399,120.8885269165039,-112.7860336303711,122.8370132446289,503.2203674316406
3400,127.98685455322266,-118.62027740478516,122.74725341796876,500.2135009765625
3401,121.12413787841795,-120.57998657226562,121.14283752441406,485.7774658203125
3402,122.38074493408205,-123.34002685546876,111.8940658569336,480.24615478515625
3403,134.71119689941406,-116.00234985351562,125.02859497070312,497.54693603515625
3404,141.74969482421875,-114.46898651123048,129.20231628417972,499.6338195800781
3405,123.88044738769531,-119.76094818115234,123.08010864257812,486.9929504394531
3406,125.63072204589844,-119.55899047851562,121.61406707763672,487.03033447265625
3407,131.93992614746094,-111.76878356933594,125.43624114990234,497.3487243652344
3408,127.5343246459961,-107.92042541503906,131.68936157226562,503.2652587890625
3409,104.76581573486328,-114.53630828857422,126.48341369628906,497.2066040039063
3410,97.61512756347656,-113.612548828125,124.99867248535156,488.4178466796875
3411,106.60958862304688,-104.36751556396484,127.75872039794922,504.2039489746094
3412,113.13197326660156,-107.96156311035156,125.53348541259766,506.2983093261719
3413,102.46578216552734,-121.1185302734375,121.80106353759766,497.2814025878906
3414,101.44478607177734,-119.66744995117188,113.6817398071289,492.03057861328125
3415,124.88273620605469,-112.00065612792969,115.90323638916016,507.4913330078125
3416,127.1528549194336,-119.64875030517578,117.4739990234375,505.80462646484375
3417,117.6198501586914,-122.7958755493164,115.5479507446289,490.6786193847656
3418,117.39920043945312,-126.16926574707031,120.4247817993164,488.7076721191406
3419,125.78031158447266,-117.70213317871094,117.5600128173828,495.2712097167969
3420,128.701171875,-115.49185180664062,115.44322967529295,491.927734375
3421,122.48171997070312,-125.1894073486328,116.4492645263672,480.30413818359375
3422,115.98178100585938,-117.18976593017578,114.30630493164062,472.4092102050781
3423,124.75558471679688,-106.00746154785156,122.44058227539062,488.0232849121094
3424,130.56364440917972,-104.7508544921875,127.41838836669922,493.0010986328125
3425,111.56121826171876,-115.6264877319336,118.86524200439452,478.5950012207031
3426,117.2122039794922,-115.20014190673828,119.72915649414062,477.8021240234375
3427,131.846435546875,-108.56555938720705,123.01653289794922,492.0025329589844
3428,134.54664611816406,-105.22956848144531,131.33779907226562,497.1636047363281
3429,111.52755737304688,-119.87501525878906,121.70382690429688,483.1315002441406
3430,113.30774688720705,-125.64942169189452,122.42936706542969,489.8595886230469
3431,123.05018615722656,-105.92518615722656,127.2500991821289,501.0456237792969
3432,118.64832305908205,-119.21305084228516,118.62962341308594,500.682861328125
3433,112.84774017333984,-120.15176391601562,114.74012756347656,492.34661865234375
3434,104.29084777832031,-120.27518463134766,111.16852569580078,492.7355651855469
3435,117.40667724609376,-113.7191390991211,120.40233612060548,506.2104187011719
3436,113.35636901855469,-111.8117904663086,120.76885223388672,509.41925048828125
3437,106.8713836669922,-117.59367370605469,120.57437133789062,500.4173278808594
3438,104.87427520751952,-114.09687042236328,118.52490997314452,495.3684387207031
3439,116.52406311035156,-110.51404571533205,124.81168365478516,506.6217956542969
3440,120.75389099121094,-106.071044921875,122.63506317138672,502.4667663574219
3441,109.9268798828125,-113.30774688720705,120.5444564819336,484.6985168457031
3442,116.3744659423828,-121.9506607055664,124.15345764160156,475.5881042480469
3443,140.41079711914062,-108.78620910644531,130.52998352050778,489.3995666503906
3444,144.24420166015625,-108.51693725585938,131.12837219238278,491.4228515625
3445,128.23368835449222,-115.6938018798828,127.62782287597656,478.3331909179688
3446,126.13560485839844,-118.28181457519531,128.289794921875,479.627197265625
3447,141.177490234375,-111.99504089355469,137.07107543945312,491.2134094238281
3448,138.05093383789062,-106.70682525634766,138.32768249511722,497.3954772949219
3449,123.6597900390625,-119.71045684814452,131.53228759765622,484.6311950683594
3450,116.61756134033205,-128.2374267578125,123.93280792236328,480.0011901855469
3451,114.98322296142578,-113.3189697265625,126.45349884033205,496.7970886230469
3452,119.4860610961914,-109.30979919433594,129.87550354003906,510.3991088867188
3453,101.24282836914062,-117.01024627685548,121.12039947509766,502.526611328125
3454,94.61573028564452,-114.07442474365234,120.11810302734376,506.0346374511719
3455,109.00686645507812,-112.45879364013672,123.76077270507812,514.9356079101561
3456,117.66099548339844,-117.32814025878906,129.97648620605472,526.282470703125
3457,115.3497314453125,-120.94088745117188,127.2500991821289,513.5892333984375
3458,111.0264129638672,-114.19784545898438,120.15924835205078,494.7139587402344
3459,128.56280517578122,-108.4197006225586,128.73483276367188,501.47943115234375
3460,132.19424438476562,-113.2591323852539,125.55966186523438,489.1265563964844
3461,122.4929428100586,-122.48171997070312,118.19953918457031,475.2029113769531
3462,130.41778564453122,-114.96826171875,123.8168716430664,484.3843688964844
3463,142.49392700195312,-105.7718505859375,129.29582214355472,493.46484375
3464,138.51841735839844,-104.00287628173828,131.26675415039062,498.6333923339844
3465,128.49174499511722,-116.48292541503906,128.34962463378906,486.53106689453125
3466,124.05622100830078,-116.0303955078125,128.43563842773438,487.5445861816406
3467,135.20112609863278,-111.36673736572266,128.84703063964844,496.4268493652344
3468,124.29931640625,-114.31378173828124,130.07371520996094,499.3589172363281
3469,107.69042205810548,-116.96910858154295,123.62612915039062,488.4047546386719
3470,104.59751892089844,-121.7711410522461,121.15779876708984,484.3320007324219
3471,112.5560302734375,-117.9190444946289,119.5832977294922,500.144287109375
3472,124.96501922607422,-112.85147857666016,124.79672241210938,507.90460205078125
3473,113.09083557128906,-114.1828842163086,119.0858917236328,505.249267578125
3474,108.26262664794922,-113.68547821044922,117.3730239868164,503.4429016113281
3475,113.88743591308594,-111.8117904663086,118.6819839477539,514.1614379882811
3476,122.75847625732422,-120.11436462402344,121.75617980957031,513.2451782226561
3477,108.98442840576172,-120.91470336914062,120.17420196533205,513.218994140625
3478,110.83567810058594,-120.45843505859376,126.43853759765624,515.0291137695311
3479,123.35685729980469,-116.75593566894531,126.0084457397461,515.2796630859375
3480,119.88623046875,-112.32789611816406,129.22476196289062,521.4205932617189
3481,112.27179718017578,-116.24356842041016,124.6845245361328,508.9966430664063
3482,106.07852172851562,-115.75364685058594,126.07950592041016,500.68658447265625
3483,119.13451385498048,-104.6498794555664,126.0271453857422,499.9498291015625
3484,131.56593322753906,-104.12255096435548,137.12342834472656,503.5737915039063
3485,124.2768783569336,-104.23101043701172,136.8878173828125,490.2859191894531
3486,129.48281860351562,-110.6112823486328,133.65653991699222,490.1625061035156
3487,143.74679565429688,-103.59149169921876,133.72012329101562,497.6946716308594
3488,144.6368865966797,-107.47724151611328,133.57052612304688,499.5496520996094
3489,125.41754150390624,-110.59632110595705,132.70286560058594,484.71722412109375
3490,121.07552337646484,-122.20870971679688,126.588134765625,489.1938781738281
3491,127.65774536132812,-116.19121551513672,118.54734802246094,500.64544677734375
3492,124.47882843017578,-115.87705993652344,125.23802947998048,504.2694091796875
3493,120.55941772460938,-123.00531005859376,123.8393096923828,501.868408203125
3494,120.9296646118164,-120.94088745117188,116.87935638427734,500.0508117675781
3495,120.78380584716795,-117.15984344482422,127.12667846679688,514.498046875
3496,115.08794403076172,-120.43599700927734,127.3136749267578,512.2765502929689
3497,103.83832550048828,-119.33272552490234,126.752685546875,508.1065368652344
3498,100.11711883544922,-116.7297592163086,127.70636749267578,505.5185241699219
