,T7,F8,Cz,P4
1600,174.1634063720703,-50.67003631591797,167.84483337402344,552.4841918945311
1601,170.96205139160156,-51.45167541503906,165.77293395996094,556.811279296875
1602,171.59408569335938,-67.7015380859375,161.4683074951172,555.3527221679689
1603,184.65382385253903,-62.99300384521485,165.7056121826172,567.5298461914062
1604,191.871826171875,-71.08988952636719,166.1693572998047,573.4725341796875
1605,185.1287841796875,-77.54121398925781,163.7234649658203,565.7982177734375
1606,179.51893615722656,-72.76162719726562,162.8707733154297,567.5223388671875
1607,182.86241149902344,-74.07058715820312,167.3324737548828,566.460205078125
1608,180.34732055664062,-74.5923080444336,159.1944580078125,573.661376953125
1609,175.0366668701172,-69.13204956054689,158.82420349121094,563.1859130859375
1610,170.87042236328125,-65.07051849365234,159.6956024169922,555.4742431640625
1611,178.14077758789062,-69.37514495849611,158.5100555419922,557.6920166015625
1612,178.6755828857422,-64.44969940185547,157.81068420410156,558.5933227539061
1613,171.3042449951172,-63.35016632080078,162.88572692871094,544.1498413085939
1614,160.46975708007812,-65.69882202148439,151.09756469726562,532.4962768554689
1615,163.91046142578125,-58.125526428222656,155.57049560546875,535.7051391601561
1616,174.6963348388672,-61.64477157592773,162.38458251953125,544.3704833984375
1617,174.5355224609375,-62.16461563110352,168.4357452392578,545.6083984375
1618,160.91854858398438,-53.56658554077149,162.42198181152344,537.2235107421875
1619,164.62478637695312,-52.16412353515625,166.1469268798828,541.7263793945311
1620,158.7344512939453,-57.99836730957031,167.26515197753906,549.7933349609375
1621,163.52899169921875,-58.40975570678711,168.33102416992188,552.661865234375
1622,163.45045471191406,-61.31565856933594,166.83506774902344,557.1160888671875
1623,180.79237365722656,-62.65080261230469,169.3220977783203,565.1942749023438
1624,194.05780029296875,-70.20166015625,168.19639587402344,564.6220703125
1625,189.9065093994141,-76.48095703125,162.20132446289062,554.2550659179689
1626,186.3536071777344,-72.3895034790039,160.9634246826172,558.941162109375
1627,191.47352600097656,-68.41773223876953,163.44297790527344,562.1200561523439
1628,186.26010131835938,-66.67493438720703,159.96487426757812,568.8294067382812
1629,172.2915802001953,-71.48445129394531,164.35177612304688,557.8677978515625
1630,164.08250427246094,-66.3046875,160.59690856933594,548.4282836914061
1631,158.3380126953125,-62.2094955444336,163.8506317138672,544.1797485351561
1632,163.3756561279297,-54.05651473999024,163.5589141845703,544.4078979492189
1633,160.89984130859375,-50.21189498901367,165.65325927734375,532.4102783203125
1634,152.193359375,-57.01477432250977,163.34573364257812,535.91455078125
1635,157.80320739746094,-53.78350067138672,160.0359344482422,529.212646484375
1636,168.65640258789062,-44.3327751159668,164.95016479492188,545.0773315429689
1637,161.2626190185547,-56.33037185668945,158.95135498046875,547.7625732421875
1638,150.25982666015625,-53.51049041748047,163.80575561523438,550.8816528320311
1639,156.008056640625,-47.7173843383789,172.69175720214844,563.3878784179688
1640,162.3658905029297,-56.75672149658203,168.6002960205078,568.403076171875
1641,161.5692901611328,-61.30443954467773,168.57412719726562,570.0299682617188
1642,167.40353393554688,-62.06364059448242,170.5600128173828,576.054931640625
1643,167.4970245361328,-66.31216430664061,168.11036682128906,574.5739135742188
1644,182.9727325439453,-62.66950225830078,169.59510803222656,579.3348388671875
1645,176.7682342529297,-69.69303894042969,168.20387268066406,569.8092651367188
1646,161.5618133544922,-72.96170806884766,163.23355102539062,557.3142700195311
1647,168.74989318847656,-66.21492767333984,159.3627471923828,551.992431640625
1648,171.91384887695312,-65.95313262939453,159.42633056640625,547.4708862304689
1649,161.58424377441406,-60.18994903564453,156.1464385986328,540.8400268554689
1650,156.5615692138672,-58.45089721679688,155.49569702148438,533.41259765625
1651,167.17166137695312,-57.5832405090332,161.29254150390625,537.4142456054689
1652,176.12498474121094,-58.85854721069336,160.47723388671875,542.440673828125
1653,170.2084503173828,-56.68566513061523,158.2557373046875,539.7367553710939
1654,169.84942626953125,-62.9537353515625,159.55722045898438,534.833740234375
1655,172.72540283203125,-59.29611206054688,159.81527709960938,538.0313720703125
1656,181.07659912109372,-59.4681510925293,169.24729919433594,546.6593017578125
1657,172.29905700683594,-54.92042922973633,170.95643615722656,544.5537719726561
1658,164.28819274902344,-48.74211502075195,170.8479766845703,543.8693237304689
1659,165.668212890625,-51.94721221923828,174.5803985595703,550.69091796875
1660,157.41799926757812,-43.24072265625,177.72190856933594,561.0018310546875
1661,153.15451049804688,-45.85491180419922,177.99493408203125,561.091552734375
1662,154.0184326171875,-53.64886474609375,173.3948516845703,559.2664794921875
1663,174.85340881347656,-61.00150680541992,174.823486328125,561.5328979492189
1664,183.0961456298828,-64.03456878662111,162.46311950683594,559.34130859375
1665,175.99034118652344,-70.87484741210938,155.12918090820312,544.1199340820311
1666,174.84219360351562,-67.74454498291016,155.90707397460938,540.9409790039061
1667,174.3597412109375,-70.94963836669922,159.224365234375,541.2139892578125
1668,182.6735382080078,-62.46006774902344,163.26719665527344,548.51806640625
1669,168.5965576171875,-68.30179595947266,163.06898498535156,547.6466674804689
1670,167.77003479003906,-71.06183624267578,166.0983123779297,542.9642944335939
1671,175.36952209472656,-64.42351531982422,174.6739044189453,545.5709838867189
1672,169.90927124023438,-61.20720291137695,171.36782836914062,548.1104125976561
1673,165.34658813476562,-58.75382995605469,173.80250549316406,547.9158935546875
1674,162.0255584716797,-60.33206558227539,171.58099365234375,544.0076904296875
1675,162.3247528076172,-53.35715103149414,182.0265350341797,559.7676391601561
1676,175.99407958984375,-60.2535285949707,181.80589294433597,561.4019775390625
1677,168.02061462402344,-53.07292175292969,176.08758544921875,560.4183959960939
1678,157.64987182617188,-57.90861129760742,174.17274475097656,549.3333129882811
1679,163.7234649658203,-55.65719223022461,173.34249877929688,554.44580078125
1680,168.31607055664062,-58.10308456420898,172.10084533691406,564.7192993164062
1681,166.32644653320312,-61.0576057434082,169.1575469970703,560.9232788085939
1682,166.74905395507812,-64.84986877441406,165.43260192871094,553.7239990234375
1683,171.99986267089844,-66.41688537597656,161.23269653320312,545.9450073242189
1684,176.44287109375,-68.92635345458984,158.9738006591797,550.7657470703125
1685,169.63999938964844,-76.00972747802734,160.8287811279297,548.7349243164061
1686,163.813232421875,-67.51267242431639,157.96775817871094,544.1685180664061
1687,160.57821655273438,-66.24485015869139,163.813232421875,549.224853515625
1688,171.5697784423828,-69.03107452392578,162.4145050048828,555.7285766601561
1689,175.3769989013672,-73.2758560180664,156.39700317382812,544.3966674804689
1690,183.0998992919922,-77.35983276367188,164.98756408691406,538.4502563476561
1691,183.76559448242188,-70.70655059814453,166.7752227783203,544.8790893554689
1692,185.7626953125,-71.81729888916016,167.40353393554688,547.4970703125
1693,183.36167907714844,-73.49651336669922,163.94786071777344,546.7378540039061
1694,172.65809631347656,-63.90367126464844,162.4070281982422,548.2749633789061
1695,171.93629455566406,-61.15110397338867,172.0821533203125,556.4466552734375
1696,172.21678161621094,-59.943115234375,165.70187377929688,555.4817504882811
1697,172.81517028808594,-58.589271545410156,168.15899658203125,552.0223388671875
1698,153.50979614257812,-65.89703369140625,164.51258850097656,540.7465209960939
1699,148.5806121826172,-66.87689208984375,160.73902893066406,541.0643920898439
1700,168.03932189941406,-64.21034240722656,162.30230712890625,554.023193359375
1701,163.7571258544922,-71.23761749267578,161.34115600585938,549.2734985351561
1702,164.24331665039062,-74.74189758300781,152.58230590820312,543.1251220703125
1703,184.04608154296875,-67.490234375,159.12339782714844,550.6759643554689
1704,191.9223175048828,-73.39927673339844,155.4882049560547,550.5300903320311
1705,187.45314025878903,-78.30228424072266,154.39990234375,543.8580932617189
1706,176.92906188964844,-79.77954864501953,154.55323791503906,540.234130859375
1707,179.52081298828125,-82.41991424560547,152.0549774169922,548.3347778320311
1708,193.20884704589844,-77.7899169921875,159.92747497558594,554.6888427734375
1709,185.75148010253903,-72.46056365966797,160.93724060058594,557.920166015625
1710,172.5720672607422,-74.13229370117188,167.04075622558594,548.390869140625
1711,187.31475830078125,-69.0572509765625,168.2711944580078,544.3667602539061
1712,179.3973846435547,-67.04144287109375,166.35635375976562,545.1558837890625
1713,167.90093994140625,-70.77386474609375,161.6478271484375,539.4786987304689
1714,162.67630004882812,-62.23567581176758,166.9884033203125,541.6515502929689
1715,158.69705200195312,-61.87664413452149,162.6949920654297,542.792236328125
1716,158.7980194091797,-58.6865119934082,160.85870361328125,551.6558227539061
1717,168.96307373046875,-59.24375534057617,164.56869506835938,559.8760986328125
1718,156.13894653320312,-71.05435943603516,158.61102294921875,556.44287109375
1719,173.07322692871094,-67.59869384765625,162.26116943359375,566.2526245117188
1720,166.83880615234375,-69.50978088378906,158.82794189453125,574.9329223632812
1721,174.999267578125,-69.48734283447266,165.4587860107422,574.1288452148438
1722,185.91603088378903,-69.99971008300781,170.11122131347656,567.5840454101562
1723,186.0170135498047,-67.82308197021484,167.55686950683594,570.3964233398438
1724,183.1410369873047,-71.9631576538086,166.93231201171875,557.7817993164061
1725,182.5650787353516,-69.69303894042969,161.92831420898438,551.5286865234375
1726,166.92481994628906,-71.94819641113281,156.64010620117188,543.5701293945311
1727,175.42935180664062,-61.54753494262695,169.494140625,558.039794921875
1728,171.53237915039062,-66.35704803466797,165.6420440673828,557.6471557617189
1729,171.3902587890625,-71.17403411865234,171.67449951171875,552.53466796875
1730,171.07611083984375,-71.26753234863281,170.937744140625,556.8692626953125
1731,179.77137756347656,-61.39045715332031,177.8453369140625,559.8424682617189
1732,185.06333923339844,-60.85939025878906,177.4227294921875,560.1416625976561
1733,179.09820556640625,-65.34727478027344,177.9650115966797,564.248046875
1734,178.96730041503906,-63.6456184387207,174.658935546875,561.22998046875
1735,175.91928100585938,-62.4712905883789,169.6624298095703,559.7115478515625
1736,172.463623046875,-63.45488357543945,170.23837280273438,561.3159790039061
1737,165.6831817626953,-68.70570373535156,166.9061279296875,567.0567016601562
1738,160.27902221679688,-62.489990234375,165.55601501464844,573.519287109375
1739,158.20338439941406,-64.84238433837889,170.5188751220703,575.1723022460938
1740,170.99009704589844,-65.04434204101561,171.42391967773438,578.8486328125
1741,175.75099182128906,-66.73103332519531,169.400634765625,576.2718505859375
1742,167.2913360595703,-76.40615844726562,165.19699096679688,557.12353515625
1743,185.80758666992188,-67.14242553710939,170.9003448486328,559.5731811523439
1744,194.846923828125,-67.76699066162111,170.08877563476562,557.95751953125
1745,189.5923614501953,-79.77954864501953,163.0914306640625,549.9317016601561
1746,195.66595458984372,-76.27899932861328,158.87281799316406,539.3927001953125
1747,198.87478637695312,-74.32677459716797,157.9602813720703,539.751708984375
1748,200.950439453125,-64.35245513916016,167.3661346435547,550.7432861328125
1749,192.0831298828125,-71.54802703857422,165.45130920410156,546.95849609375
1750,175.7210693359375,-75.1607666015625,165.23065185546875,540.2640991210939
1751,178.84762573242188,-69.09091186523439,164.91650390625,547.227783203125
1752,183.22705078125,-61.3568000793457,174.7449493408203,564.846435546875
1753,166.6854705810547,-64.92840576171875,172.68052673339844,558.13330078125
1754,146.1309814453125,-63.85879135131836,161.37481689453125,557.3666381835939
1755,158.6820831298828,-57.37380599975586,166.7415771484375,564.2891845703125
1756,168.6376953125,-60.63125991821289,169.81202697753906,576.9637451171875
1757,161.0531768798828,-72.55406188964844,162.52296447753906,569.4390258789062
1758,183.0063934326172,-63.96350860595703,170.57870483398438,571.5969848632812
1759,178.76535034179688,-75.53102111816406,162.4070281982422,565.9010620117188
1760,184.6781311035156,-75.89005279541016,164.1124267578125,560.3660278320311
1761,176.8692169189453,-79.9964599609375,157.12254333496094,544.658447265625
1762,184.8763427734375,-80.25825500488281,156.49050903320312,530.7460327148439
1763,181.6862030029297,-71.61908721923828,154.63551330566406,536.9019165039061
1764,186.42466735839844,-69.90621185302734,159.5609588623047,541.37109375
1765,176.41294860839844,-70.4821548461914,159.29916381835938,539.7068481445311
1766,173.08070373535156,-65.30987548828125,160.01722717285156,531.8904418945311
1767,174.5355224609375,-68.05121612548828,161.23269653320312,534.9384765625
1768,179.95089721679688,-69.98474884033203,162.80718994140625,542.8857421875
1769,169.43055725097656,-73.13748168945312,158.02386474609375,534.6018676757811
1770,174.25128173828125,-55.06628799438477,172.68800354003906,553.847412109375
1771,173.65664672851562,-62.13469696044922,167.82240295410156,549.7447509765625
1772,172.93484497070312,-62.5610466003418,170.00650024414062,563.978759765625
1773,166.66302490234375,-63.52968215942383,167.56808471679688,563.8778076171875
1774,162.50425720214844,-66.79461669921875,160.51463317871094,559.5208129882811
1775,171.46505737304688,-63.85131072998047,162.1901092529297,565.5869140625
1776,178.9373779296875,-66.27476501464844,156.9318084716797,565.5195922851562
1777,168.90322875976562,-67.83056640625,158.07247924804688,558.4885864257811
1778,157.7059783935547,-74.19961547851562,156.36708068847656,553.7277221679689
1779,168.37216186523438,-64.88726043701172,160.09950256347656,560.32861328125
1780,174.6739044189453,-66.20745086669922,162.85581970214844,550.948974609375
1781,177.27687072753906,-74.47262573242188,158.5586700439453,539.5722045898439
1782,183.0101318359375,-69.65189361572266,159.89007568359375,538.367919921875
1783,189.09495544433597,-65.07425689697266,160.94097900390625,537.874267578125
1784,189.928955078125,-65.81101989746094,164.84918212890625,543.9366455078125
1785,181.6450653076172,-70.47467803955078,161.4832763671875,541.7787475585939
1786,174.20640563964844,-68.49253082275389,163.16249084472656,538.9439086914061
1787,168.86582946777344,-65.89329528808594,154.39242553710938,539.5422973632811
1788,175.73228454589844,-58.63415145874024,162.4893035888672,544.2994384765625
1789,174.09420776367188,-63.13325119018555,167.38482666015625,544.2171630859375
1790,175.679931640625,-56.5398063659668,176.71961975097656,544.8379516601561
1791,168.0954132080078,-52.58299255371094,168.15899658203125,546.2591552734375
1792,166.96221923828125,-63.68301773071289,169.1949462890625,549.2174072265625
1793,172.13824462890625,-58.63041305541992,177.5087432861328,561.794677734375
1794,164.68836975097656,-62.01128005981445,166.27781677246094,558.7466430664061
1795,161.19903564453125,-57.87495040893555,165.91131591796875,561.53662109375
1796,162.78475952148438,-64.12806701660156,164.08250427246094,568.0029296875
1797,163.33078002929688,-74.0350570678711,153.2928924560547,562.6959838867189
1798,173.02085876464844,-69.20310974121094,156.53164672851562,555.1900024414061
1799,173.05825805664062,-67.11624145507811,158.3417510986328,551.442626953125
1800,176.7458038330078,-68.42147064208984,165.45130920410156,549.3819580078125
1801,176.38302612304688,-66.90306854248047,164.37796020507812,546.9098510742189
1802,175.73602294921875,-71.04313659667969,158.54371643066406,536.0567016601561
1803,180.8409881591797,-58.52943420410156,159.6544647216797,541.853515625
1804,185.9609222412109,-63.2716293334961,164.16851806640625,546.1768798828125
1805,171.25189208984375,-65.91573333740234,162.6650848388672,538.9476318359375
1806,168.98550415039062,-59.76359939575195,167.4110107421875,545.5410766601561
1807,166.40872192382812,-55.533775329589844,166.28904724121094,550.750732421875
1808,171.07611083984375,-50.316612243652344,171.4463653564453,556.4017333984375
1809,164.32559204101562,-64.37490081787111,159.224365234375,544.4864501953125
1810,163.65989685058594,-64.62921142578125,161.8161163330078,541.079345703125
1811,164.9464111328125,-57.93104934692383,157.7770233154297,545.1708374023439
1812,167.33621215820312,-52.51567459106445,159.2617645263672,553.6117553710939
1813,167.34742736816406,-54.95035171508789,155.05812072753906,551.629638671875
1814,171.61839294433594,-57.1905517578125,157.8368682861328,555.9043579101561
1815,171.25936889648438,-62.26933288574219,155.75,552.8638305664061
1816,183.90771484375,-63.91862869262695,156.9841766357422,546.9921875
1817,177.0861358642578,-68.02503967285156,151.86050415039062,536.9879150390625
1818,178.40631103515625,-64.98450469970703,158.3417510986328,537.2123413085939
1819,180.14537048339844,-67.71836853027344,153.70053100585938,535.7575073242189
1820,187.7598114013672,-66.79461669921875,159.71429443359375,536.4082641601561
1821,176.689697265625,-71.86217498779297,157.9528045654297,530.936767578125
1822,179.6741485595703,-62.77796173095703,158.95883178710938,535.2002563476561
1823,181.67872619628903,-64.74140930175781,155.61163330078125,544.658447265625
1824,183.8703155517578,-68.27187347412111,158.4240264892578,553.4808959960939
1825,168.18890380859375,-68.91513824462889,155.85472106933594,552.4785766601561
1826,166.4423828125,-70.624267578125,155.51438903808594,541.2589111328125
1827,172.452392578125,-64.21781921386719,158.7980194091797,549.48291015625
1828,171.2257080078125,-61.65225219726562,159.7255096435547,546.700439453125
1829,165.75050354003906,-64.18790435791016,158.3529815673828,545.2007446289061
1830,160.03219604492188,-70.95712280273438,156.13894653320312,536.6962280273439
1831,173.3462371826172,-58.65285110473633,164.17599487304688,546.1357421875
1832,173.05078125,-59.83839797973633,158.70826721191406,552.4337158203125
1833,171.23692321777344,-54.6025390625,166.75279235839844,553.8324584960939
1834,166.58448791503906,-62.54608535766602,159.87136840820312,553.6641235351561
1835,171.12098693847656,-69.58084106445311,158.23329162597656,557.7705688476561
1836,176.9627227783203,-65.69882202148439,153.52102661132812,560.5305786132811
1837,169.1126708984375,-71.48445129394531,150.60389709472656,543.966552734375
1838,161.72262573242188,-78.1302490234375,145.68218994140625,538.1809692382811
1839,173.1480255126953,-75.40386199951172,154.19419860839844,543.4130859375
1840,172.5907745361328,-69.08717346191406,159.47494506835938,549.7372436523439
1841,171.57351684570312,-66.84323120117189,160.73155212402344,548.0131225585939
1842,169.39315795898438,-61.58119201660156,160.1182098388672,545.5447998046875
1843,170.18601989746094,-60.46670150756836,164.8603973388672,552.1158447265625
1844,177.40402221679688,-53.99293518066406,171.63336181640625,559.1019287109375
1845,173.8997344970703,-52.3660774230957,173.11436462402344,549.5913696289061
1846,167.77378845214844,-61.41289901733398,166.42367553710938,540.3052368164061
1847,168.3347625732422,-56.9511947631836,166.59197998046875,545.6607666015625
1848,175.76220703125,-53.18885803222656,177.39654541015625,549.4268188476561
1849,173.31631469726562,-55.58613204956055,173.5519256591797,550.8517456054689
1850,168.5516815185547,-60.59011840820313,168.82095336914062,548.7947998046875
1851,168.79476928710938,-57.75901412963867,162.04051208496094,555.5303344726561
1852,163.26719665527344,-63.56333923339844,156.1053009033203,556.6934814453125
1853,160.55203247070312,-68.02130126953125,162.98670959472656,557.0674438476561
1854,164.9426727294922,-68.17837524414061,156.9841766357422,559.9471435546875
1855,172.2317352294922,-63.79521179199219,163.23728942871094,557.8939819335939
1856,179.12437438964844,-68.78050231933594,158.82046508789062,555.2349243164061
1857,173.2265625,-66.41688537597656,156.29603576660156,549.1388549804689
1858,165.7205810546875,-68.25691223144531,157.4965362548828,546.7079467773439
1859,170.81057739257812,-58.48829650878906,161.8684844970703,552.8712768554689
1860,168.26370239257812,-60.90427017211914,158.02012634277344,557.7892456054689
1861,160.761474609375,-60.29092788696289,158.94761657714844,552.968505859375
1862,171.42018127441406,-61.37923812866211,162.8782501220703,559.8798828125
1863,167.3287353515625,-58.85106658935547,159.6956024169922,549.060302734375
1864,168.43948364257812,-53.4693489074707,167.64662170410156,555.8818969726561
1865,170.7657012939453,-54.26968765258789,168.02061462402344,550.4852294921875
1866,166.50595092773438,-59.09041976928711,165.38772583007812,539.3141479492189
1867,168.4282684326172,-53.20381546020508,161.8572540283203,542.2686767578125
1868,177.70321655273438,-54.9952278137207,163.5925750732422,548.555419921875
1869,174.07925415039062,-52.29875946044922,162.84085083007812,549.1725463867189
1870,164.1909637451172,-50.10343933105469,164.71080017089844,553.5369873046875
1871,163.1363067626953,-58.26016235351562,166.3900146484375,569.4652099609375
1872,159.97235107421875,-58.17414474487305,156.92807006835938,567.7710571289062
1873,159.7816162109375,-58.82488632202149,157.3656463623047,570.972412109375
1874,154.646728515625,-75.35150146484375,147.02481079101562,557.7667846679689
1875,169.07901000976562,-74.38287353515625,147.98223876953125,558.7990112304689
1876,170.8068389892578,-72.96544647216797,149.30615234375,553.6267700195311
1877,180.32862854003903,-71.12915802001953,152.33547973632812,551.9325561523439
1878,175.25732421875,-69.69677734375,154.45225524902344,539.1383666992189
1879,188.64242553710938,-67.92406463623047,156.5615692138672,547.7401123046875
1880,182.17987060546875,-70.14556121826172,155.12918090820312,546.6032104492189
1881,179.72650146484375,-60.82947158813477,158.91769409179688,555.5565185546875
1882,173.69778442382812,-63.61195755004883,165.99732971191406,550.761962890625
1883,173.84738159179688,-58.05072784423828,165.22691345214844,551.0985717773439
1884,171.9437713623047,-53.55910873413086,168.27493286132812,548.7686157226561
1885,167.04075622558594,-60.71727752685547,165.91131591796875,543.8095092773439
1886,163.64866638183594,-57.34762573242188,170.02520751953125,539.833984375
1887,170.2084503173828,-55.46271514892578,169.12014770507812,543.3607177734375
1888,174.36721801757812,-45.11441421508789,178.15948486328125,551.9961547851561
1889,159.59835815429688,-51.04963302612305,174.26251220703125,547.81494140625
1890,158.86534118652344,-43.07990646362305,174.4083709716797,556.7794799804689
1891,167.30628967285156,-49.9837646484375,170.1261749267578,566.1591186523438
1892,178.45867919921875,-60.36946487426758,170.69464111328125,568.051513671875
1893,170.63107299804688,-70.24654388427734,165.22691345214844,557.5723266601561
1894,185.3887176513672,-65.63898468017578,169.8606414794922,557.721923828125
1895,176.5812530517578,-73.00658416748047,160.29397583007812,552.6207275390625
1896,185.30642700195312,-70.63549041748047,165.90383911132812,555.8519897460939
1897,181.0579071044922,-70.01840972900389,164.998779296875,547.7962646484375
1898,173.36492919921875,-73.03650665283203,164.0974578857422,543.0764770507811
1899,171.8203582763672,-64.71522521972656,166.87246704101562,555.537841796875
1900,170.02894592285156,-63.53342056274414,166.8126220703125,555.8145751953125
1901,158.19215393066406,-69.05351257324219,165.4064178466797,551.0611572265625
1902,162.55288696289062,-64.58433532714844,167.4895477294922,548.1141357421875
1903,163.61126708984375,-53.99667739868164,173.297607421875,553.095703125
1904,167.9720001220703,-54.815711975097656,164.34803771972656,550.7245483398439
1905,174.98431396484375,-60.2310905456543,166.58074951171875,546.25537109375
1906,172.17564392089844,-57.43364334106445,172.38133239746094,549.5540161132811
1907,167.61669921875,-59.28863525390625,167.8897247314453,556.8916625976561
1908,166.89491271972656,-50.81402206420898,167.68402099609375,558.380126953125
1909,168.24127197265625,-56.068580627441406,169.00794982910156,561.1439208984375
1910,168.84713745117188,-55.365478515625,162.14149475097656,545.5635375976561
1911,179.7489471435547,-53.93683624267578,165.30918884277344,543.9142456054689
1912,171.80165100097656,-60.78833389282226,161.03822326660156,544.1199340820311
1913,173.0545196533203,-63.86627197265625,164.80430603027344,542.2462158203125
1914,167.10433959960938,-63.05845260620117,159.2617645263672,533.3864135742189
1915,173.3948516845703,-57.90113067626953,166.71913146972656,551.3079833984375
1916,175.2984619140625,-62.77421951293945,168.08419799804688,553.3387451171875
1917,169.62876892089844,-61.99258041381836,162.0666961669922,549.3258666992189
1918,166.33018493652344,-58.83236694335938,162.60523986816406,547.8934936523439
1919,168.29736328125,-59.5728645324707,168.08045959472656,557.4638671875
1920,173.8174591064453,-58.34991836547852,163.45419311523438,563.5337524414062
1921,164.38543701171875,-62.213233947753906,159.11965942382812,553.0582885742189
1922,173.1779327392578,-60.414344787597656,165.01747131347656,559.1954345703125
1923,184.56967163085938,-62.64332580566406,169.20616149902344,556.65234375
1924,177.5910186767578,-55.18222427368164,168.02061462402344,561.0654296875
1925,171.54734802246094,-50.4288101196289,171.57725524902344,558.3726806640625
1926,161.8684844970703,-56.40517044067383,175.02545166015625,550.8480224609375
1927,171.41644287109375,-44.94985580444336,178.567138671875,560.1603393554689
1928,168.53672790527344,-49.05626678466797,175.87814331054688,563.0064086914062
1929,167.2090606689453,-48.99269104003906,168.91819763183594,553.2265625
1930,159.1869659423828,-56.27427291870117,164.576171875,547.9944458007811
1931,159.42259216308594,-52.60543441772461,160.98587036132812,547.3025512695311
1932,163.96656799316406,-53.98171615600586,166.62937927246094,549.236083984375
1933,166.87620544433594,-63.084632873535156,159.97608947753906,542.0853881835939
1934,179.7078094482422,-62.79291915893555,164.01144409179688,548.918212890625
1935,183.1223297119141,-66.22988891601561,161.16163635253906,546.7153930664061
1936,191.1182403564453,-73.8331069946289,161.24017333984375,555.328369140625
1937,178.02110290527344,-76.75396728515625,157.67605590820312,549.3707275390625
1938,182.87176513671875,-72.490478515625,163.3120880126953,559.610595703125
1939,181.4468536376953,-67.3668212890625,166.5620574951172,562.2247924804689
1940,181.59271240234372,-59.40457153320313,171.96621704101562,566.7537841796875
1941,175.44805908203125,-59.99547576904297,171.76051330566406,553.4995727539061
1942,170.47772216796875,-52.68770980834961,172.40003967285156,553.0321044921875
1943,172.7067108154297,-49.14976501464844,173.21533203125,553.8286743164061
1944,179.330078125,-55.4066162109375,173.99697875976562,555.3956909179689
1945,168.7237091064453,-53.37211227416992,171.23692321777344,538.6447143554689
1946,168.78355407714844,-55.86288452148438,166.87246704101562,530.2747802734375
1947,166.66302490234375,-49.59855270385742,173.1704559326172,550.9564819335939
1948,175.0404052734375,-51.83127212524414,177.1197967529297,560.9569702148439
1949,169.7559356689453,-61.88412475585938,165.10350036621094,557.1572265625
1950,172.81517028808594,-61.24834060668945,167.92337036132812,555.7809448242189
1951,176.45408630371094,-69.47238159179689,165.65699768066406,557.1759033203125
1952,184.330322265625,-63.967247009277344,167.08189392089844,559.99951171875
1953,184.2929229736328,-74.26319122314453,164.88284301757812,550.9788818359375
1954,182.4566345214844,-73.32447814941406,164.67340087890625,551.19580078125
1955,184.05731201171875,-67.90910339355469,170.33935546875,559.2515258789061
1956,183.37290954589844,-69.58457946777344,164.28445434570312,559.3525390625
1957,178.0472869873047,-69.36392211914061,168.23379516601562,556.31201171875
1958,173.82493591308594,-65.75865936279297,173.12184143066406,555.702392578125
1959,172.81890869140625,-61.940223693847656,171.99986267089844,555.45556640625
1960,171.93255615234375,-53.98545455932617,173.97079467773438,557.1422729492189
1961,174.36721801757812,-53.15519714355469,172.31776428222656,549.5090942382811
1962,168.58534240722656,-58.7687873840332,171.83905029296875,543.802001953125
1963,174.9169921875,-57.2616081237793,171.0050506591797,542.451904296875
1964,177.28060913085938,-58.02828598022461,171.9886474609375,545.1259765625
1965,176.5662841796875,-57.9647102355957,172.5496368408203,547.4783325195311
1966,164.9090118408203,-64.88352203369139,166.4872589111328,536.1314697265625
1967,183.4439697265625,-56.17703628540039,171.7380828857422,551.1210327148439
1968,177.17962646484375,-62.32543182373047,165.89634704589844,551.5510864257811
1969,160.97463989257812,-64.30384063720703,161.76002502441406,544.1124267578125
1970,172.9647674560547,-56.81282043457031,163.40184020996094,541.3037719726561
1971,179.33755493164062,-56.1695556640625,164.46771240234375,545.9786376953125
1972,178.555908203125,-58.8174057006836,162.72491455078125,549.0790405273439
1973,166.69668579101562,-64.54693603515625,157.24221801757812,541.9732055664061
1974,167.8298797607422,-65.99053192138672,162.76231384277344,551.9138793945311
1975,171.03497314453125,-62.47876739501953,161.91336059570312,554.8010864257811
1976,171.58099365234375,-67.23592376708984,163.05776977539062,556.5737915039061
1977,174.1914520263672,-66.81705474853516,164.50885009765625,556.1549072265625
1978,170.35804748535156,-69.09091186523439,162.60523986816406,555.4181518554689
1979,168.84339904785156,-61.23338317871094,166.33392333984375,562.123779296875
1980,177.74061584472656,-60.93793106079102,167.5905303955078,561.7684936523439
1981,168.01687622070312,-59.08667755126953,169.50161743164062,556.26708984375
1982,165.1221923828125,-56.62582397460938,165.06610107421875,543.8992309570311
1983,170.0438995361328,-58.14796447753906,167.22401428222656,546.2516479492189
1984,178.3464813232422,-55.3467788696289,164.7968292236328,542.5117797851561
1985,168.15525817871094,-55.96760177612305,170.73204040527344,547.6204833984375
1986,155.82106018066406,-55.50759506225586,162.3733673095703,545.0175170898439
1987,171.09481811523438,-43.04624938964844,166.20301818847656,553.1031494140625
1988,169.411865234375,-53.98919677734375,164.83421325683594,551.595947265625
1989,164.42283630371094,-59.26619338989258,161.97694396972656,549.6063232421875
1990,159.03363037109375,-63.2828483581543,163.3008575439453,547.579345703125
1991,176.79815673828125,-64.41230010986328,166.11326599121094,560.8671875
1992,180.23138427734372,-64.95084381103516,168.390869140625,562.8418579101561
1993,184.46495056152344,-62.39649200439453,167.94207763671875,559.4984130859375
1994,175.87066650390625,-71.44705200195312,166.9510040283203,546.393798828125
1995,184.22560119628903,-64.85360717773439,173.29013061523438,562.4304809570311
1996,184.3078765869141,-61.08378601074219,173.2639617919922,560.6278076171875
1997,174.50186157226562,-66.76469421386719,170.65350341796875,562.2434692382811
1998,154.58316040039062,-62.22445678710938,173.20411682128906,548.8658447265625
1999,165.6719512939453,-46.80858612060547,182.8119201660156,559.3936767578125
2000,162.6127166748047,-44.325294494628906,178.5596466064453,559.4497680664061
2001,157.42173767089844,-43.521217346191406,180.762451171875,549.0902709960939
2002,157.18238830566406,-64.26644134521484,172.96102905273438,537.8406372070311
2003,165.503662109375,-50.7990608215332,181.01303100585938,559.1468505859375
2004,170.83676147460938,-59.99547576904297,177.8415985107422,553.40234375
2005,162.78475952148438,-62.30673217773438,173.2602081298828,557.95751953125
2006,162.34718322753906,-62.31795120239258,165.5447998046875,555.9454956054689
2007,175.9417266845703,-65.81849670410156,170.65724182128906,557.5648803710939
2008,188.26095581054688,-64.22530364990234,169.02664184570312,563.9376220703125
2009,184.00494384765625,-60.08523178100586,171.12847900390625,559.083251953125
2010,183.79925537109372,-66.81892395019531,168.05239868164062,560.367919921875
2011,181.3832855224609,-68.98806762695311,170.52073669433594,561.6394653320311
2012,184.9623565673828,-63.87936019897461,173.6061553955078,565.3494262695312
2013,168.06922912597656,-69.72108459472656,166.87059020996094,559.1561889648439
2014,170.47024536132812,-68.61033630371094,170.09439086914062,555.7753295898439
2015,175.5116424560547,-60.59198760986328,169.78024291992188,558.8644409179689
2016,165.163330078125,-74.0406723022461,159.3272247314453,549.993408203125
2017,171.10977172851562,-59.3204231262207,168.5086669921875,552.11767578125
2018,170.0775604248047,-63.32959747314453,166.3021240234375,549.9747314453125
2019,179.412353515625,-58.54252243041992,169.9111328125,555.0572509765625
2020,171.6520538330078,-59.42514038085938,168.69192504882812,557.0992431640625
2021,160.080810546875,-62.22632598876953,162.25555419921875,543.66552734375
2022,157.369384765625,-67.79877471923828,157.34881591796875,544.5668334960939
2023,162.4967803955078,-62.29364395141602,160.9765167236328,560.4651489257811
2024,166.771484375,-67.91471099853516,160.48284912109375,561.014892578125
2025,165.06610107421875,-71.8790054321289,161.0924530029297,552.6188354492189
2026,168.52923583984375,-67.77633666992189,162.43133544921875,552.46923828125
2027,171.40896606445312,-71.77803039550781,162.15084838867188,549.335205078125
2028,173.7277069091797,-64.60490417480469,164.6116943359375,563.1055297851562
2029,167.5755615234375,-67.06575775146484,164.5256805419922,552.7086181640625
2030,170.04763793945312,-66.5159912109375,166.16375732421875,552.16259765625
2031,175.23487854003906,-69.23863983154297,168.7667236328125,559.1860961914061
2032,172.6655731201172,-67.67162322998047,171.64645385742188,565.6748046875
2033,159.2318572998047,-71.99120330810547,169.5334014892578,568.2291870117188
2034,163.73095703125,-74.73255157470703,172.6337890625,565.3681640625
2035,167.04075622558594,-72.16697692871094,173.3443603515625,570.6376953125
2036,166.0534210205078,-65.65207672119139,172.199951171875,571.43798828125
2037,171.65953063964844,-65.40898132324219,172.59263610839844,567.1820068359375
2038,164.5724334716797,-66.06346130371094,172.83200073242188,557.2376098632811
2039,169.0341339111328,-56.23500442504883,170.11683654785156,557.3759765625
2040,180.61285400390625,-63.00422286987305,171.91946411132812,558.5428466796875
2041,176.3044891357422,-63.42683410644531,177.09548950195312,556.6317749023439
2042,170.926513671875,-67.64170074462889,166.75091552734375,547.8018188476561
2043,170.86668395996094,-66.46363067626953,163.11947631835938,556.800048828125
2044,161.29627990722656,-67.33129119873047,161.11488342285156,557.4769897460939
2045,158.90647888183594,-64.58994293212889,161.0924530029297,557.963134765625
2046,151.01528930664062,-55.326210021972656,166.32830810546875,551.1453247070311
2047,160.60064697265625,-48.878623962402344,168.5872039794922,565.7384033203125
2048,167.69525146484375,-64.70961761474611,166.5227813720703,559.1038208007811
2049,168.15150451660156,-61.156715393066406,169.6156768798828,560.0724487304689
2050,167.4671173095703,-66.75908660888672,168.43760681152344,554.6795043945311
2051,177.2095489501953,-60.99963760375977,173.61737060546875,561.31787109375
2052,181.85824584960938,-59.4101791381836,172.0727996826172,559.2683715820311
2053,176.9066162109375,-65.30800628662111,169.828857421875,545.7822875976561
2054,182.2023162841797,-62.66389465332031,175.47984313964844,555.4237670898439
2055,184.9286956787109,-61.32126998901367,178.29225158691406,562.7576904296875
2056,182.69224548339844,-60.27409744262695,174.14096069335938,553.5800170898439
2057,173.3350067138672,-69.71734619140625,166.74717712402344,540.8568725585939
2058,172.2841033935547,-62.67885208129883,169.2454376220703,540.7820434570311
2059,176.20726013183594,-62.97804641723633,168.17208862304688,552.3308715820311
2060,173.24899291992188,-59.99734497070313,174.51869201660156,561.1495361328125
2061,162.01808166503906,-70.031494140625,168.11598205566406,561.82275390625
2062,152.22702026367188,-72.44747161865234,165.7523651123047,563.4533081054688
2063,168.20013427734375,-70.61492156982422,171.9044952392578,567.0960083007812
2064,171.84278869628906,-70.54012298583984,162.60711669921875,567.5634765625
2065,173.4359893798828,-59.058631896972656,171.13034057617188,569.8897094726562
2066,168.10289001464844,-65.74182891845703,174.59722900390625,557.91455078125
2067,171.34912109375,-63.35203552246094,172.89930725097656,563.4047241210938
2068,181.31222534179688,-61.33622741699219,174.79917907714844,559.5413818359375
2069,175.7173309326172,-70.5887451171875,169.3277130126953,549.2791137695311
2070,178.4736328125,-62.95934677124024,167.50637817382812,545.1502685546875
2071,175.59017944335938,-59.18952560424805,174.21575927734375,546.3544921875
2072,175.66122436523438,-59.3802604675293,170.11683654785156,549.357666015625
2073,162.08538818359375,-59.40644073486328,170.64788818359375,542.2256469726561
2074,157.68727111816406,-49.4732666015625,176.67662048339844,546.3993530273439
2075,150.8694305419922,-58.89407348632813,168.97242736816406,545.673828125
2076,165.3017120361328,-60.853782653808594,161.56741333007812,545.7224731445311
2077,161.21774291992188,-61.31753158569336,166.1375732421875,549.4249877929689
2078,165.01747131347656,-64.89287567138672,162.61459350585938,545.6776123046875
2079,179.63674926757812,-64.2271728515625,162.79409790039062,555.8538208007811
2080,174.41958618164062,-68.93196868896484,159.0205535888672,558.150146484375
2081,172.77403259277344,-63.27349853515625,160.40805053710938,561.3627319335939
2082,162.74362182617188,-64.28327178955078,163.35508728027344,557.8734130859375
2083,165.8477325439453,-64.31693267822266,161.58612060546875,562.9297485351561
2084,173.58558654785156,-65.20328521728516,164.4097442626953,562.8587036132811
2085,162.54539489746094,-64.15611267089844,169.58201599121094,558.161376953125
2086,165.33163452148438,-65.7119140625,163.69168090820312,555.9996948242189
2087,170.72830200195312,-55.5767822265625,171.4931182861328,563.3785400390625
2088,170.32064819335938,-52.64470291137695,171.64271545410156,561.0037231445311
2089,155.17779541015625,-69.09278106689453,160.10511779785156,543.1307373046875
2090,161.69644165039062,-59.15960693359375,170.36740112304688,545.7112426757811
2091,165.43634033203125,-60.01978302001953,167.94020080566406,547.4614868164061
2092,177.98370361328125,-60.203041076660156,166.0590362548828,545.449462890625
2093,178.15948486328125,-60.86874008178711,171.28741455078125,546.0478515625
2094,173.45094299316406,-63.90180206298828,175.3414764404297,542.210693359375
2095,184.30039978027344,-59.66823196411133,168.62086486816406,539.2711181640625
2096,175.58642578125,-68.42707824707031,155.90895080566406,542.9998168945311
2097,165.00999450683594,-73.60684204101562,153.15638732910156,541.9489135742189
2098,165.12966918945312,-69.73230743408203,153.56028747558594,537.633056640625
2099,169.67738342285156,-67.74641418457031,156.9822998046875,551.1976928710939
2100,167.4521484375,-71.10110473632812,153.64256286621094,551.77734375
2101,161.3448944091797,-69.02920532226561,156.12586975097656,554.48876953125
2102,154.46722412109375,-65.58475494384766,154.12127685546875,547.19970703125
2103,159.17201232910156,-60.95101928710938,161.04383850097656,543.3475952148439
2104,158.74940490722656,-55.77125930786133,161.4402618408203,540.5538940429689
2105,166.03846740722656,-55.56930160522461,168.66200256347656,541.013916015625
2106,172.6244354248047,-53.9873275756836,171.38465881347656,548.38525390625
2107,178.72421264648438,-58.32561111450195,170.0382843017578,546.0067138671875
2108,186.80239868164062,-68.3822021484375,166.78831481933594,548.3067626953125
2109,173.57810974121094,-63.95415878295898,170.11683654785156,543.231689453125
2110,170.89659118652344,-62.23380661010742,163.13442993164062,538.171630859375
2111,170.81431579589844,-58.2470703125,164.406005859375,542.4650268554689
2112,172.4262237548828,-59.81409072875977,163.8038787841797,545.8121948242189
2113,167.1267852783203,-67.49210357666016,164.26388549804688,536.8738403320311
2114,172.5047607421875,-61.9495735168457,168.07858276367188,552.3009643554689
2115,179.97708129882812,-72.16697692871094,166.34701538085938,557.8397216796875
2116,180.52310180664062,-73.69285583496094,160.61000061035156,562.6604614257811
2117,167.37734985351562,-74.6278305053711,161.91148376464844,560.697021484375
2118,163.11012268066406,-65.00132751464844,160.04901123046875,559.5077514648439
2119,169.37820434570312,-62.570396423339844,163.56826782226562,560.5399169921875
2120,164.38917541503906,-71.39656066894531,154.98519897460938,558.501708984375
2121,160.85870361328125,-63.96163940429688,155.72569274902344,555.1956176757811
2122,165.97862243652344,-59.53733825683594,165.93936157226562,556.1904296875
2123,172.78524780273438,-62.28616333007813,169.1930694580078,562.6641845703125
2124,175.52659606933594,-66.08216094970703,170.52821350097656,563.8834228515625
2125,170.85171508789062,-68.73748779296875,165.38211059570312,555.6818237304689
2126,170.257080078125,-71.99120330810547,169.1631622314453,546.9977416992189
2127,182.5127258300781,-57.4729118347168,172.73101806640625,554.8851928710939
2128,184.4499969482422,-67.96707153320311,176.96458435058594,551.508056640625
2129,186.39474487304688,-68.83098602294922,177.7574462890625,549.7054443359375
2130,174.94691467285156,-62.7947883605957,173.95770263671875,543.429931640625
2131,182.2097930908203,-58.49390411376953,182.56321716308597,548.3067626953125
2132,186.8061370849609,-55.95451354980469,178.89437866210938,537.820068359375
2133,184.3377990722656,-56.19386672973633,170.18040466308594,530.5534057617189
2134,166.58822631835938,-54.15936279296875,171.57913208007812,541.2196044921875
2135,176.01278686523438,-60.33767700195313,171.6090545654297,545.8346557617189
2136,182.123779296875,-66.38883209228516,164.6266632080078,555.7416381835939
2137,172.47857666015625,-66.41875457763672,165.99171447753906,557.0880126953125
2138,164.1909637451172,-67.15177154541016,166.33578491210938,555.4424438476561
2139,166.28155517578125,-64.66100311279297,168.19078063964844,560.4950561523439
2140,168.2562255859375,-63.76342391967773,164.0694122314453,554.9188842773439
2141,164.2807159423828,-69.27603912353516,156.50360107421875,547.8056030273439
2142,170.5413055419922,-66.86380004882811,161.27944946289062,549.193115234375
2143,171.20327758789062,-70.01654052734375,165.86830139160156,558.7036743164061
2144,176.83555603027344,-64.73580169677734,174.81788635253906,565.5028076171875
2145,166.24415588378906,-56.2686653137207,179.40673828125,558.183837890625
2146,171.33790588378906,-65.00132751464844,170.31878662109375,545.602783203125
2147,182.8979339599609,-61.9682731628418,185.4205017089844,560.3716430664061
2148,175.8968505859375,-54.48473358154297,181.42628479003903,561.658203125
2149,171.53237915039062,-55.84231567382813,183.53558349609372,550.3861083984375
2150,169.3744659423828,-51.49655151367188,181.6244964599609,549.1257934570311
2151,184.16575622558597,-39.54757308959961,189.73260498046875,552.069091796875
2152,179.2739715576172,-51.58631134033203,181.83767700195312,544.0955810546875
2153,167.5306854248047,-59.57847595214844,166.33204650878906,532.6403198242189
2154,166.50595092773438,-64.34684753417969,167.65597534179688,540.3893432617189
2155,170.24960327148438,-61.54192352294922,163.60940551757812,554.9525146484375
2156,176.2745819091797,-67.31259155273439,156.54473876953125,553.666015625
2157,157.84060668945312,-72.85137939453125,149.89144897460938,549.7279052734375
2158,158.77183532714844,-65.27434539794922,148.71337890625,548.336669921875
2159,159.96487426757812,-66.22801971435547,145.6765899658203,541.5823974609375
2160,165.44381713867188,-56.54915618896485,155.1123504638672,546.2198486328125
2161,158.68955993652344,-63.62130737304688,154.9964141845703,544.1890869140625
2162,153.7229766845703,-65.15467071533203,154.76828002929688,540.8082275390625
2163,168.70127868652344,-56.18638610839844,163.80014038085938,555.7865600585939
2164,173.66038513183594,-65.76052856445311,165.93936157226562,550.5993041992189
2165,173.71273803710938,-57.20737838745117,166.1936798095703,545.602783203125
2166,171.67449951171875,-53.83773040771485,166.5601806640625,539.1776123046875
2167,179.99951171875,-54.13692092895508,169.80641174316406,538.87841796875
2168,187.9281005859375,-55.63662338256836,171.9792938232422,536.5821533203125
2169,172.27288818359375,-55.81613540649414,166.0926971435547,533.115234375
2170,178.76161193847656,-47.2255859375,174.5785369873047,533.747314453125
2171,179.8760986328125,-50.95426559448242,173.21347045898438,541.9601440429689
2172,182.4715881347656,-55.46832656860352,173.23963928222656,548.6058959960939
2173,175.6013946533203,-54.772705078125,166.2273406982422,534.6897583007811
2174,172.60946655273438,-49.36854934692383,170.5543975830078,532.4345703125
2175,177.94630432128906,-46.122314453125,163.3064727783203,539.3160400390625
2176,175.62757873535156,-58.64350128173828,160.36691284179688,539.1028442382811
2177,165.77293395996094,-57.36819458007813,160.83065795898438,537.5881958007811
2178,163.14004516601562,-59.372779846191406,159.5142059326172,535.5274658203125
2179,163.10638427734375,-58.52382278442383,158.99063110351562,549.2042846679689
2180,168.7760772705078,-56.53045654296875,160.50527954101562,551.8334350585939
2181,163.65615844726562,-67.69779968261719,155.3741455078125,547.0015258789061
2182,168.3534698486328,-54.96717834472656,168.8527374267578,551.1416015625
2183,182.8455810546875,-54.86994171142578,173.32192993164062,555.8089599609375
2184,183.6533966064453,-55.67776107788086,172.02418518066406,547.9327392578125
2185,179.46470642089844,-52.44648742675781,176.3587188720703,552.2635498046875
2186,171.76051330566406,-65.44638061523439,171.33602905273438,540.8905029296875
2187,180.5605010986328,-53.23186492919922,180.95880126953125,545.427001953125
2188,182.9727325439453,-46.0699577331543,182.3388214111328,544.7987060546875
2189,175.86318969726562,-51.590049743652344,170.28138732910156,536.929931640625
2190,175.41439819335938,-47.84267044067383,179.17112731933594,534.1624145507811
2191,178.07347106933594,-51.64241027832031,173.03395080566406,536.2268676757811
2192,181.05416870117188,-57.25973892211914,168.61338806152344,544.2078247070311
2193,167.4072723388672,-61.79997634887695,161.50384521484375,538.4408569335939
2194,167.9196319580078,-59.6607551574707,160.69601440429688,547.3231201171875
2195,163.45045471191406,-62.22632598876953,155.44894409179688,546.4442749023439
2196,167.44093322753906,-64.25334930419922,154.50648498535156,554.4775390625
2197,159.78909301757812,-68.47570037841797,154.6149444580078,553.0713500976561
2198,157.67979431152344,-62.77609252929688,153.19378662109375,552.5253295898439
2199,170.1748046875,-59.61213684082031,158.61663818359375,565.2821655273438
2200,172.5309295654297,-63.66618728637695,161.1373291015625,566.822998046875
2201,174.42332458496094,-62.89576721191406,172.20742797851562,565.7122192382812
2202,176.12498474121094,-63.26227951049805,174.93382263183594,569.77001953125
2203,184.42755126953125,-57.53274917602539,175.5546417236328,568.0496826171875
2204,177.98370361328125,-64.12993621826172,170.57308959960938,564.8034057617188
2205,173.0470428466797,-57.233558654785156,176.96084594726562,554.7543334960939
2206,175.82952880859375,-56.81843185424805,182.6716766357422,544.9894409179689
2207,183.76559448242188,-49.641563415527344,181.8750762939453,541.7133178710939
2208,188.63868713378903,-53.82651138305664,177.880859375,548.149658203125
2209,178.29037475585938,-62.11786651611328,172.2523193359375,534.4541625976561
2210,180.22764587402344,-53.5983772277832,176.45596313476562,538.7699584960939
2211,187.21939086914062,-58.65658950805664,167.20718383789062,535.5780029296875
2212,180.5698547363281,-57.35136413574219,167.45028686523438,547.7027587890625
2213,167.76443481445312,-63.92610931396485,158.53810119628906,545.3092041015625
2214,165.87203979492188,-66.85819244384766,157.2777557373047,549.7073364257811
2215,174.45884704589844,-68.47008514404297,161.06626892089844,553.7725830078125
2216,179.19357299804688,-64.72270965576172,165.0455322265625,565.8038330078125
2217,169.47731018066406,-68.56732940673828,160.09764099121094,559.7938232421875
2218,166.30587768554688,-70.19418334960939,166.2310791015625,565.1718139648438
2219,163.66549682617188,-63.91489028930664,161.2607421875,565.0783081054688
2220,172.0391387939453,-64.21408081054689,165.498046875,568.5825805664062
2221,181.8264617919922,-63.02853393554688,174.3653564453125,568.51904296875
2222,179.6199188232422,-63.99342727661133,174.8291015625,561.970458984375
2223,185.53643798828125,-57.80763244628906,176.84117126464844,564.4649658203125
2224,183.75624084472656,-63.82139205932617,173.14614868164062,551.8278198242189
2225,172.53280639648438,-56.87639999389648,170.1317901611328,544.2059326171875
2226,173.53883361816406,-48.21105194091797,184.2349548339844,541.0344848632811
2227,181.88255310058597,-50.46995162963867,182.5894012451172,537.82568359375
2228,186.87158203125,-48.44292449951172,178.9055938720703,542.0330200195311
2229,169.4473876953125,-57.08957290649414,173.44908142089844,534.2839965820311
2230,166.14505004882812,-60.97158813476562,168.81533813476562,534.6542358398439
2231,170.838623046875,-51.760215759277344,171.0518035888672,552.2018432617189
2232,169.46983337402344,-57.50470352172852,167.85044860839844,553.0433349609375
2233,170.32252502441406,-60.24604797363281,163.2653350830078,552.8450927734375
2234,162.81654357910156,-63.13698959350586,163.74403381347656,555.1339111328125
2235,168.87518310546875,-61.86168670654297,165.82716369628906,573.26123046875
2236,165.498046875,-64.11684417724611,166.45172119140625,569.4203491210938
2237,165.04177856445312,-65.81849670410156,166.92669677734375,565.0558471679688
2238,167.93646240234375,-69.36392211914061,167.21841430664062,568.590087890625
2239,179.8443145751953,-59.5205078125,173.890380859375,575.0488891601562
2240,173.6024169921875,-64.71897125244139,166.96409606933594,562.1873779296875
2241,169.3202362060547,-68.92635345458984,166.83319091796875,551.5623168945311
2242,168.31419372558594,-61.177284240722656,165.920654296875,545.6270751953125
2243,174.71690368652344,-57.66925811767578,167.4016571044922,545.1596069335939
2244,181.8750762939453,-61.71957015991211,170.7264404296875,553.7763061523439
2245,171.64645385742188,-51.11695098876953,171.66514587402344,547.4334716796875
2246,175.7304229736328,-46.77119064331055,173.28079223632812,539.1159057617189
2247,177.16653442382812,-44.897499084472656,173.97267150878906,540.4959716796875
2248,172.85816955566406,-50.97109603881836,167.77191162109375,533.4200439453125
2249,165.06796264648438,-52.02574920654297,165.55789184570312,528.707763671875
2250,165.8533477783203,-55.533775329589844,162.21441650390625,528.1766967773439
2251,172.95541381835938,-57.2840461730957,162.76419067382812,536.3334350585939
2252,173.99884033203125,-56.8502197265625,162.75669860839844,543.0091552734375
2253,165.1165771484375,-64.93962097167969,157.25157165527344,544.0526123046875
2254,167.10621643066406,-60.032875061035156,155.93138122558594,549.0790405273439
2255,173.92030334472656,-59.39709091186523,160.55764770507812,557.392822265625
2256,172.94046020507812,-61.027687072753906,164.1853485107422,566.8211059570312
2257,162.14710998535156,-61.641029357910156,161.3018798828125,566.1068115234375
2258,166.16001892089844,-67.60990905761719,161.24952697753906,563.93017578125
2259,167.6634521484375,-64.21781921386719,165.1652069091797,569.2146606445312
2260,178.95794677734375,-63.15943145751953,166.6088104248047,563.0812377929688
2261,168.80038452148438,-65.75492095947266,167.65223693847656,559.3114013671875
2262,179.79942321777344,-60.414344787597656,172.7198028564453,552.2317504882811
2263,178.93551635742188,-56.33411407470703,167.73077392578125,546.5209350585939
2264,182.22662353515625,-65.882080078125,166.3395233154297,533.8426513671875
2265,176.0296173095703,-62.41144943237305,166.04782104492188,528.225341796875
2266,172.09523010253906,-59.93563842773438,167.5363006591797,519.092529296875
2267,174.8665008544922,-55.728248596191406,170.3374786376953,527.9298706054689
2268,183.3822479248047,-49.965065002441406,172.2523193359375,532.3990478515625
2269,173.65103149414062,-53.83586120605469,169.7017059326172,529.4146118164061
2270,172.18499755859375,-52.23518371582031,172.26353454589844,537.5526733398439
2271,176.777587890625,-56.44256973266602,166.40310668945312,538.8653564453125
2272,177.3385772705078,-54.93539047241211,162.59214782714844,539.1196899414061
2273,161.2196044921875,-54.9129524230957,159.00558471679688,537.9677734375
2274,161.7731170654297,-59.59904479980469,156.54098510742188,541.7376098632811
2275,163.1232147216797,-56.72306442260742,162.38272094726562,549.2959594726561
2276,171.6090545654297,-60.9940299987793,160.85684204101562,556.4616088867189
2277,164.03575134277344,-56.91379928588867,164.34242248535156,557.0861206054689
2278,167.16604614257812,-64.87978363037111,162.23312377929688,558.7578735351561
2279,173.67347717285156,-59.43449020385742,171.1490478515625,562.7034912109375
2280,179.9265899658203,-55.728248596191406,170.66659545898438,564.5921020507812
2281,175.67431640625,-59.60652542114258,170.74887084960938,558.589599609375
2282,173.99136352539062,-58.33869934082031,170.86480712890625,547.5007934570311
2283,175.82017517089844,-52.717628479003906,171.28741455078125,545.2119750976561
2284,186.58360290527344,-51.82379531860352,178.89437866210938,552.332763671875
2285,182.0957336425781,-68.08487701416016,171.93067932128906,539.6021118164061
2286,187.5933837890625,-54.98027038574219,178.32217407226562,534.3550415039061
2287,183.79737854003903,-56.12467956542969,172.60760498046875,527.2305297851561
2288,183.20648193359372,-52.07062530517578,170.49081420898438,531.6510620117189
2289,173.3817596435547,-54.72221755981445,170.5543975830078,530.8843994140625
2290,164.13673400878906,-53.31227493286133,167.30816650390625,539.224365234375
2291,161.58985900878906,-57.22420883178711,159.58900451660156,550.5712280273439
2292,165.78602600097656,-57.89739227294922,161.9376678466797,552.8076782226561
2293,152.9207763671875,-68.86651611328125,150.51226806640625,545.9636840820311
2294,162.9062957763672,-62.34039306640625,155.34422302246094,553.1106567382811
2295,161.02513122558594,-60.58263778686523,164.71267700195312,563.60107421875
2296,159.04298400878906,-63.17065048217773,159.88446044921875,565.4298706054688
2297,160.95407104492188,-67.73332977294922,152.93572998046875,552.3289794921875
2298,162.3266143798828,-64.46839904785156,155.5760955810547,560.4857177734375
2299,176.00343322753906,-63.18560791015625,163.0035400390625,570.1234130859375
2300,177.01319885253906,-64.15424346923828,163.19427490234375,565.362548828125
2301,169.9971466064453,-58.85854721069336,164.60421752929688,555.5004272460939
2302,166.601318359375,-62.149658203125,159.97047424316406,551.5847778320311
2303,176.81124877929688,-47.14891815185547,170.31878662109375,551.2631225585939
2304,173.4827423095703,-56.9511947631836,166.0590362548828,546.8313598632811
2305,166.97157287597656,-61.4278564453125,165.3708953857422,533.2554931640625
2306,163.37753295898438,-62.089820861816406,164.92210388183594,522.3948364257811
2307,173.02647399902344,-49.23952102661133,158.2052459716797,521.216796875
2308,173.3480987548828,-45.67913818359375,163.78517150878906,527.873779296875
2309,169.9896697998047,-57.11575317382813,158.43338012695312,528.4572143554689
2310,165.0305633544922,-62.36657333374024,159.15892028808594,537.2908325195311
2311,169.3501434326172,-56.4575309753418,160.64739990234375,553.9296875
2312,173.96517944335938,-59.31855392456055,160.6698455810547,564.9735717773438
2313,169.25665283203125,-64.08318328857422,148.56752014160156,556.6785278320311
2314,149.4389190673828,-66.57022094726561,148.19354248046875,562.74462890625
2315,169.3501434326172,-55.51133346557617,154.5326690673828,583.57958984375
2316,169.97845458984375,-59.04928207397461,160.1986083984375,585.0082397460938
2317,148.01776123046875,-68.21577453613281,153.23866271972656,571.3651123046875
2318,154.40550231933594,-57.10827255249024,164.55934143066406,572.8722534179688
2319,167.7831268310547,-56.790382385253906,166.40684509277344,566.1928100585938
2320,174.1521759033203,-46.10548782348633,169.6269073486328,561.0242919921875
2321,164.4097442626953,-54.65863800048828,167.18475341796875,544.834228515625
2322,173.91282653808594,-54.36692428588867,165.4531707763672,541.8198852539061
2323,185.7047271728516,-54.78953552246094,168.79664611816406,540.6118774414061
2324,181.7441711425781,-67.43787384033203,156.16700744628906,528.7750854492189
2325,180.6371612548828,-63.90367126464844,156.765380859375,528.1842041015625
2326,176.56068420410156,-62.63584518432617,156.70181274414062,523.5392456054689
2327,189.6204071044922,-54.82319259643555,166.49661254882812,534.59814453125
2328,190.4656219482422,-54.35944747924805,163.0409393310547,542.5379638671875
2329,180.5661163330078,-56.22939682006836,164.1442108154297,537.5750732421875
2330,171.08172607421875,-56.54728698730469,158.83355712890625,541.419677734375
2331,176.82620239257812,-53.08414077758789,163.37379455566406,556.2147216796875
2332,171.87832641601562,-59.692543029785156,167.1585693359375,563.4476928710938
2333,160.4604034423828,-60.69857788085938,165.0492706298828,556.48779296875
2334,156.45497131347656,-64.64043426513672,163.41867065429688,559.446044921875
2335,156.436279296875,-63.55212020874024,161.7319793701172,568.3582153320312
2336,163.9048614501953,-61.27078247070313,162.28173828125,576.8029174804688
2337,155.12730407714844,-67.77446746826172,163.32891845703125,559.599365234375
2338,166.37318420410156,-57.6842155456543,169.23794555664062,564.5584716796875
2339,178.3446044921875,-54.55392074584961,171.5679168701172,567.15771484375
2340,184.3957672119141,-57.68047714233398,173.11622619628906,556.59619140625
2341,177.00198364257812,-63.52220153808594,166.5340118408203,538.3641967773439
2342,188.7003936767578,-56.16581726074219,174.2269744873047,538.7232666015625
2343,193.26681518554688,-59.29237365722656,168.5872039794922,539.400146484375
2344,195.15919494628903,-56.04240036010742,166.2310791015625,541.2850952148439
2345,180.7979888916016,-65.73248291015625,159.28607177734375,529.4146118164061
2346,180.8877410888672,-68.67578125,163.2054901123047,529.0556030273439
2347,185.4317169189453,-59.10163879394531,166.5639190673828,538.7793579101561
2348,183.7786865234375,-68.20081329345703,160.31080627441406,549.5315551757811
2349,172.60012817382812,-66.52533721923828,161.27944946289062,551.6820068359375
2350,165.96554565429688,-66.25232696533203,157.00100708007812,552.4935302734375
2351,167.89158630371094,-73.96025848388672,154.1511993408203,562.968994140625
2352,162.10971069335938,-72.58771514892578,152.4009246826172,567.0043334960938
2353,164.54811096191406,-70.76638793945312,156.58587646484375,569.0426025390625
2354,173.1835479736328,-67.63234710693361,158.85972595214844,574.2223510742188
2355,169.19680786132812,-68.76554107666016,161.72824096679688,574.5626831054688
2356,168.41517639160156,-69.92491149902344,164.6939697265625,574.4804077148438
2357,166.6050567626953,-74.92141723632812,168.23565673828125,574.4168701171875
2358,170.93212890625,-76.64176940917969,164.1516876220703,566.3162231445312
2359,179.33193969726562,-69.3564453125,165.17642211914062,566.0955810546875
2360,185.63742065429688,-74.13603973388672,164.5331573486328,555.1451416015625
2361,182.18548583984372,-73.1524429321289,165.35220336914062,543.1886596679689
2362,179.3693389892578,-67.44535827636719,169.05844116210938,535.5480346679689
2363,176.13058471679688,-59.08667755126953,171.8334503173828,535.5966796875
2364,186.6097869873047,-56.0274429321289,175.53221130371094,536.195068359375
2365,184.4518585205078,-61.18102264404297,173.26956176757812,533.1919555664061
2366,175.92115783691406,-58.68276977539063,168.87144470214844,540.5894775390625
2367,175.4536590576172,-58.32373809814453,168.28802490234375,553.7613525390625
2368,168.8452606201172,-68.1297607421875,161.9825439453125,553.1966552734375
2369,161.37294006347656,-71.2002182006836,162.42759704589844,554.5542602539061
2370,161.20465087890625,-65.80354309082031,161.16351318359375,555.6986694335939
2371,169.90365600585938,-64.42725372314453,162.00872802734375,569.3455200195312
2372,177.35353088378906,-65.82224273681639,162.89881896972656,571.9447631835938
2373,171.76986694335938,-62.72934341430664,166.59010314941406,574.0578002929688
2374,168.6059112548828,-67.25462341308594,166.50408935546875,572.1093139648438
2375,172.79086303710938,-74.016357421875,160.42300415039062,566.6004638671875
2376,179.85926818847656,-63.084632873535156,166.14505004882812,564.6669311523438
2377,180.7231903076172,-60.2722282409668,171.96807861328125,564.023681640625
2378,174.29803466796875,-62.64706420898438,169.52218627929688,544.5238037109375
2379,190.3235015869141,-56.64826583862305,169.8251190185547,540.8886108398439
2380,181.60206604003903,-68.68700408935547,163.385009765625,539.5198364257811
2381,173.44908142089844,-67.84926605224611,160.2135772705078,533.6145629882811
2382,171.32107543945312,-65.21637725830078,160.9615478515625,539.3627319335939
2383,178.15013122558594,-59.22131729125977,163.22793579101562,543.1699829101561
2384,182.8773651123047,-58.61171340942383,170.3075714111328,548.2412719726561
2385,178.50167846679688,-67.70714569091797,167.4540252685547,537.0440063476561
2386,185.521484375,-62.69568252563477,168.8527374267578,536.5503540039061
2387,191.4791412353516,-61.51387405395508,165.70748901367188,538.9924926757811
2388,184.60894775390625,-59.99547576904297,160.20236206054688,542.7997436523439
2389,169.6568145751953,-61.637290954589844,154.3494110107422,538.5474853515625
2390,164.18161010742188,-63.48480224609375,151.63424682617188,539.0972290039061
2391,170.5955352783203,-55.7880859375,156.17822265625,553.4397583007811
2392,168.478759765625,-65.59036254882811,156.9785614013672,563.638427734375
2393,170.60301208496094,-68.56358337402344,154.76454162597656,561.6563110351561
2394,166.59010314941406,-66.49916076660156,162.91004943847656,563.0999145507812
2395,168.74803161621094,-68.39154815673828,165.44569396972656,570.9873657226562
2396,170.89846801757812,-67.16112518310547,168.66574096679688,564.143310546875
2397,180.4389495849609,-67.067626953125,168.23939514160156,554.6140747070311
2398,172.6749267578125,-64.21034240722656,164.33868408203125,550.0626220703125
2399,180.14724731445312,-62.81536102294922,167.5774383544922,547.9271240234375
2400,173.69590759277344,-69.34148406982422,162.89881896972656,545.5186157226561
2401,175.52845764160156,-63.56333923339844,170.98822021484375,539.1084594726561
2402,183.3074493408203,-65.91199493408203,168.5572967529297,538.8578491210939
2403,186.84539794921875,-58.27886199951172,167.5400390625,545.9300537109375
2404,184.0741424560547,-60.38068389892578,163.1232147216797,547.4559326171875
2405,175.7266845703125,-75.4412612915039,153.6463165283203,541.4570922851561
2406,169.2454376220703,-58.62293243408203,161.99375915527344,540.9409790039061
2407,165.8346405029297,-61.89160537719727,153.6687469482422,540.7913818359375
2408,174.3690948486328,-61.05012512207031,161.87782287597656,553.2228393554689
2409,168.67697143554688,-69.26294708251953,156.9037628173828,547.6017456054689
2410,168.983642578125,-63.3052864074707,156.78408813476562,551.6445922851561
2411,171.24627685546875,-62.94999694824219,160.22853088378906,559.9733276367189
2412,174.72064208984375,-58.94082260131836,169.37258911132812,569.5923461914062
2413,164.86227416992188,-68.82911682128906,172.42434692382812,567.7822875976562
2414,168.25062561035156,-72.18006896972656,169.1519317626953,560.2987060546875
2415,177.74623107910156,-66.99282836914061,165.1652069091797,555.7659912109375
2416,177.08425903320312,-62.64332580566406,167.87289428710938,553.9708251953125
2417,170.8012237548828,-66.05785369873047,160.4716339111328,551.6820068359375
2418,165.1278076171875,-65.81849670410156,157.5844268798828,547.1529541015625
2419,166.37318420410156,-66.25606536865234,158.9868927001953,547.474609375
2420,182.200439453125,-65.40711212158203,161.1747283935547,546.9884033203125
2421,175.90992736816406,-70.78882598876953,158.15663146972656,541.4982299804689
2422,173.9427490234375,-62.36657333374024,157.27401733398438,534.0259399414061
2423,178.91307067871094,-57.80389404296875,163.75526428222656,530.3084716796875
2424,188.88365173339844,-54.76709365844727,164.97447204589844,534.5943603515625
2425,174.90016174316406,-56.31541442871094,164.96697998046875,526.2244873046875
2426,174.6907196044922,-54.95035171508789,160.5015411376953,531.1761474609375
2427,170.9695281982422,-57.29526901245117,154.41673278808594,536.3745727539061
2428,176.1006622314453,-55.85914611816406,157.7415008544922,546.8837280273439
2429,181.09716796875,-62.62462615966797,154.90292358398438,557.6770629882811
2430,165.64016723632812,-64.85734558105469,155.36293029785156,559.7377319335939
2431,172.6188201904297,-59.45318984985352,156.49237060546875,572.8311157226562
2432,172.7085723876953,-62.96121597290039,158.86346435546875,570.0224609375
2433,170.1280517578125,-71.26005554199219,153.51541137695312,564.5023803710938
2434,173.1237030029297,-68.7169189453125,153.89688110351562,553.0919189453125
2435,172.89556884765625,-74.76808166503906,157.79385375976562,552.792724609375
2436,177.02816772460938,-68.43268585205078,163.61688232421875,549.247314453125
2437,175.2554473876953,-58.75382995605469,168.5124053955078,546.3302001953125
2438,182.2902069091797,-58.51073455810547,168.2057342529297,543.0951538085939
2439,188.8761749267578,-60.70979690551758,172.540283203125,541.0831298828125
2440,187.6233062744141,-58.59301376342773,176.32131958007812,543.8992309570311
2441,178.67745971679688,-66.25232696533203,168.19451904296875,538.6148071289061
2442,178.4642791748047,-65.48191070556639,167.5849151611328,534.2091674804689
2443,184.7435760498047,-61.52883529663086,164.3274688720703,529.9606323242189
2444,193.36404418945312,-56.80160140991211,171.04432678222656,536.4119873046875
2445,187.87013244628903,-55.8067855834961,166.6387176513672,534.39990234375
2446,185.4167633056641,-63.71293640136719,166.08895874023438,539.3104248046875
2447,176.29515075683594,-60.59011840820313,161.80677795410156,549.6885986328125
2448,174.4102325439453,-59.0792007446289,171.7362060546875,563.9451293945312
2449,160.20236206054688,-61.4502944946289,160.56886291503906,559.116943359375
2450,155.94635009765625,-58.8099250793457,162.9062957763672,563.5150146484375
2451,176.88604736328125,-56.5098876953125,168.66200256347656,577.4910278320312
2452,181.0522918701172,-65.64272308349611,165.92440795898438,572.0980834960938
2453,172.31588745117188,-71.63030242919922,163.36256408691406,563.2083740234375
2454,172.60012817382812,-69.68929290771484,163.93850708007812,558.8214721679689
2455,189.9981384277344,-70.57939147949219,171.38465881347656,557.2020874023439
2456,187.0099639892578,-74.3791275024414,165.23626708984375,553.649169921875
2457,181.0635223388672,-62.2506332397461,174.1222686767578,551.113525390625
2458,178.6475372314453,-66.70859527587889,172.77589416503906,549.0864868164061
2459,187.4961395263672,-63.06593322753906,181.41880798339844,552.5945434570311
2460,183.2364044189453,-59.920677185058594,176.94215393066406,541.4234619140625
2461,174.01380920410156,-61.8205451965332,169.4922637939453,530.9741821289061
2462,183.5580291748047,-47.055419921875,171.38465881347656,522.4097900390625
2463,189.19406127929688,-54.75213623046875,170.0083770751953,520.6744995117189
2464,189.4633331298828,-54.66611862182617,169.3277130126953,526.9612426757811
2465,174.922607421875,-57.01477432250977,165.74488830566406,524.4442749023439
2466,173.57997131347656,-56.00874328613281,158.6016845703125,530.1701049804689
2467,178.22866821289062,-57.30648803710938,158.126708984375,547.721435546875
2468,194.3625946044922,-63.07715225219727,160.9279022216797,551.89892578125
2469,170.40480041503906,-63.24544906616211,157.5844268798828,550.9340209960939
2470,169.7316131591797,-60.41060256958008,163.57948303222656,565.4934692382812
2471,167.09124755859375,-65.01441955566406,158.01077270507812,571.0696411132812
2472,167.67466735839844,-68.34293365478516,160.02658081054688,574.4804077148438
2473,172.98159790039062,-73.6124496459961,158.57923889160156,576.0025634765625
2474,185.33448791503903,-66.83201599121094,164.0133056640625,569.094970703125
2475,176.37368774414062,-67.73706817626953,167.25579833984375,573.0480346679688
2476,172.3345947265625,-68.24569702148439,163.91981506347656,566.5742797851562
2477,168.62460327148438,-72.28852844238281,161.70205688476562,562.4080200195311
2478,170.8872528076172,-69.91742706298828,165.82716369628906,554.6514892578125
2479,189.1192626953125,-58.98570251464844,171.40335083007812,559.6741333007811
2480,183.4009552001953,-62.32543182373047,167.85044860839844,548.8396606445311
2481,183.93576049804688,-63.503501892089844,172.5028839111328,544.9725952148439
2482,181.1495361328125,-55.728248596191406,170.83114624023438,533.5771484375
2483,183.07183837890625,-51.01971435546875,166.15628051757812,533.7865600585939
2484,179.47406005859375,-50.39889144897461,162.46499633789062,527.4063110351561
2485,176.1530303955078,-60.42182540893555,156.11090087890625,524.3919677734375
2486,172.56272888183594,-65.07051849365234,158.6390838623047,523.9319458007811
2487,177.293701171875,-56.70436477661133,159.55160522460938,542.5529174804689
2488,162.29295349121094,-66.73103332519531,155.239501953125,540.4510498046875
2489,160.2921142578125,-62.32917404174805,160.44171142578125,552.7142333984375
2490,161.6908416748047,-64.01213073730469,156.79904174804688,550.4777221679689
2491,178.40444946289062,-58.45463562011719,165.3746337890625,565.6355590820312
2492,170.3487091064453,-72.1688461303711,156.0510711669922,565.5869140625
2493,175.50228881835938,-67.490234375,168.1795654296875,568.1113891601562
2494,181.4449920654297,-67.60617065429689,173.0040283203125,575.5986328125
2495,189.8448028564453,-66.48419952392578,174.42520141601562,572.9844360351562
2496,181.4898681640625,-64.49831390380861,177.01319885253906,572.53564453125
2497,181.72174072265625,-71.48070526123047,173.396728515625,568.7022705078125
2498,178.84201049804688,-66.52533721923828,172.02792358398438,561.3197021484375
2499,181.16075134277344,-61.78314590454102,172.98159790039062,558.2230834960939
2500,177.22264099121094,-61.58119201660156,169.31649780273438,552.2542114257811
2501,182.4136199951172,-60.57889938354492,170.61048889160156,545.7991333007811
2502,183.31494140625,-59.70002365112305,168.01873779296875,532.473876953125
2503,194.6243896484375,-57.77771377563477,166.9790496826172,534.5869140625
2504,190.6675720214844,-50.58214569091797,169.37258911132812,534.8374633789061
2505,181.20188903808597,-41.741024017333984,170.88351440429688,539.3702392578125
2506,176.97206115722656,-45.53328323364258,171.08920288085938,542.39208984375
2507,178.479248046875,-44.508548736572266,172.3233642578125,551.1509399414061
2508,167.2408447265625,-42.028995513916016,170.3861083984375,551.6632690429689
2509,162.80906677246094,-52.68022918701172,159.5254364013672,543.6300048828125
2510,153.11898803710938,-56.678184509277344,150.93862915039062,537.0365600585939
2511,164.1105499267578,-69.92117309570311,151.17050170898438,546.8088989257811
2512,169.42494201660156,-70.50833129882812,149.1846160888672,557.8827514648439
2513,165.32228088378906,-71.71258544921875,148.44410705566406,562.6548461914061
2514,181.97979736328125,-71.83226013183594,161.0176544189453,566.1553955078125
2515,177.6377716064453,-64.25896453857422,160.6361846923828,567.6139526367188
2516,182.82501220703125,-63.23048782348633,167.61109924316406,578.227783203125
2517,174.21575927734375,-73.90790557861328,162.29295349121094,568.4554443359375
2518,163.2466278076172,-71.13663482666016,162.868896484375,558.6569213867189
2519,173.70339965820312,-62.99113464355469,167.64849853515625,563.0288696289062
2520,193.6221008300781,-62.5610466003418,166.13009643554688,557.6359252929689
2521,183.31494140625,-66.17005157470703,163.4635467529297,547.7177124023439
2522,184.31723022460938,-63.79521179199219,159.32347106933594,534.1381225585939
2523,188.2366485595703,-52.55307388305664,165.2960968017578,541.1654052734375
2524,179.39552307128906,-67.62113189697266,156.83644104003906,534.2503051757811
2525,181.95361328125,-65.01815795898439,159.828369140625,543.3831787109375
2526,171.96434020996094,-54.96905136108398,162.78662109375,544.363037109375
2527,164.54063415527344,-60.23482894897461,158.99436950683594,551.8839721679689
2528,169.31649780273438,-54.01911544799805,160.56138610839844,546.9509887695311
2529,160.92041015625,-55.61231231689453,159.488037109375,529.927001953125
2530,159.0093231201172,-61.40167617797852,158.2127227783203,529.223876953125
2531,183.7749481201172,-57.77771377563477,163.82257080078125,539.7030639648439
2532,186.9015045166016,-62.59844589233398,159.71990966796875,548.2449951171875
2533,182.2789764404297,-65.60906219482422,163.69168090820312,561.7273559570311
2534,179.5376434326172,-71.304931640625,155.38162231445312,564.8763427734375
2535,182.1331329345703,-76.40615844726562,159.5703125,572.0718994140625
2536,179.21226501464844,-84.01311492919922,160.0377960205078,567.8308715820312
2537,176.1044158935547,-77.65901947021484,165.4644012451172,567.8345947265625
2538,176.00717163085938,-67.67723083496094,168.43760681152344,562.1986083984375
2539,177.90704345703125,-66.77217102050781,165.70375061035156,560.0070190429689
2540,181.22059631347656,-64.51701354980469,167.23336791992188,562.1499633789061
2541,181.17572021484372,-66.05785369873047,162.23312377929688,550.03271484375
2542,185.3120422363281,-61.43533706665039,164.3536376953125,541.9208374023439
2543,186.14230346679688,-53.18885803222656,172.25979614257812,539.093505859375
2544,179.0813751220703,-55.82922744750977,168.14590454101562,531.639892578125
2545,177.31613159179688,-55.21962356567383,168.11598205566406,535.0244750976561
2546,177.38345336914062,-47.31347274780274,173.07508850097656,534.6130981445311
2547,173.33314514160156,-46.25508117675781,164.26388549804688,541.7861938476561
2548,173.24713134765625,-51.1393928527832,164.37608337402344,554.9020385742189
2549,168.69192504882812,-62.71812057495117,164.6902313232422,550.4852294921875
2550,173.51266479492188,-55.22336196899414,167.21092224121094,552.8488159179689
2551,180.24073791503903,-63.36886596679688,163.87493896484375,557.1572265625
2552,180.10610961914062,-71.69762420654297,160.1537322998047,549.845703125
2553,173.41168212890625,-63.52968215942383,161.16725158691406,554.3934326171875
2554,179.9639892578125,-60.43678283691406,161.15228271484375,556.536376953125
2555,182.7651672363281,-68.90017700195311,160.72219848632812,560.2388916015625
2556,181.4337615966797,-73.50773620605469,156.29042053222656,562.288330078125
2557,178.66998291015625,-65.54922485351561,156.8140106201172,561.22998046875
2558,179.04397583007812,-62.44884872436523,165.498046875,565.0035400390625
2559,165.94309997558594,-68.90017700195311,158.6465606689453,553.3536987304689
2560,171.62026977539062,-72.74105072021484,163.53460693359375,552.5870361328125
2561,164.14794921875,-72.20624542236328,158.52688598632812,543.5402221679689
2562,175.7528533935547,-59.0792007446289,161.99375915527344,544.8828735351561
2563,179.0402374267578,-55.7656478881836,162.0386505126953,539.6207885742189
2564,182.9222412109375,-55.63475036621094,157.59190368652344,535.174072265625
2565,185.1923675537109,-55.36174011230469,158.39598083496094,529.2725219726561
2566,189.99066162109372,-59.41579055786133,155.54991149902344,526.7181396484375
2567,194.2840576171875,-58.08812713623047,157.22914123535156,531.7258911132811
2568,189.7064208984375,-59.51302719116211,158.8111114501953,529.7362670898439
2569,180.36041259765625,-61.91030502319336,158.07435607910156,531.3967895507811
2570,173.57249450683594,-59.03432083129883,158.96444702148438,535.8584594726561
2571,179.17112731933594,-50.77288055419922,167.61483764648438,550.6348266601561
2572,173.97267150878906,-58.0469856262207,163.53086853027344,563.4215087890625
2573,172.39816284179688,-61.0650863647461,163.75900268554688,565.5944213867188
2574,167.3679962158203,-61.81680679321289,165.2923583984375,568.3768920898438
2575,183.11671447753903,-59.78229904174805,177.54800415039062,578.2913818359375
2576,183.0980224609375,-63.48106002807617,176.08570861816406,578.5606689453125
2577,179.81439208984375,-70.36248016357422,173.61737060546875,571.1818237304688
2578,176.3961181640625,-69.40880584716797,169.94479370117188,559.588134765625
2579,184.10031127929688,-66.50663757324219,175.27789306640625,557.82666015625
2580,179.1112823486328,-65.1602783203125,167.35304260253906,555.76220703125
2581,171.9381561279297,-59.09041976928711,170.32252502441406,542.72119140625
2582,162.6258087158203,-55.533775329589844,161.28692626953125,534.1942138671875
2583,180.1584625244141,-51.69663619995117,169.56332397460938,537.2609252929689
2584,178.93177795410156,-51.42362594604492,168.66574096679688,539.8302612304689
2585,171.63148498535156,-54.40806579589844,165.53170776367188,529.515625
2586,174.05868530273438,-53.56658554077149,160.04153442382812,521.1531982421875
2587,186.25450134277344,-57.79641342163086,162.96240234375,525.5213623046875
2588,182.0246734619141,-56.29671478271485,157.2852325439453,527.1669311523439
2589,182.2041931152344,-62.62088394165039,161.2233428955078,536.759765625
2590,186.2919006347656,-68.87400054931639,163.88241577148438,543.835693359375
2591,185.6972503662109,-66.62258148193361,166.6910858154297,562.8717651367189
2592,180.45391845703125,-69.438720703125,172.83200073242188,569.02392578125
2593,187.129638671875,-64.68904876708984,170.69651794433594,581.9677124023438
2594,166.0926971435547,-74.62222290039062,161.89279174804688,573.354736328125
2595,175.592041015625,-59.07172012329102,169.15940856933594,585.7188110351562
2596,167.51011657714844,-70.22784423828125,169.79519653320312,582.9625244140625
2597,163.9871368408203,-73.20106506347656,165.7112274169922,566.30126953125
2598,167.70458984375,-67.52389526367189,160.69227600097656,557.710693359375
2599,172.93670654296875,-61.56623458862305,161.04757690429688,561.4132080078125
2600,179.12998962402344,-66.84696960449219,162.08352661132812,557.7032470703125
2601,184.5603179931641,-56.70062255859375,172.51783752441406,563.0101318359375
2602,181.89002990722656,-48.05023574829102,173.901611328125,557.0562133789061
2603,178.04541015625,-45.237831115722656,175.95108032226562,557.3666381835939
2604,171.3996124267578,-45.8287353515625,178.66998291015625,554.7337646484375
2605,167.55499267578125,-52.78120803833008,173.20223999023438,542.463134765625
2606,164.60047912597656,-57.04095458984375,166.19741821289062,533.132080078125
2607,175.9884796142578,-51.49842071533203,164.3498992919922,525.326904296875
2608,178.9392547607422,-59.03805923461914,157.4909210205078,529.8035888671875
2609,171.84466552734375,-59.62522506713867,152.29246520996094,529.093017578125
2610,176.00343322753906,-68.66082000732422,152.97312927246094,535.9631958007811
2611,182.9259796142578,-65.36222839355469,161.52627563476562,562.1611938476561
2612,181.28042602539062,-72.86820983886719,158.81858825683594,568.7957763671875
2613,179.39178466796875,-70.8131332397461,167.7476043701172,575.4771118164062
2614,172.7833709716797,-70.67475891113281,163.297119140625,573.9886474609375
2615,180.83164978027344,-68.95440673828125,167.26515197753906,571.8306884765625
2616,178.07907104492188,-67.01339721679689,166.2628631591797,576.318603515625
2617,168.24313354492188,-68.24008178710939,163.5589141845703,561.6282348632811
2618,159.61892700195312,-61.63916015625,162.46311950683594,552.4505615234375
2619,169.6493377685547,-63.25853729248047,165.4999237060547,561.3701782226561
2620,181.5197906494141,-59.350341796875,163.75338745117188,551.683837890625
2621,179.10006713867188,-67.46966552734375,159.37022399902344,539.5852661132811
2622,177.6302947998047,-56.23126602172852,171.8502655029297,550.3375244140625
2623,184.99415588378903,-54.63432693481445,177.0449981689453,555.5023193359375
2624,192.2158966064453,-51.7022476196289,176.51393127441406,546.4891357421875
2625,183.0494079589844,-52.93267440795898,174.0680389404297,527.2510986328125
2626,181.04107666015625,-49.17033386230469,172.37759399414062,527.4231567382811
2627,183.2251739501953,-51.61623001098633,171.16212463378906,528.7321166992189
2628,184.0816192626953,-55.04945755004883,172.13450622558594,532.023193359375
2629,176.096923828125,-61.49330520629883,166.3526153564453,533.2236938476561
2630,168.37030029296875,-70.73833465576172,158.31558227539062,536.2754516601561
2631,185.2185516357422,-62.59283447265625,164.9127655029297,558.2062377929689
2632,178.40818786621094,-66.32899475097656,162.792236328125,566.1685180664062
2633,174.38404846191406,-77.16722869873047,162.33970642089844,565.3681640625
2634,169.6156768798828,-80.40972137451172,154.2353515625,556.9795532226561
2635,181.92742919921875,-68.01943206787111,160.45106506347656,572.0401611328125
2636,179.8742218017578,-68.38594055175781,166.04220581054688,566.7033081054688
2637,173.83428955078125,-71.28062438964844,167.85232543945312,566.2545166015625
2638,171.49685668945312,-73.91351318359375,158.61102294921875,557.3572998046875
2639,190.0841522216797,-68.20268249511719,166.89491271972656,565.603759765625
2640,172.14385986328125,-62.761131286621094,159.42633056640625,563.7225952148438
2641,165.24000549316406,-65.19206237792969,166.87994384765625,553.8717041015625
2642,177.9668731689453,-60.26287841796875,167.4932861328125,553.4715576171875
2643,178.20623779296875,-57.03534317016602,164.58738708496094,545.5280151367189
2644,183.58795166015625,-45.51645278930664,168.2562255859375,547.9925537109375
2645,184.61642456054688,-53.14210891723633,172.0335235595703,544.9969482421875
2646,185.2147979736328,-50.87199020385742,169.88308715820312,533.8670043945311
2647,192.84420776367188,-54.750267028808594,165.97488403320312,538.4520874023439
2648,186.87158203125,-62.07299041748047,162.26490783691406,534.8356323242189
2649,181.80401611328125,-62.12534713745117,160.06959533691406,531.6754150390625
2650,176.94215393066406,-60.15068054199219,156.3072509765625,533.3359375
2651,180.82415771484372,-61.07443618774414,156.75604248046875,537.962158203125
2652,179.17486572265625,-62.7125129699707,151.83058166503906,549.6343994140625
2653,174.17835998535156,-67.83617401123047,156.853271484375,551.13037109375
2654,169.87747192382812,-69.59392547607422,157.18612670898438,555.2255249023439
2655,178.28477478027344,-66.53095245361328,151.11627197265625,559.9490356445311
2656,180.70074462890625,-63.8756217956543,157.26092529296875,561.3402709960939
2657,178.9467315673828,-69.5677490234375,156.69619750976562,551.7998046875
2658,167.69711303710938,-66.24298095703125,153.39385986328125,550.943359375
2659,176.0520477294922,-64.67970275878906,153.53598022460938,558.3670654296875
2660,178.57647705078125,-76.3332290649414,150.06161499023438,551.7623901367189
2661,175.1282958984375,-68.18398284912111,155.0319366455078,549.3912963867189
2662,172.55523681640625,-57.693565368652344,163.0764617919922,550.29638671875
2663,179.67601013183594,-53.04487228393555,168.555419921875,552.4505615234375
2664,179.48153686523438,-52.02388000488281,162.44442749023438,546.096435546875
2665,175.48731994628906,-55.131736755371094,170.0438995361328,542.0872802734375
2666,175.1656951904297,-53.2879638671875,171.1060333251953,537.1655883789061
2667,183.7786865234375,-52.06127548217773,174.59161376953125,538.1080322265625
2668,183.5692443847656,-55.06815719604492,172.9647674560547,536.7616577148439
2669,174.7917022705078,-64.84799194335939,164.93893432617188,534.7271728515625
2670,175.86505126953125,-62.3497428894043,170.0364227294922,543.5982055664061
2671,181.79653930664062,-61.10061645507813,171.1434326171875,554.6309204101561
2672,182.3799591064453,-66.78526306152344,170.87416076660156,564.6388549804688
2673,182.881103515625,-74.93450164794922,166.9061279296875,558.9392700195311
2674,181.15701293945312,-66.14574432373047,171.59222412109375,562.6530151367189
2675,184.3957672119141,-65.64085388183594,165.7243194580078,563.7861938476562
2676,189.41098022460938,-66.80022430419922,159.1458282470703,551.30615234375
2677,177.73500061035156,-75.94053649902344,163.49159240722656,546.9566040039061
2678,179.0626678466797,-68.13162994384766,157.81068420410156,554.4102783203125
2679,175.90618896484375,-67.85861206054689,157.3955535888672,557.9818725585939
2680,182.10694885253903,-68.75618743896484,159.20567321777344,562.9185180664061
2681,169.9073944091797,-67.83617401123047,162.5865478515625,555.4349975585939
2682,172.6599578857422,-65.17710876464844,155.5069122314453,553.2695922851561
2683,179.03274536132812,-65.59223175048828,157.4366912841797,550.6179809570311
2684,189.97195434570312,-67.39112854003906,165.0773162841797,551.3472900390625
2685,196.7374420166016,-76.17615509033203,166.12074279785156,544.5668334960939
2686,187.88134765625,-63.27349853515625,168.1702117919922,540.0228271484375
2687,189.85601806640625,-67.22283172607422,165.8813934326172,543.6206665039061
2688,192.9713592529297,-64.85547637939453,168.0879364013672,555.2068481445311
2689,185.0913848876953,-58.39292907714844,169.7783660888672,559.182373046875
2690,178.9803924560547,-65.38654327392578,172.60946655273438,556.0072021484375
2691,180.9700164794922,-70.41670989990234,168.27867126464844,566.4265747070312
2692,182.5968780517578,-69.01798248291016,164.74072265625,572.2982177734375
2693,174.13722229003906,-65.56979370117189,165.82904052734375,566.0936889648438
2694,171.3173370361328,-65.16214752197266,157.7919921875,555.0048828125
2695,179.500244140625,-65.74557495117189,158.3006134033203,552.244873046875
2696,177.05433654785156,-68.97310638427734,154.03712463378906,547.3231201171875
2697,169.9522705078125,-67.95211029052734,154.822509765625,550.498291015625
2698,167.99256896972656,-61.43720626831055,153.75289916992188,553.4453735351561
2699,182.3949279785156,-62.29364395141602,156.01927185058594,558.7896728515625
2700,182.45101928710938,-65.68947601318361,158.4689178466797,559.8779907226561
2701,178.9878692626953,-62.4133186340332,154.5681915283203,552.585205078125
2702,177.6190643310547,-59.74677276611328,163.64866638183594,545.9169311523439
2703,177.73126220703125,-54.24538040161133,163.7571258544922,551.8783569335939
2704,181.67312622070312,-58.06755828857422,168.3871307373047,556.0072021484375
2705,179.37681579589844,-60.91361999511719,166.27781677246094,550.75634765625
2706,174.41397094726562,-64.96393585205078,160.94097900390625,547.88037109375
2707,191.89801025390625,-65.64833068847656,160.7465057373047,552.3906860351561
2708,193.1097412109375,-65.92508697509766,161.91709899902344,557.046875
2709,179.3282012939453,-70.87671661376953,154.6841278076172,548.4937133789061
2710,176.16424560546875,-65.43515777587889,164.28445434570312,556.1455688476561
2711,185.0502471923828,-62.0505485534668,160.4061737060547,561.60205078125
2712,177.74996948242188,-69.04416656494139,156.57278442382812,558.501708984375
2713,166.777099609375,-69.10400390625,152.3167724609375,552.6861572265625
2714,166.24229431152344,-70.93281555175781,155.04690551757812,551.4744262695311
2715,176.9384002685547,-67.74641418457031,154.9010467529297,554.6720581054689
2716,180.4726104736328,-58.867897033691406,159.1383514404297,562.1331176757811
2717,177.6265411376953,-68.66269683837889,152.9188995361328,550.8535766601561
2718,182.1406097412109,-68.11293029785156,157.9939422607422,554.1148071289061
2719,182.1892242431641,-66.91242218017578,161.35610961914062,559.58251953125
2720,183.0643615722656,-61.6092414855957,167.72515869140625,556.388671875
2721,178.66250610351562,-62.3721809387207,171.25936889648438,556.0221557617189
2722,174.47007751464844,-57.60754776000977,172.9273681640625,552.046630859375
2723,182.74647521972656,-55.76377868652344,172.9946746826172,551.0181884765625
2724,180.1622009277344,-62.37592315673828,169.4567413330078,543.8338012695311
2725,181.8488922119141,-60.704185485839844,168.91444396972656,543.8001708984375
2726,179.29454040527344,-72.00242614746094,156.72238159179688,531.1405639648439
2727,180.57733154296875,-64.72831726074219,157.26840209960938,548.6508178710939
2728,181.63946533203125,-66.54216766357422,155.09552001953125,552.83203125
2729,167.7008514404297,-71.74810791015625,150.9554443359375,554.0399780273439
2730,169.15940856933594,-68.80107116699219,156.54286193847656,562.716552734375
2731,172.77963256835938,-66.42249298095703,159.20941162109375,564.934326171875
2732,176.00717163085938,-64.08879852294922,163.18118286132812,560.8241577148439
2733,171.79978942871094,-68.30740356445311,158.40533447265625,552.199951171875
2734,173.88290405273438,-61.63167953491211,155.14039611816406,552.4580078125
2735,178.67372131347656,-56.52671813964844,167.5493927001953,552.8507080078125
2736,187.458740234375,-55.1429557800293,155.2077178955078,549.4810791015625
2737,180.27813720703125,-52.26323318481445,163.83192443847656,547.4727172851561
2738,178.3184356689453,-59.690673828125,162.80718994140625,543.2615966796875
2739,182.1331329345703,-58.83423614501953,161.74880981445312,553.243408203125
2740,185.86929321289062,-60.09832382202149,161.76376342773438,556.1680297851561
2741,178.8981170654297,-63.5352897644043,165.9636688232422,548.8639526367189
2742,186.6920623779297,-60.80142211914063,171.45758056640625,547.1211547851561
2743,182.81753540039062,-59.50741958618164,165.91879272460938,553.3107299804689
2744,188.8686828613281,-61.07069778442383,170.75448608398438,556.6504516601561
2745,178.6811981201172,-69.03668212890625,157.88174438476562,550.0009155273439
2746,180.005126953125,-71.38908386230469,159.47494506835938,559.7882080078125
2747,178.06785583496094,-70.93281555175781,161.9881591796875,566.6883544921875
2748,185.83563232421875,-71.13850402832031,161.57302856445312,572.2383422851562
2749,182.94468688964844,-77.19340515136719,159.6020965576172,562.1032104492189
2750,177.7574462890625,-67.55942535400389,162.05548095703125,560.9064331054689
2751,185.0465087890625,-64.55628204345703,164.1049346923828,558.4867553710939
2752,184.18634033203125,-69.3096923828125,160.9671630859375,558.056640625
2753,179.2384490966797,-63.80082321166992,163.30833435058594,552.057861328125
2754,176.953369140625,-75.07662200927734,157.7396240234375,539.1140747070311
2755,201.4160461425781,-60.16189956665039,163.80575561523438,551.78857421875
2756,192.4365539550781,-72.9374008178711,152.4027862548828,532.9544677734375
2757,174.241943359375,-66.79648590087889,155.29747009277344,528.126220703125
2758,192.27947998046875,-60.1544189453125,160.77268981933594,535.8790283203125
2759,189.6278839111328,-56.61273574829102,162.6314239501953,544.0806274414061
2760,191.5876007080078,-51.12256240844727,169.72227478027344,542.913818359375
2761,184.8408203125,-60.52093124389648,160.3687744140625,536.986083984375
2762,178.37078857421875,-66.72168731689453,157.4890594482422,528.0925903320311
2763,180.58106994628903,-64.82181549072266,155.30120849609375,539.5142211914061
2764,182.2191467285156,-70.5887451171875,157.287109375,542.8165893554689
2765,174.2269744873047,-72.22681427001953,162.2499542236328,550.344970703125
2766,179.58251953125,-72.18567657470703,159.4786834716797,554.6832885742189
2767,182.8287506103516,-72.69430541992188,158.1772003173828,564.429443359375
2768,173.25460815429688,-77.33177947998047,153.1657257080078,564.4818115234375
2769,169.46607971191406,-73.64424133300781,156.88693237304688,565.1437377929688
2770,172.5028839111328,-67.65666198730469,159.53103637695312,554.9824829101561
2771,181.92742919921875,-65.25190734863281,168.58534240722656,562.6417846679689
2772,180.3716278076172,-61.98323059082031,166.29652404785156,557.469482421875
2773,165.8870086669922,-61.49704360961914,159.11965942382812,544.2451782226561
2774,170.7937469482422,-56.2873649597168,162.98297119140625,539.2561645507811
2775,175.43870544433594,-49.52188491821289,168.24501037597656,543.5308837890625
2776,177.76866149902344,-54.8026237487793,163.3008575439453,536.9598999023439
2777,178.33338928222656,-53.41138076782226,164.8603973388672,532.2251586914061
2778,172.8357391357422,-49.63408279418945,167.21653747558594,533.7884521484375
2779,170.61048889160156,-48.46723175048828,168.48435974121094,538.3099975585939
2780,183.24388122558597,-49.73505783081055,164.77064514160156,543.8001708984375
2781,176.07823181152344,-51.21606063842773,164.45274353027344,536.1558227539061
2782,179.73959350585938,-59.25310516357422,160.11447143554688,533.8707275390625
2783,181.366455078125,-58.2246322631836,157.43295288085938,546.4068603515625
2784,174.5411376953125,-64.04391479492189,152.64215087890625,542.9474487304689
2785,175.48358154296875,-64.87791442871094,157.50401306152344,552.6936645507811
2786,167.20718383789062,-66.61696624755861,154.97584533691406,550.2477416992189
2787,169.85130310058594,-66.16443634033203,154.03712463378906,561.97607421875
2788,174.87771606445312,-65.84654998779297,155.4545440673828,560.4576416015625
2789,162.7903594970703,-65.113525390625,154.36997985839844,555.509765625
2790,171.91946411132812,-66.16069793701172,160.245361328125,561.3851928710939
2791,179.0626678466797,-67.88105773925781,160.98960876464844,563.1765747070312
2792,182.5332946777344,-64.54506683349611,156.1763458251953,562.4772338867189
2793,176.84490966796875,-78.29667663574219,152.20831298828125,553.9203491210939
2794,185.6710662841797,-66.96852111816406,159.33656311035156,550.4347534179689
2795,187.4288330078125,-64.25334930419922,158.22207641601562,549.59326171875
2796,187.06231689453125,-65.60345458984375,167.86727905273438,547.0501098632811
2797,182.3724822998047,-63.84196090698242,160.0845489501953,544.6715698242189
2798,181.22059631347656,-62.682594299316406,162.26864624023438,536.8327026367189
2799,199.4152069091797,-48.24283981323242,160.99334716796875,529.5511474609375
2800,179.9639892578125,-52.63348388671875,155.1217041015625,516.7344970703125
2801,171.2761993408203,-55.11677551269531,158.8017578125,515.3694458007811
2802,165.44569396972656,-57.83194351196289,154.34005737304688,518.888671875
2803,170.39732360839844,-56.89696884155274,154.75892639160156,540.8456420898439
2804,167.16978454589844,-55.5655632019043,158.40907287597656,549.817626953125
2805,163.03720092773438,-61.848594665527344,158.48760986328125,558.7073974609375
2806,161.28692626953125,-68.23634338378906,155.02072143554688,560.1995849609375
2807,169.38754272460938,-68.53179931640625,152.58978271484375,564.1452026367188
2808,175.61074829101562,-67.80999755859375,156.31846618652344,569.4521484375
2809,172.13636779785156,-65.38279724121094,161.67401123046875,567.90380859375
2810,173.31443786621094,-70.30825042724611,160.93350219726562,568.7191162109375
2811,178.95046997070312,-58.56122207641602,161.99563598632812,577.305908203125
2812,180.7269287109375,-62.05802917480469,160.42861938476562,570.4918212890625
2813,167.79061889648438,-68.92448425292969,157.58255004882812,557.656494140625
2814,174.99365234375,-57.79828262329102,159.52169799804688,559.2328491210939
2815,181.64694213867188,-54.17058181762695,163.41493225097656,567.1090698242188
2816,186.1497802734375,-57.55892944335938,168.35533142089844,564.1844482421875
2817,177.09173583984375,-62.79853057861328,163.57200622558594,545.997314453125
2818,179.76577758789062,-56.36590194702149,168.5460662841797,543.5963134765625
2819,178.82705688476562,-51.20484161376953,164.03575134277344,532.440185546875
2820,185.6448974609375,-59.64579391479492,161.37667846679688,532.825439453125
2821,175.81643676757812,-61.007118225097656,157.5844268798828,527.1071166992189
2822,181.7105255126953,-58.677162170410156,157.7826385498047,534.9534301757811
2823,177.89207458496094,-64.7320556640625,152.4420623779297,535.9407348632811
2824,169.23046875,-68.50935363769531,144.32647705078125,540.245361328125
2825,158.99063110351562,-67.72023773193361,145.04827880859375,547.9944458007811
2826,159.3683624267578,-65.91761016845703,144.2666473388672,554.0455932617189
2827,173.37428283691406,-64.21221160888672,146.9032745361328,560.02197265625
2828,167.0650634765625,-67.84739685058594,144.80519104003906,559.8723754882811
2829,150.35145568847656,-62.46194076538086,148.4291534423828,559.4049072265625
2830,145.33251953125,-61.22403335571289,149.87649536132812,557.8154296875
2831,153.0479278564453,-62.17022705078125,143.48126220703125,555.4705200195311
2832,156.97482299804688,-56.466880798339844,150.6992645263672,557.6134643554689
2833,171.71751403808594,-64.55628204345703,150.4150390625,556.0838623046875
2834,183.9881134033203,-62.15526580810547,156.55221557617188,554.2849731445311
2835,187.22686767578125,-57.46917343139648,157.1580810546875,557.2656860351561
2836,191.1649932861328,-60.26287841796875,160.35943603515625,556.5401000976561
2837,187.458740234375,-60.95475769042969,156.013671875,549.8606567382811
2838,184.0554351806641,-63.37821578979492,157.08328247070312,544.5238037109375
2839,195.4434356689453,-58.26951217651367,159.51046752929688,552.2018432617189
2840,194.99838256835938,-56.33598327636719,159.38331604003906,556.0165405273439
2841,178.52786254882812,-68.23634338378906,152.1840057373047,536.4306640625
2842,183.2364044189453,-59.77294921875,163.9759063720703,540.5520629882811
2843,172.00547790527344,-61.75135803222656,164.394775390625,548.2188720703125
2844,163.67298889160156,-61.2876091003418,161.343017578125,551.9176025390625
2845,152.9955596923828,-63.44179153442383,157.38995361328125,546.4498901367189
2846,155.73690795898438,-58.800575256347656,162.60336303710938,546.9435424804689
2847,168.05613708496094,-61.88225555419922,158.6689910888672,552.5833129882811
2848,176.67662048339844,-65.64833068847656,158.94949340820312,553.331298828125
2849,170.38235473632812,-74.47449493408203,153.11524963378906,554.2064208984375
2850,177.69012451171875,-71.28062438964844,155.94261169433594,552.5421752929689
2851,193.6033935546875,-68.09049224853516,155.26568603515625,565.1456298828125
2852,193.96990966796875,-72.73918151855469,147.21368408203125,561.2337036132811
2853,175.27041625976562,-72.26421356201172,148.09629821777344,556.4578247070311
2854,175.73789978027344,-69.24611663818361,153.6874542236328,561.0018310546875
2855,184.1900787353516,-70.91411590576172,153.31346130371094,556.2334594726561
2856,184.2461700439453,-68.63651275634766,154.16989135742188,548.0991821289061
2857,180.4576568603516,-71.12728881835938,153.48548889160156,540.6343383789061
2858,184.32470703125,-57.74592590332031,166.02911376953125,545.0286865234375
2859,180.14724731445312,-57.92169952392578,165.70001220703125,548.3945922851561
2860,182.28273010253903,-58.23211288452149,161.002685546875,554.2213745117189
2861,175.39756774902344,-61.48582458496094,159.92933654785156,548.940673828125
2862,164.66030883789062,-67.92593383789061,159.26364135742188,548.9929809570311
2863,181.55718994140625,-69.84824371337889,165.35220336914062,562.310791015625
2864,181.9648284912109,-73.39740753173828,159.2262420654297,563.1709594726562
2865,172.4019012451172,-74.09302520751953,161.87034606933594,560.37353515625
2866,184.86325073242188,-73.76017761230469,154.29331970214844,557.8117065429689
2867,184.21624755859372,-71.9201431274414,157.09075927734375,563.05126953125
2868,186.34425354003903,-67.65292358398439,158.50070190429688,565.6392822265625
2869,175.48731994628906,-71.96876525878906,147.6923828125,553.39111328125
2870,175.509765625,-69.45555114746094,159.11404418945312,553.6417236328125
2871,175.66310119628906,-67.58560180664061,155.59854125976562,557.7368774414061
2872,171.96807861328125,-63.17251968383789,154.08387756347656,558.2006225585939
2873,160.1612091064453,-57.28965759277344,157.4610137939453,558.3726806640625
2874,160.70724487304688,-66.05598449707031,160.64739990234375,557.6471557617189
2875,177.7574462890625,-71.1123275756836,159.76852416992188,564.9773559570312
2876,171.13034057617188,-78.24805450439453,153.8520050048828,559.2066650390625
2877,175.0834197998047,-72.85137939453125,158.57923889160156,558.742919921875
2878,182.35003662109372,-67.52202606201172,161.62351989746094,551.805419921875
2879,187.6831359863281,-67.660400390625,158.04443359375,545.361572265625
2880,188.26657104492188,-54.89237976074219,170.05325317382812,551.4613647460939
2881,179.65357971191406,-60.35637664794922,157.25531005859375,534.9908447265625
2882,190.521728515625,-60.30775833129883,168.25436401367188,548.7686157226561
2883,198.04640197753903,-65.91012573242189,174.11477661132812,565.26904296875
2884,171.47067260742188,-69.29099273681639,160.5539093017578,549.6774291992189
2885,164.47332763671875,-64.83677673339844,159.68624877929688,555.9155883789061
2886,160.755859375,-57.0091667175293,158.77371215820312,556.6934814453125
2887,168.11224365234375,-52.61852264404297,159.52169799804688,553.74267578125
2888,164.20030212402344,-54.85124206542969,158.8933868408203,550.7694702148439
2889,161.76937866210938,-53.25430679321289,153.4705352783203,545.6046752929689
2890,168.10850524902344,-50.27360534667969,158.49696350097656,542.4930419921875
2891,172.8843536376953,-58.77813720703125,160.333251953125,546.2217407226561
2892,178.72607421875,-63.23609924316406,158.02947998046875,550.2308959960939
2893,176.04830932617188,-68.23634338378906,155.70326232910156,549.9766235351561
2894,184.5191802978516,-62.26372528076172,157.3600311279297,561.7273559570311
2895,192.4365539550781,-71.5760726928711,154.2746124267578,559.7302856445311
2896,192.387939453125,-65.03872680664061,161.66465759277344,566.48828125
2897,182.6978454589844,-75.95549774169922,153.19004821777344,552.0896606445311
2898,188.0533905029297,-69.96791839599611,157.2366180419922,553.0881958007811
2899,185.79449462890625,-67.20787048339844,157.4198760986328,548.0131225585939
2900,178.17257690429688,-67.81373596191406,150.6356964111328,541.6515502929689
2901,183.397216796875,-59.21196746826172,171.87832641601562,554.647705078125
2902,167.95143127441406,-67.67162322998047,165.931884765625,553.2752075195311
2903,177.117919921875,-59.94124603271485,164.8323516845703,554.8197631835939
2904,171.67262268066406,-61.25020980834961,161.9451446533203,553.462158203125
2905,163.23915100097656,-71.14972686767578,150.40382385253906,545.4475708007811
2906,165.8757781982422,-67.30885314941406,152.07928466796875,541.4047241210939
2907,182.0246734619141,-61.97201156616211,155.80796813964844,551.6632690429689
2908,166.30587768554688,-69.57897186279297,141.35325622558594,546.6032104492189
2909,164.84356689453125,-61.48208618164063,148.36183166503906,550.6871948242189
2910,166.34327697753906,-69.04042053222656,150.88626098632812,559.0009765625
2911,174.98243713378906,-65.37905883789061,156.6457061767578,559.1318969726561
2912,168.65078735351562,-69.45181274414061,156.92620849609375,558.0098876953125
2913,175.6070098876953,-59.88514709472656,166.40310668945312,561.21875
2914,180.3865966796875,-59.64579391479492,171.47067260742188,561.3421630859375
2915,183.1802978515625,-60.36011505126953,172.15133666992188,571.06591796875
2916,182.8773651123047,-73.30764770507812,166.859375,562.980224609375
2917,173.0975341796875,-65.7119140625,166.40310668945312,551.289306640625
2918,180.45391845703125,-63.146339416503906,164.8323516845703,546.4349365234375
2919,196.02685546875,-61.620460510253906,165.5541534423828,545.7318115234375
2920,195.0582275390625,-63.87187957763672,162.47621154785156,550.290771484375
2921,189.90089416503903,-76.10883331298828,155.55740356445312,542.7586059570311
2922,176.9084930419922,-76.2883529663086,151.37619018554688,543.4579467773439
2923,182.0396270751953,-69.28351593017578,158.6278533935547,562.0078735351561
2924,177.03564453125,-69.3096923828125,153.99412536621094,558.6942749023439
2925,168.38525390625,-74.63157653808594,153.85574340820312,549.9691162109375
2926,166.44798278808594,-73.7452163696289,149.98495483398438,550.619873046875
2927,178.12396240234375,-65.70069122314453,154.3568878173828,563.9825439453125
2928,176.1455535888672,-68.44951629638672,158.1715850830078,567.075439453125
2929,174.81788635253906,-64.47026824951172,153.91184997558594,562.9503173828125
2930,180.29684448242188,-68.37097930908203,157.95468139648438,552.3140258789061
2931,179.89666748046875,-62.97804641723633,159.1514434814453,560.4857177734375
2932,170.76382446289062,-67.14055633544922,163.43736267089844,556.6261596679689
2933,169.97845458984375,-65.02002716064453,169.76901245117188,556.887939453125
2934,182.1480865478516,-65.73809051513672,174.72438049316406,561.2748413085939
2935,192.376708984375,-60.67426681518555,176.4522247314453,560.5792236328125
2936,193.08355712890625,-65.76426696777344,170.54318237304688,557.3330078125
2937,177.18524169921875,-72.44747161865234,157.81256103515625,548.753662109375
2938,175.11708068847656,-71.54989624023438,162.4537811279297,553.2714233398439
2939,182.8698883056641,-66.89372253417969,162.25929260253906,554.6851196289061
2940,179.63113403320312,-73.47220611572266,159.75357055664062,549.434326171875
2941,164.7425994873047,-79.53832244873047,147.5727081298828,542.0442504882811
2942,164.0207977294922,-70.05019378662111,150.56463623046875,546.8014526367189
2943,166.24229431152344,-71.56485748291016,153.20126342773438,553.8548583984375
2944,167.80931091308594,-71.88274383544922,153.5864715576172,561.6974487304689
2945,164.09933471679688,-67.99699401855469,155.3292694091797,564.670654296875
2946,168.9387664794922,-69.00676727294922,157.30392456054688,566.8959350585938
2947,174.93756103515625,-68.01569366455078,159.3085174560547,570.86767578125
2948,176.72523498535156,-72.1333236694336,155.6209716796875,569.3006591796875
2949,171.76239013671875,-68.53179931640625,156.36148071289062,564.2630004882812
2950,184.9642333984375,-60.84256362915039,160.23974609375,561.6563110351561
2951,191.34075927734372,-60.59572982788086,164.95950317382812,563.9638061523438
2952,184.81463623046875,-67.9595947265625,162.93247985839844,546.7415771484375
2953,184.72488403320312,-62.85836791992188,163.35134887695312,544.9052734375
2954,185.89920043945312,-62.94438552856445,171.8745880126953,546.5172119140625
2955,195.51449584960938,-54.46603393554688,172.01669311523438,556.8243408203125
2956,192.30191040039062,-59.89262771606445,168.99859619140625,554.4345703125
2957,181.2841644287109,-62.52177810668945,164.25640869140625,542.8707885742189
2958,180.5137481689453,-65.26312255859375,160.2883758544922,541.6815185546875
2959,180.0088653564453,-58.28446960449219,162.05360412597656,545.2493896484375
2960,172.5851593017578,-63.15756225585938,154.71966552734375,549.1986694335939
2961,160.23226928710938,-73.17301177978516,154.6560821533203,541.4085083007811
2962,173.20223999023438,-70.08011627197266,155.0786895751953,556.3980102539061
2963,180.005126953125,-72.42129516601562,150.9573211669922,560.1528930664061
2964,170.95455932617188,-73.47594451904297,152.7449951171875,561.2449340820311
2965,162.69313049316406,-75.05418395996094,149.9400634765625,562.2621459960939
2966,160.90919494628906,-72.56714630126953,147.2024688720703,561.136474609375
2967,165.72244262695312,-76.07891845703125,146.70506286621094,559.4086303710939
2968,170.4197540283203,-67.36869049072266,152.01197814941406,561.4692993164061
2969,168.32916259765625,-60.72662734985352,155.01136779785156,553.2116088867189
2970,182.17800903320312,-57.88804244995117,159.41323852539062,554.2550659179689
2971,195.2115631103516,-49.31245040893555,161.36546325683594,551.9849243164061
2972,191.3444976806641,-53.10470962524414,161.3018798828125,537.0216064453125
2973,190.20382690429688,-52.32680892944336,167.84671020507812,537.82568359375
2974,181.7815704345703,-50.87199020385742,167.46897888183594,529.1378784179689
2975,190.20008850097656,-46.99745178222656,171.50059509277344,536.3259887695311
2976,189.34739685058597,-51.7022476196289,168.80038452148438,539.3964233398439
2977,186.5424652099609,-59.23066711425781,160.06771850585938,536.5204467773439
2978,173.14614868164062,-71.42273712158203,153.82955932617188,537.4890747070311
2979,173.97640991210938,-62.82096862792969,156.64944458007812,554.2176513671875
2980,167.13986206054688,-73.89107513427734,142.9501953125,553.9820556640625
2981,170.43472290039062,-70.92906951904297,156.28294372558594,559.5731811523439
2982,169.57080078125,-76.74087524414062,156.765380859375,568.0029296875
2983,178.74851989746094,-74.69515228271484,153.32093811035156,570.8153076171875
2984,169.7839813232422,-77.18218231201172,148.09255981445312,562.3182373046875
2985,165.1726837158203,-75.05792236328125,149.45762634277344,556.5850219726561
2986,176.0595245361328,-65.58101654052734,160.3781280517578,563.9713134765625
2987,172.61508178710938,-68.69261169433594,154.27835083007812,557.6471557617189
2988,172.53280639648438,-64.13741302490234,159.89193725585938,561.40576171875
2989,167.35304260253906,-64.22343444824219,156.7392120361328,551.7194213867189
2990,168.35533142089844,-63.97659683227539,156.436279296875,546.10205078125
2991,180.31179809570312,-53.609596252441406,160.3706512451172,549.5128784179689
2992,174.5261688232422,-56.88574981689453,154.96275329589844,545.7093505859375
2993,185.35317993164062,-54.331398010253906,166.9940185546875,548.8733520507811
2994,186.6696319580078,-56.11158752441406,168.3403778076172,545.103515625
2995,187.7205352783203,-54.88864135742188,163.7702178955078,541.88720703125
2996,179.73585510253906,-55.10555648803711,170.70773315429688,552.5010375976561
2997,169.84381103515625,-64.32440948486328,161.3841552734375,542.6351928710939
2998,184.72862243652344,-60.31149673461914,165.70375061035156,550.7171020507811
2999,187.6120758056641,-64.17107391357422,159.67503356933594,559.2029418945311
3000,179.14120483398438,-69.04790496826172,156.75042724609375,562.4828491210939
3001,166.3918914794922,-68.89830780029297,160.7521209716797,562.3406982421875
3002,177.35726928710938,-70.97021484375,160.7969970703125,565.6280517578125
3003,179.06640625,-74.47824096679688,165.61773681640625,566.4471435546875
3004,169.05470275878906,-77.32430267333984,158.99063110351562,570.0748291015625
3005,164.95950317382812,-77.40283966064453,160.82691955566406,564.9249877929688
3006,167.6597137451172,-71.92388916015625,158.39598083496094,559.5208129882811
3007,187.20443725585938,-65.74931335449219,165.81968688964844,565.0035400390625
3008,182.6754150390625,-65.4949951171875,166.72474670410156,556.7682495117189
3009,174.37657165527344,-67.67910003662111,164.42843627929688,550.6497802734375
3010,188.79014587402344,-63.68114471435547,175.73789978027344,539.1981811523439
3011,197.05532836914062,-55.23271179199219,177.5143585205078,542.1153564453125
3012,191.5838623046875,-51.52647018432617,180.2257843017578,546.8275756835939
3013,185.57009887695312,-53.57219696044922,177.82102966308594,535.7163696289061
3014,181.04107666015625,-51.64614868164063,180.7231903076172,532.3616943359375
3015,189.25950622558597,-55.59174346923828,183.05874633789062,534.065185546875
3016,200.8606719970703,-59.91880798339844,181.79840087890625,546.3320922851561
3017,189.1211242675781,-62.001930236816406,171.33416748046875,536.5335083007811
3018,180.0780487060547,-60.47979354858398,168.6825714111328,540.625
3019,182.3668670654297,-57.62998962402344,169.48291015625,557.7462158203125
3020,181.4618225097656,-68.23634338378906,162.50425720214844,559.7658081054689
3021,171.51368713378906,-73.19918823242188,154.58689880371094,552.5103759765625
3022,177.63963317871094,-63.82326126098633,159.63949584960938,563.5879516601562
3023,184.6519470214844,-59.17082595825195,158.49508666992188,565.637451171875
3024,194.47666931152344,-62.79104995727539,160.93724060058594,576.0642700195312
3025,158.18467712402344,-75.71240234375,146.8939208984375,552.14013671875
3026,155.98187255859375,-69.74726104736328,146.4713134765625,546.9454345703125
3027,173.07322692871094,-59.19700622558594,157.96775817871094,553.1947631835939
3028,169.22113037109375,-55.02701950073242,152.81044006347656,554.7244262695311
3029,166.84628295898438,-59.92254638671875,149.91201782226562,540.92041015625
3030,187.52793884277344,-57.64120864868164,160.53707885742188,536.365234375
3031,191.3276672363281,-58.59488296508789,161.18408203125,537.8387451171875
3032,191.12945556640625,-56.06671142578125,157.76580810546875,532.9244995117189
3033,189.0351104736328,-56.92688751220703,157.7957305908203,517.7517700195311
3034,191.21173095703125,-51.7620849609375,167.6653289794922,526.1553344726561
3035,192.5431365966797,-41.331504821777344,178.46615600585938,531.7202758789061
3036,178.46615600585938,-47.21810531616211,169.0752716064453,527.6699829101561
3037,175.04788208007812,-54.09204483032226,167.61669921875,537.4759521484375
3038,173.40606689453125,-48.732765197753906,165.2044677734375,545.6701049804689
3039,176.2708282470703,-57.20363998413086,154.93096923828125,551.739990234375
3040,171.8203582763672,-56.81468963623047,153.52476501464844,561.0934448242189
3041,163.1699676513672,-74.13417053222656,144.7659149169922,557.6265869140625
3042,175.28350830078125,-70.72711944580078,151.86050415039062,565.345703125
3043,180.14537048339844,-67.73893737792969,149.12664794921875,568.1094970703125
3044,177.041259765625,-73.38992309570312,149.67640686035156,569.6428833007812
3045,169.0229034423828,-72.89251708984375,152.1970977783203,562.245361328125
3046,174.9207305908203,-67.82495880126953,152.86280822753906,562.716552734375
3047,177.56109619140625,-67.63422393798828,152.20457458496094,559.1973266601561
3048,178.20062255859375,-62.63023376464844,150.21495056152344,557.0917358398439
3049,172.64686584472656,-58.16853332519531,151.6735076904297,550.943359375
3050,176.49522399902344,-52.8877944946289,162.69873046875,552.1214599609375
3051,179.76016235351562,-50.84954833984375,165.0399169921875,553.419189453125
3052,178.67184448242188,-54.30895614624024,164.8267364501953,542.7006225585939
3053,174.14657592773438,-56.97176742553711,163.02037048339844,537.6068725585939
3054,180.7362823486328,-53.14210891723633,170.56748962402344,539.6376342773439
3055,188.66860961914062,-44.042930603027344,170.93399047851562,543.6019287109375
3056,180.1229248046875,-55.66279983520508,162.9605255126953,537.0421752929689
3057,173.83616638183594,-54.99335861206055,158.61102294921875,532.913330078125
3058,173.78005981445312,-58.17227554321289,159.47494506835938,541.036376953125
3059,180.1790313720703,-58.609840393066406,160.1630859375,551.9793090820311
3060,172.4561309814453,-66.63566589355469,154.1979522705078,557.7200317382811
3061,158.11361694335938,-65.94752502441406,147.8662872314453,555.120849609375
3062,161.57676696777344,-58.19845199584961,152.4962921142578,568.5769653320312
3063,173.58184814453125,-63.07902145385742,149.66519165039062,570.873291015625
3064,170.50390625,-63.527809143066406,153.4761505126953,580.4960327148438
3065,167.5830535888672,-71.40029907226562,150.98910522460938,566.0525512695312
3066,167.64662170410156,-68.10918426513672,149.95315551757812,568.0758666992188
3067,180.32862854003903,-62.73495101928711,156.9056396484375,579.5087280273438
3068,176.73458862304688,-66.26168060302734,153.203125,561.6656494140625
3069,186.89215087890625,-73.22163391113281,150.72357177734375,547.04638671875
3070,183.90023803710938,-60.031005859375,152.0213165283203,544.4022827148439
3071,186.08807373046875,-58.84171676635742,154.9085235595703,543.97216796875
3072,182.7819976806641,-59.38774108886719,157.22726440429688,537.90234375
3073,184.2443084716797,-58.51260375976562,157.90419006347656,538.208984375
3074,179.89105224609375,-54.52960968017578,157.93785095214844,537.19921875
3075,183.74688720703125,-42.53575134277344,166.17684936523438,555.625732421875
3076,192.49078369140625,-53.6170768737793,166.13571166992188,545.2437744140625
3077,167.86354064941406,-59.7617301940918,157.9154052734375,542.2593383789061
3078,168.6526641845703,-54.772705078125,160.2079620361328,541.0214233398439
3079,170.18601989746094,-56.6501350402832,155.89212036132812,548.5498046875
3080,176.45034790039062,-58.03015899658203,152.72442626953125,547.5363159179689
3081,157.47409057617188,-63.5352897644043,151.03399658203125,547.04638671875
3082,161.54310607910156,-55.41970825195313,153.27792358398438,555.4349975585939
3083,167.81118774414062,-61.2763900756836,149.3510284423828,552.9367065429689
3084,168.78729248046875,-67.6192626953125,150.90682983398438,555.6331787109375
3085,169.89804077148438,-68.86090850830078,149.96812438964844,554.1784057617189
3086,173.66412353515625,-65.98118591308594,153.203125,563.8946533203125
3087,180.02195739746094,-60.52093124389648,150.8282928466797,568.5283813476562
3088,176.349365234375,-65.90264892578125,158.7980194091797,556.8972778320311
3089,167.55313110351562,-64.48148345947266,154.63925170898438,556.1567993164061
3090,176.94027709960938,-68.40090179443361,157.28335571289062,559.9078979492189
3091,176.17733764648438,-65.50995635986328,155.17405700683594,555.7528686523439
3092,178.66436767578125,-57.36819458007813,164.3143768310547,559.6348876953125
3093,179.84991455078125,-62.06924819946289,161.9844207763672,554.6944580078125
3094,193.57534790039062,-58.82675552368164,165.57846069335938,538.2052612304689
3095,181.1214904785156,-51.380615234375,160.46975708007812,539.4356689453125
3096,172.1195526123047,-47.99226760864258,161.7675018310547,543.302734375
3097,163.3494873046875,-49.73131942749024,165.15585327148438,541.3243408203125
3098,157.5788116455078,-50.32222366333008,161.50570678710938,541.810546875
3099,164.46397399902344,-54.23415756225586,160.0396728515625,553.7108764648439
3100,163.24850463867188,-58.92025375366211,151.0526885986328,562.1256713867189
3101,156.37831115722656,-70.17361450195311,151.70343017578125,557.6377563476561
3102,162.34344482421875,-66.72916412353516,151.0489501953125,562.4622802734375
3103,165.41017150878906,-64.08505249023439,160.8026123046875,573.4949340820312
3104,171.1845703125,-57.64494705200195,157.84060668945312,572.84423828125
3105,159.80780029296875,-68.70383453369139,149.43331909179688,556.0670166015625
3106,168.88453674316406,-63.38569259643555,155.10299682617188,553.6959228515625
3107,180.74375915527344,-70.5887451171875,155.0730743408203,559.9714965820311
3108,183.27940368652344,-67.83617401123047,160.93724060058594,558.8607177734375
3109,182.4229736328125,-67.10315704345703,155.30120849609375,553.8230590820311
3110,175.2610626220703,-73.89855194091797,147.81393432617188,548.7181396484375
3111,188.1487579345703,-69.41815185546875,153.54345703125,559.0589599609375
3112,195.1797637939453,-72.87007904052734,152.9600372314453,548.2132568359375
3113,175.3022003173828,-71.8154296875,154.51210021972656,543.7552490234375
3114,172.44491577148438,-70.06889343261719,150.38323974609375,535.755615234375
3115,178.20809936523438,-63.74472427368164,157.60499572753906,540.5239868164061
3116,177.75930786132812,-64.71335601806639,153.48362731933594,542.1583251953125
3117,172.31028747558594,-68.25130462646484,145.79812622070312,528.3805541992189
3118,168.49559020996094,-61.23151016235352,154.16055297851562,535.8640747070311
3119,168.8546142578125,-66.73290252685547,154.81503295898438,547.162353515625
3120,171.50994873046875,-63.23983764648438,157.7059783935547,553.3930053710939
3121,171.85775756835938,-56.3696403503418,158.4352569580078,557.7537231445311
3122,168.65640258789062,-60.64060592651367,152.8777618408203,564.17138671875
3123,166.19927978515625,-63.4754524230957,159.916259765625,573.337890625
3124,170.8404998779297,-65.03498840332031,160.0284423828125,568.655517578125
3125,159.67689514160156,-64.20099639892578,154.89356994628906,559.7433471679689
3126,170.18975830078125,-61.43720626831055,158.44273376464844,570.4843139648438
3127,168.14776611328125,-68.84220886230469,153.3377685546875,566.5948486328125
3128,170.83676147460938,-58.609840393066406,158.24452209472656,573.9213256835938
3129,154.8673858642578,-61.43720626831055,153.95111083984375,552.7721557617189
3130,162.205078125,-56.91192626953125,153.7229766845703,547.1847534179689
