,T7,F8,Cz,P4
2000,41.94110870361328,-210.3525390625,68.47943878173828,426.4626770019531
2001,55.38230895996094,-196.09603881835938,77.9376449584961,438.9501953125
2002,55.38604736328125,-190.8527069091797,85.71663665771484,446.650634765625
2003,41.22678756713867,-200.1463623046875,74.6278305053711,426.90771484375
2004,47.9997444152832,-197.6069641113281,73.51334381103516,426.32427978515625
2005,58.49390411376953,-193.60153198242188,79.53458404541016,432.7157897949219
2006,62.17022705078125,-190.04489135742188,81.80844116210938,423.6652221679688
2007,50.43442153930664,-205.16156005859372,72.58959197998047,399.348388671875
2008,57.74218368530274,-196.48873901367188,74.76246643066406,394.6996765136719
2009,70.42044830322266,-190.28797912597656,77.94886779785156,407.50885009765625
2010,68.34293365478516,-192.9657440185547,78.98481750488281,404.4982299804688
2011,56.22565460205078,-204.3051300048828,67.69779968261719,392.893310546875
2012,50.7990608215332,-193.53794860839844,70.36808776855469,399.28106689453125
2013,58.82488632202149,-188.9490966796875,82.08145141601562,411.7237243652344
2014,56.068580627441406,-192.629150390625,76.13127136230469,425.0377502441406
2015,42.40298461914063,-209.66065979003903,66.45989227294922,417.7337341308594
2016,45.92597198486328,-197.10955810546875,73.4460220336914,428.0521240234375
2017,53.24121475219727,-190.0486297607422,85.17060852050781,446.3589172363281
2018,51.24784851074219,-190.6507568359375,83.74945068359375,447.4098510742188
2019,30.521324157714844,-199.20016479492188,72.95610046386719,434.3089599609375
2020,34.93440628051758,-197.30029296875,70.09133148193361,435.8610229492188
2021,40.11042785644531,-185.8337554931641,79.29148864746094,445.6446228027344
2022,46.40841674804688,-187.10157775878903,86.40477752685547,443.9841003417969
2023,37.118507385253906,-201.36557006835938,78.90628051757812,429.2563781738281
2024,43.51373672485352,-193.3172912597656,74.784912109375,422.2290954589844
2025,58.69025039672852,-188.1076202392578,83.8803482055664,423.8484802246094
2026,62.30673217773438,-189.6895904541016,78.86888122558594,413.0476379394531
2027,51.97713088989258,-199.2375640869141,67.69032287597656,389.923828125
2028,67.48275756835939,-190.1421203613281,78.07228088378906,396.4798889160156
2029,79.46165466308594,-184.50982666015625,84.48246765136719,406.3158264160156
2030,73.78074645996094,-183.39907836914062,75.4880142211914,398.7200927734375
2031,58.15918350219727,-201.8442687988281,67.29763031005861,394.44537353515625
2032,56.90631866455078,-201.56378173828125,70.13995361328125,405.4967956542969
2033,63.73163604736328,-191.2379150390625,78.6220474243164,428.5943908691406
2034,56.39021301269531,-197.31524658203125,75.80963897705078,431.14874267578125
2035,33.531944274902344,-205.24009704589844,71.05622863769531,422.1991882324219
2036,28.61397361755371,-197.5172119140625,71.21330261230469,428.48968505859375
2037,42.38802719116211,-186.03196716308597,80.51817321777344,446.1943664550781
2038,35.196197509765625,-193.908203125,78.76416015625,446.3402404785156
2039,33.07941436767578,-204.4659423828125,71.83039093017578,436.638916015625
2040,39.88977432250977,-202.3379364013672,74.02197265625,432.7195129394531
2041,57.51592254638672,-195.5537567138672,79.02969360351562,443.2847290039063
2042,49.75936889648438,-200.5128631591797,70.90663146972656,432.23333740234375
2043,41.92053985595703,-206.4667816162109,70.28955078125,417.3672180175781
2044,52.45583724975586,-197.8837127685547,71.34046173095703,416.3163146972656
2045,65.46694946289061,-192.10557556152344,78.37147521972656,415.93109130859375
2046,61.66347122192383,-197.23297119140625,79.91979217529297,407.81927490234375
2047,49.58733367919922,-201.89288330078125,76.97274780273438,402.8115234375
2048,58.48829650878906,-192.7525787353516,81.70746612548828,409.3301696777344
2049,71.82852172851562,-185.6392822265625,87.75114440917969,419.4914855957031
2050,67.53885650634766,-194.0503234863281,85.77647399902344,418.5079040527344
2051,49.43773651123047,-208.2207946777344,73.80131530761719,415.8114318847656
2052,55.3766975402832,-204.2714691162109,72.58959197998047,425.0751647949219
2053,66.35704803466797,-197.5845184326172,75.66004943847656,427.2106323242188
2054,62.07859802246094,-198.1754302978516,73.65171813964844,421.4923400878906
2055,44.3851318359375,-208.14599609375,62.58909606933594,410.874755859375
2056,49.55741500854492,-203.2242889404297,65.4127197265625,417.4457702636719
2057,58.31251907348633,-193.145263671875,77.20836639404297,433.4862060546875
2058,51.88363265991211,-200.34457397460938,74.29872131347656,426.0812072753906
2059,37.62339401245117,-204.95587158203125,76.4977798461914,422.84619140625
2060,39.216590881347656,-201.08506774902344,80.30126190185547,430.6700439453125
2061,46.04938888549805,-185.65049743652344,84.18701934814453,441.7850341796875
2062,47.62388610839844,-191.4398651123047,79.1643295288086,431.03656005859375
2063,31.905086517333984,-201.46653747558597,66.62445068359375,411.884521484375
2064,41.55402755737305,-195.3892059326172,73.49090576171875,414.67822265625
2065,54.65489959716797,-180.3510589599609,84.31791687011719,418.5565185546875
2066,56.910057067871094,-180.8222961425781,80.85476684570312,412.8232421875
2067,47.0367202758789,-191.84751892089844,76.53892517089844,396.120849609375
2068,62.47876739501953,-187.62142944335938,76.135009765625,403.4585266113281
2069,74.74938201904297,-176.7682342529297,86.70023345947266,418.3994445800781
2070,78.71367645263672,-182.3444366455078,82.90797424316406,412.6138000488281
2071,62.66576385498047,-196.33914184570312,75.21125793457031,407.5350341796875
2072,67.97642517089844,-194.44674682617188,77.90772247314453,410.3661193847656
2073,62.63958358764648,-197.95851135253903,77.62349700927734,420.2357177734375
2074,66.46549987792969,-192.0644378662109,83.90278625488281,428.4859619140625
2075,44.10089874267578,-202.33419799804688,72.08096313476562,413.4552917480469
2076,45.1480712890625,-203.11582946777344,72.50730895996094,418.16009521484375
2077,53.00186157226562,-188.46664428710938,79.0633544921875,428.5607604980469
2078,45.87361145019531,-181.9891357421875,73.3824462890625,433.0411376953125
2079,32.383792877197266,-191.2266998291016,74.16034698486328,420.8415832519531
2080,33.07193374633789,-190.12342834472656,73.86115264892578,431.6611328125
2081,39.938392639160156,-173.67160034179688,79.82255554199219,439.0474243164063
2082,35.828243255615234,-189.03884887695312,75.6712646484375,430.2287292480469
2083,34.37342071533203,-191.4997100830078,70.30825042724611,414.865234375
2084,43.29308319091797,-191.2079925537109,73.49090576171875,414.40521240234375
2085,60.74719619750977,-177.8715057373047,84.0037612915039,433.8227844238281
2086,39.81497573852539,-185.6018829345703,71.40403747558594,418.010498046875
2087,36.60614013671875,-190.19073486328125,72.2791748046875,407.3779602050781
2088,54.5501823425293,-187.8907012939453,77.24202728271484,412.7895812988281
2089,74.16221618652344,-182.31077575683597,78.55472564697266,419.0726318359375
2090,68.82537841796875,-193.41079711914062,75.5291519165039,408.4849548339844
2091,61.32313919067383,-193.3172912597656,73.681640625,400.45538330078125
2092,57.6131591796875,-195.9614105224609,71.38159942626953,405.3359680175781
2093,65.60906219482422,-188.0066375732422,79.21295166015625,419.3680725097656
2094,55.33929824829102,-193.309814453125,77.0924301147461,422.3001403808594
2095,32.36135482788086,-204.52952575683597,66.05972290039061,413.7956237792969
2096,27.312488555908203,-196.58970642089844,67.69779968261719,410.6615905761719
2097,49.856605529785156,-180.45578002929688,73.14683532714844,433.5796813964844
2098,42.50396347045898,-196.0287322998047,71.20956420898438,428.5943908691406
2099,41.66622543334961,-197.85379028320312,77.46267700195312,426.9675598144531
2100,44.37017440795898,-197.28533935546875,75.9068832397461,426.6683654785156
2101,52.7662467956543,-184.81651306152344,76.80819702148438,434.772705078125
2102,45.30514907836914,-192.9283447265625,76.57632446289062,430.2100524902344
2103,32.17061996459961,-203.03355407714844,64.07009887695311,406.7533874511719
2104,49.78554916381836,-187.01182556152344,80.65655517578125,419.38677978515625
2105,60.42930221557617,-178.79901123046875,83.47269439697266,422.6517028808594
2106,59.5728645324707,-186.525634765625,86.19160461425781,415.4561462402344
2107,50.43255233764648,-193.20135498046875,78.97734069824219,401.1061401367188
2108,67.46405792236328,-187.85704040527344,80.19654846191406,410.7962341308594
2109,78.36585998535156,-183.8104705810547,87.10040283203125,421.7840576171875
2110,69.27042388916016,-192.52818298339844,81.95803833007812,424.4505920410156
2111,62.91633605957031,-206.51914978027344,74.9083251953125,413.2047119140625
2112,56.56598663330078,-203.321533203125,72.73170471191406,407.97259521484375
2113,68.18211364746094,-187.40451049804688,85.8475341796875,427.1358337402344
2114,52.96446228027344,-196.0287322998047,79.5457992553711,417.505615234375
2115,41.04914093017578,-204.8249664306641,73.22911071777344,408.855224609375
2116,43.44641876220703,-193.68006896972656,75.5702896118164,423.4707336425781
2117,54.1612319946289,-185.5009002685547,79.49344635009766,436.66510009765625
2118,54.5614013671875,-184.38267517089844,86.68153381347656,445.94378662109375
2119,39.67285919189453,-197.31524658203125,73.81627655029297,432.2295837402344
2120,46.2700424194336,-191.7166290283203,86.60673522949219,443.7933654785156
2121,52.13046646118164,-185.7589569091797,90.19329833984376,448.6739196777344
2122,51.47224426269531,-186.1067657470703,89.07132720947266,439.7692260742188
2123,45.892311096191406,-193.2275390625,83.05382537841797,425.3070373535156
2124,49.62099075317383,-188.32827758789062,82.42552185058594,418.328369140625
2125,62.54608535766602,-181.2823028564453,86.83486938476562,424.2187194824219
2126,53.40951156616211,-185.2952117919922,75.66004943847656,418.4854431152344
2127,45.129371643066406,-196.701904296875,71.96876525878906,397.2764892578125
2128,59.116600036621094,-190.32164001464844,80.69395446777344,407.2059020996094
2129,72.10153198242188,-184.90252685546875,83.40164184570312,419.8617248535156
2130,63.36138534545898,-196.1858062744141,76.96527099609375,413.6759338378906
2131,57.39250564575195,-201.8405303955078,71.80420684814453,414.07611083984375
2132,53.91813659667969,-207.8056640625,62.66763305664063,422.7115478515625
2133,64.77132415771484,-194.6636657714844,71.1160659790039,439.84027099609375
2134,51.55451965332031,-201.05889892578125,68.57293701171875,430.70745849609375
2135,37.39152145385742,-207.28956604003903,63.32211685180664,425.89794921875
2136,42.4478645324707,-200.3557891845703,72.52974700927734,444.25335693359375
2137,58.18536376953125,-198.063232421875,74.81482696533203,451.4526672363281
2138,54.624977111816406,-204.18170166015625,74.62035369873047,450.0315246582031
2139,39.88977432250977,-209.39512634277344,73.95838928222656,441.2090759277344
2140,59.13155746459961,-200.105224609375,80.23394012451172,444.4852294921875
2141,65.48564910888672,-188.94161987304688,86.40477752685547,445.4351806640625
2142,64.10188293457031,-195.0563507080078,84.88638305664062,429.9183349609375
2143,36.84175491333008,-202.67453002929688,72.16697692871094,405.04425048828125
2144,40.024410247802734,-198.1043701171875,72.64942932128906,407.5986022949219
2145,51.60688018798828,-186.89962768554688,80.0656509399414,410.7064514160156
2146,47.82958221435547,-190.0860290527344,74.85971069335938,404.96197509765625
2147,39.51952362060547,-197.0010986328125,69.92678070068361,394.74456787109375
2148,52.22770309448242,-189.84292602539062,76.310791015625,413.3056945800781
2149,65.27621459960939,-182.2023162841797,86.67778778076172,434.1930236816406
2150,53.27861404418945,-194.07275390625,79.527099609375,427.6182861328125
2151,47.71364212036133,-198.6877899169922,74.1678237915039,421.6344604492188
2152,47.78096008300781,-202.4314422607422,73.92473602294922,428.7552185058594
2153,56.0984992980957,-194.6599273681641,77.42901611328125,441.6092529296875
2154,55.30189895629883,-196.52239990234372,71.20582580566406,439.30548095703125
2155,45.320106506347656,-203.5047912597656,72.2193374633789,428.7140808105469
2156,41.03792190551758,-199.56292724609372,64.86295318603516,424.71612548828125
2157,65.65394592285156,-181.03546142578125,88.259765625,452.6120300292969
2158,60.283447265625,-192.4234619140625,77.51129913330078,439.73931884765625
2159,42.642337799072266,-206.77345275878903,67.14429473876953,418.4854431152344
2160,49.37789916992188,-196.60093688964844,76.21355438232422,427.8426818847656
2161,64.33750152587889,-185.8150634765625,78.60708618164062,427.56591796875
2162,55.76190948486328,-190.22439575195312,74.19026184082031,414.19952392578125
2163,40.98556518554688,-195.59115600585938,62.70877075195313,400.8293762207031
2164,43.11356735229492,-193.2574615478516,67.95211029052734,399.50921630859375
2165,55.42905807495117,-185.7701873779297,74.39595794677734,410.029541015625
2166,55.63849258422852,-182.5576019287109,78.23310089111328,412.2323303222656
2167,41.21743774414063,-199.15902709960938,74.85222625732422,403.585693359375
2168,55.28319931030274,-193.3472137451172,78.03488159179688,407.64349365234375
2169,66.3046875,-180.2987060546875,82.414306640625,428.9010620117188
2170,63.26040649414063,-186.2750701904297,81.17639923095703,428.1007385253906
2171,54.78579330444336,-198.59056091308597,76.3294906616211,425.1985778808594
2172,49.19838333129883,-203.8451232910156,72.97480010986328,431.3843688964844
2173,59.5205078125,-194.68235778808597,75.6899642944336,443.3034362792969
2174,57.96844863891602,-196.8402862548828,79.43360137939453,447.75390625
2175,37.98990249633789,-207.14370727539062,71.8565673828125,426.2457580566406
2176,44.792781829833984,-200.6026306152344,70.371826171875,428.7140808105469
2177,56.13589859008789,-190.269287109375,79.72905731201172,437.6187744140625
2178,61.0239486694336,-197.83883666992188,75.60395050048828,434.9971008300781
2179,43.56609344482422,-205.67393493652344,67.55194091796875,415.6431274414063
2180,40.30864334106445,-205.38595581054688,68.86090850830078,415.80767822265625
2181,58.06942749023438,-193.75860595703125,73.19544982910156,426.8927612304688
2182,55.82174682617188,-190.8938446044922,70.77947998046875,420.7630615234375
2183,46.083045959472656,-200.8120574951172,64.25334930419922,397.80755615234375
2184,60.32084655761719,-195.2620391845703,76.28086853027344,407.9651184082031
2185,69.15074920654297,-184.85015869140625,80.13670349121094,412.9429321289063
2186,63.10707092285156,-192.6478576660156,79.83003234863281,406.6972961425781
2187,44.7553825378418,-190.8003387451172,78.3602523803711,399.7822265625
2188,45.76141738891602,-194.1587829589844,80.59297180175781,411.4507141113281
2189,62.27307510375977,-184.4499969482422,90.02873992919922,434.3650817871094
2190,53.69374465942383,-190.6769256591797,87.07048034667969,436.0442810058594
2191,38.88000106811523,-202.33419799804688,79.16059112548828,429.45458984375
2192,42.29826736450195,-196.14093017578125,81.13152313232422,441.7102355957031
2193,45.66417694091797,-196.12222290039062,79.62059783935547,449.0666198730469
2194,38.18437957763672,-195.2246551513672,74.8036117553711,444.6684875488281
2195,33.06819534301758,-204.81375122070312,65.59971618652344,429.5967102050781
2196,48.22227096557617,-198.96080017089844,72.5372314453125,432.4090881347656
2197,54.52400207519531,-187.90191650390625,79.5046615600586,429.1479187011719
2198,58.39105987548828,-188.24598693847656,79.0035171508789,425.94281005859375
2199,44.792781829833984,-210.6592102050781,69.5677490234375,405.1601867675781
2200,54.77831649780274,-206.2124786376953,71.64339447021484,405.57159423828125
2201,63.90367126464844,-194.9927673339844,77.36170196533203,419.0389709472656
2202,61.09500503540039,-192.73013305664062,74.91206359863281,413.9900817871094
2203,44.90497970581055,-209.20065307617188,59.18578720092773,402.8825988769531
2204,56.8203010559082,-200.5465240478516,60.053443908691406,398.1291809082031
2205,65.36222839355469,-190.2767639160156,67.6192626953125,405.8670349121094
2206,56.9511947631836,-187.18760681152344,69.99784088134766,401.9214477539063
2207,42.836814880371094,-201.23092651367188,62.44697952270508,402.9685974121094
2208,46.75996780395508,-190.66571044921875,74.8671875,420.83038330078125
2209,57.97966766357422,-179.95089721679688,88.35326385498047,430.546630859375
2210,50.787841796875,-191.6642608642578,81.07542419433594,431.87054443359375
2211,40.05432891845703,-206.3639373779297,74.29872131347656,429.72760009765625
2212,46.05312728881836,-203.6338195800781,79.34758758544922,436.6202392578125
2213,58.36113739013672,-200.7989654541016,80.11052703857422,449.8819274902344
2214,59.00814056396485,-206.7603759765625,74.32864379882812,443.59515380859375
2215,40.38718032836914,-218.56723022460938,62.22258377075195,428.77392578125
2216,48.54764175415039,-215.42198181152344,66.94982147216797,430.1165466308594
2217,66.17378997802734,-202.5567169189453,79.8898696899414,436.3771362304688
2218,53.38333129882813,-201.61427307128903,75.48426818847656,418.7248229980469
2219,43.28560256958008,-204.05642700195312,73.50586700439453,403.3313903808594
2220,42.36558532714844,-201.8461456298828,73.98082733154297,398.2152099609375
2221,59.18017578125,-190.03553771972656,72.95610046386719,410.2240295410156
2222,58.54065322875977,-192.47021484375,70.13995361328125,408.8140869140625
2223,52.31745910644531,-204.1387023925781,66.13825988769531,394.1798400878906
2224,54.13505172729492,-203.80210876464844,64.59741973876953,396.7154846191406
2225,70.6429672241211,-194.9273223876953,72.86260223388672,413.6983947753906
2226,63.23048782348633,-198.9402313232422,68.06804656982422,416.1405334472656
2227,51.722816467285156,-204.8081359863281,68.66269683837889,406.06524658203125
2228,43.554874420166016,-197.3844451904297,74.94198608398438,421.6830749511719
2229,47.074119567871094,-186.58360290527344,74.5866928100586,442.4656982421875
2230,36.96142959594727,-188.38998413085938,72.35023498535156,443.7148132324219
2231,19.32780265808105,-201.2066192626953,59.20074462890625,425.04150390625
2232,27.910873413085934,-194.84878540039062,68.58041381835939,437.0802307128906
2233,44.99473571777344,-189.4034881591797,76.49030303955078,439.3915100097656
2234,52.42965698242188,-195.8061981201172,77.18966674804688,431.990234375
2235,47.526649475097656,-204.14244079589844,71.80795288085938,421.1744384765625
2236,51.09077453613281,-211.8129730224609,68.7225341796875,409.7341003417969
2237,66.66371917724611,-192.5113525390625,79.59815979003906,422.9097595214844
2238,60.70231628417969,-200.75035095214844,72.24551391601562,413.1972351074219
2239,42.83307266235352,-205.8814849853516,68.03439331054689,397.8935546875
2240,46.12044525146485,-207.16427612304688,68.8048095703125,400.5002746582031
2241,62.56852722167969,-192.0737762451172,75.44686889648438,411.3197937011719
2242,61.22590255737305,-190.9705047607422,79.40742492675781,412.318359375
2243,48.51398086547852,-198.56251525878903,72.10713958740234,396.7790832519531
2244,53.03178024291992,-197.0104522705078,79.98711395263672,402.3814392089844
2245,60.451744079589844,-187.0847625732422,83.28570556640625,418.350830078125
2246,50.13335800170898,-192.0438690185547,77.57113647460938,423.5679931640625
2247,39.49334335327149,-194.13446044921875,74.75872802734375,416.0919189453125
2248,35.10644149780273,-201.2477569580078,71.43769836425781,418.7509765625
2249,58.27511978149414,-191.17620849609372,76.1163101196289,443.3258666992188
2250,55.043846130371094,-202.24630737304688,77.5561752319336,439.5971984863281
2251,48.00161743164063,-204.4678039550781,70.55882263183594,431.3955993652344
2252,44.23927688598633,-210.59376525878903,66.48606872558594,426.7281799316406
2253,61.50639343261719,-202.3846893310547,79.94971466064453,442.5592041015625
2254,51.75273513793945,-209.0454406738281,69.45555114746094,430.05670166015625
2255,37.82908630371094,-212.9499053955078,67.25275421142578,426.1559753417969
2256,44.175697326660156,-202.4370422363281,78.42008972167969,428.43731689453125
2257,56.046142578125,-189.2800750732422,86.74884796142578,436.837158203125
2258,46.46825790405274,-201.1243438720703,81.88323974609375,431.4778747558594
2259,31.52735710144043,-207.5607147216797,69.78840637207031,407.751953125
2260,48.71967697143555,-197.48915100097656,78.73050689697266,412.8195190429688
2261,64.46839904785156,-186.35922241210938,88.88806915283203,417.4308166503906
2262,62.9425163269043,-178.8158416748047,86.5693359375,410.6802978515625
2263,49.26570129394531,-193.16583251953125,76.42298889160156,397.4111328125
2264,58.49577331542969,-191.8905334472656,79.93849182128906,404.6141662597656
2265,63.70919418334961,-186.90524291992188,79.01473999023438,414.5884704589844
2266,56.95493698120117,-186.13108825683597,76.92413330078125,424.3384094238281
2267,41.48670959472656,-194.2466583251953,71.70323181152344,417.7486877441406
2268,40.22636413574219,-195.41351318359372,70.94029235839844,432.8204956054688
2269,45.71653747558594,-195.97076416015625,69.63507080078125,439.21197509765625
2270,39.71025848388672,-199.31048583984372,70.36808776855469,441.1156005859375
2271,34.04056930541992,-209.92807006835938,67.81747436523439,430.5092468261719
2272,33.303810119628906,-212.14208984375,64.62734222412111,432.05755615234375
2273,45.19668960571289,-197.1263885498047,76.01533508300781,443.2847290039063
2274,46.17654418945313,-196.93191528320312,77.24576568603516,438.7220458984375
2275,43.45389938354492,-210.97897338867188,67.39486694335939,422.16925048828125
2276,49.67708969116211,-202.5006256103516,71.76680755615234,425.0340270996094
2277,62.94999694824219,-189.26138305664062,78.81278228759766,427.7604064941406
2278,59.75238037109375,-191.2696990966797,78.2181396484375,421.3053283691406
2279,43.895206451416016,-204.3481292724609,64.13741302490234,401.19964599609375
2280,51.24784851074219,-193.0124969482422,73.72651672363281,404.9918823242188
2281,60.27970886230469,-180.6147308349609,82.3544692993164,416.5481872558594
2282,60.16751098632813,-172.4168701171875,86.87226867675781,413.92279052734375
2283,42.63859939575195,-186.50132751464844,81.52794647216797,403.7726745605469
2284,51.78265380859375,-187.92623901367188,81.50550842285156,410.2015686035156
2285,60.6836166381836,-179.5264129638672,91.21428680419922,432.9850463867188
2286,60.18621063232422,-181.1121368408203,87.41081237792969,432.4539794921875
2287,38.81268310546875,-198.55502319335938,73.05333709716797,418.5228576660156
2288,44.49359130859375,-195.8136749267578,77.0924301147461,427.2106323242188
2289,62.42641067504883,-190.8096923828125,78.09845733642578,442.26373291015625
2290,61.73452758789063,-202.3435516357422,75.25988006591797,438.2471008300781
2291,47.91185760498047,-210.8181610107422,67.62673950195311,417.2812194824219
2292,44.64318466186523,-210.3132781982422,64.46278381347656,424.3197021484375
2293,63.55960083007813,-203.20372009277344,75.3720703125,437.001708984375
2294,50.09970092773438,-210.0552215576172,66.97599792480469,432.01641845703125
2295,45.1592903137207,-213.8699188232422,65.20702362060547,422.505859375
2296,54.92042922973633,-209.5166778564453,72.88877868652344,427.3864135742188
2297,62.1384391784668,-200.6905059814453,81.46063232421875,432.48388671875
2298,56.31915283203125,-198.5849456787109,81.58778381347656,424.525390625
2299,44.04106140136719,-199.9724578857422,80.39102172851562,417.5018615722656
2300,40.65645217895508,-192.8367156982422,82.66487884521484,418.4443054199219
2301,54.33700561523438,-171.6501922607422,93.00196075439452,428.47845458984375
2302,57.171852111816406,-175.8126983642578,90.8477783203125,416.0694885253906
2303,48.181129455566406,-183.53558349609372,80.93704223632812,397.9010314941406
2304,62.24689483642578,-188.1581115722656,81.87576293945312,403.7091064453125
2305,68.38780975341797,-183.10923767089844,81.17266082763672,408.2867431640625
2306,66.24111175537111,-182.02093505859372,81.68876647949219,410.3100280761719
2307,52.79616928100586,-192.5001373291016,69.9080810546875,408.0249633789063
2308,49.894004821777344,-193.6744537353516,67.33876800537111,411.0580139160156
2309,65.68386077880861,-192.6572113037109,70.4541015625,429.7388000488281
2310,51.146873474121094,-198.491455078125,71.56485748291016,436.8782958984375
2311,38.38633346557617,-212.306640625,62.97056579589844,424.1962890625
2312,38.92487716674805,-211.39784240722656,63.714805603027344,425.6473693847656
2313,55.15978622436523,-194.06341552734372,76.4566421508789,449.3134460449219
2314,41.49419021606445,-196.6514129638672,68.74497222900389,439.1521301269531
2315,31.12344741821289,-214.28878784179688,65.30426025390625,425.0938720703125
2316,49.06748580932617,-209.853271484375,63.8344841003418,425.4828186035156
2317,64.16920471191406,-193.09103393554688,74.32115936279297,437.46917724609375
2318,58.70895004272461,-186.17596435546875,71.72566986083984,425.6959838867188
2319,45.30514907836914,-204.1910552978516,61.46712493896485,413.410400390625
2320,48.05023574829102,-196.2325439453125,77.25324249267578,427.4724426269531
2321,56.36403274536133,-175.6369171142578,92.53073120117188,444.455322265625
2322,54.96905136108398,-172.53280639648438,99.4345932006836,441.1193237304688
2323,45.27523040771485,-183.12046813964844,88.60009765625,408.2643127441406
2324,50.70556259155274,-185.49903869628903,85.93354797363281,395.63092041015625
2325,63.78025436401367,-181.0934295654297,83.85791015625,393.40570068359375
2326,52.49697494506836,-182.94468688964844,78.25553894042969,387.24981689453125
2327,44.66936492919922,-192.8816070556641,64.93401336669922,381.542724609375
2328,45.1480712890625,-195.5818023681641,72.41754913330078,397.84869384765625
2329,50.68686294555664,-193.0461578369141,74.92328643798828,422.0495910644531
2330,51.191749572753906,-198.39047241210938,68.62903594970703,426.7281799316406
2331,43.56609344482422,-215.5528717041016,65.13970947265625,423.2874755859375
2332,48.42422485351562,-220.43344116210938,59.69815444946289,425.72216796875
2333,63.78399276733398,-206.09466552734372,65.24068450927734,438.58740234375
2334,58.46211624145508,-212.3440399169922,63.8644027709961,434.5670166015625
2335,46.35606002807617,-218.69064331054688,59.94124603271485,424.03546142578125
2336,52.61665344238281,-213.3874664306641,66.20932006835939,429.8959045410156
2337,63.6456184387207,-199.61715698242188,75.06914520263672,437.1999206542969
2338,65.36222839355469,-195.7276611328125,76.68477630615234,434.0284729003906
2339,47.79218292236328,-199.3441467285156,74.39221954345703,417.2325744628906
2340,44.77408218383789,-200.57456970214844,74.02944946289062,418.0852966308594
2341,49.24700164794922,-190.93685913085938,74.83726501464844,431.0328063964844
2342,47.85575866699219,-184.2349548339844,80.79866790771484,428.5570068359375
2343,40.07676696777344,-193.42388916015625,70.4541015625,408.2680358886719
2344,43.24446487426758,-187.36898803710938,76.14623260498047,402.8713684082031
2345,65.13784027099611,-182.4622344970703,78.47992706298828,407.048828125
2346,60.28718566894531,-180.92514038085938,72.32405853271484,394.11627197265625
2347,44.897499084472656,-195.17416381835938,66.65810394287111,379.6802673339844
2348,50.08100128173828,-193.902587890625,65.50995635986328,396.988525390625
2349,56.28923416137695,-194.7627716064453,68.35601806640625,410.6765441894531
2350,54.29212951660156,-198.491455078125,69.03668212890625,425.9353332519531
2351,46.2812614440918,-215.3209991455078,62.47315979003906,419.4653015136719
2352,48.36064529418945,-204.99139404296875,67.21160888671875,432.3380432128906
2353,58.51073455810547,-193.9586944580078,81.61396789550781,448.6327819824219
2354,45.81751251220703,-200.03602600097656,75.76102447509766,436.1938781738281
2355,39.46342468261719,-206.13206481933597,73.8274917602539,429.8173522949219
2356,48.368125915527344,-200.6830291748047,76.3294906616211,430.9468078613281
2357,68.60098266601561,-190.93310546875,81.90193939208984,442.18145751953125
2358,54.007896423339844,-199.57601928710938,73.95091247558594,426.6197509765625
2359,48.0876350402832,-202.9344482421875,74.83726501464844,419.525146484375
2360,55.27198028564453,-197.2535400390625,76.96900939941406,424.4468688964844
2361,61.8392448425293,-190.0205841064453,85.466064453125,433.8975830078125
2362,55.05880737304688,-182.00970458984372,84.49369049072266,428.95343017578125
2363,46.25882339477539,-183.71136474609372,77.5561752319336,406.58135986328125
2364,54.28838729858398,-182.0545959472656,82.29463195800781,397.9346923828125
2365,56.63704681396485,-180.8952178955078,85.92607116699219,403.6044006347656
2366,50.32783508300781,-184.4967498779297,78.16577911376953,400.2010803222656
2367,36.84175491333008,-199.0412139892578,66.73664855957031,399.759765625
2368,32.679244995117195,-201.5469512939453,65.72687530517578,410.7438659667969
2369,45.70531845092773,-192.30191040039062,72.49983215332031,427.3789367675781
2370,42.35436630249024,-201.44223022460938,61.06321716308594,429.1516418457031
2371,32.25289535522461,-216.7982635498047,55.25889205932617,422.33380126953125
2372,41.22117614746094,-218.7916259765625,57.33079528808594,429.4209289550781
2373,59.75612258911133,-201.7900390625,71.40029907226562,446.7815246582031
2374,56.56598663330078,-205.6458740234375,65.24816131591797,443.6325378417969
2375,51.763954162597656,-215.8296203613281,61.41102600097656,430.1838684082031
2376,45.90727233886719,-211.48385620117188,60.28905868530274,430.79345703125
2377,61.31940078735352,-207.10069274902344,72.66438293457031,444.5450744628906
2378,61.12492370605469,-202.1752471923828,66.02232360839844,436.4220275878906
2379,47.04046249389648,-207.19419860839844,60.9061393737793,415.09710693359375
2380,51.97713088989258,-201.2814178466797,64.56002044677734,411.6863098144531
2381,65.66142272949219,-191.4791412353516,77.72447204589844,424.5702819824219
2382,60.40686416625977,-191.3632049560547,80.09182739257812,419.4017333984375
2383,43.1883659362793,-193.7342987060547,69.9903564453125,402.74420166015625
2384,38.44617080688477,-195.55563354492188,63.42309188842773,399.0379638671875
2385,55.53003311157226,-183.726318359375,76.18363189697266,415.0036010742188
2386,54.774574279785156,-191.9690704345703,76.92787170410156,409.2890319824219
2387,41.120201110839844,-201.4871063232422,64.02521514892578,387.2610168457031
2388,52.91584396362305,-190.28985595703125,67.46592712402344,401.1547546386719
2389,57.171852111816406,-195.0469970703125,67.25275421142578,410.698974609375
2390,52.3735580444336,-194.72911071777344,68.22886657714844,415.56085205078125
2391,38.214298248291016,-205.4775848388672,59.31668472290039,407.7856140136719
2392,47.567787170410156,-199.91635131835938,68.87586975097656,426.3878784179688
2393,60.00669479370117,-193.92877197265625,74.04814910888672,436.9605712890625
2394,51.05337524414063,-200.28286743164062,72.56340789794922,440.8912048339844
2395,40.06180953979492,-208.54429626464844,65.64459228515625,429.55181884765625
2396,42.97145080566406,-206.0011749267578,70.11377716064453,438.0376586914063
2397,59.4793701171875,-197.07028198242188,75.79093933105469,441.9308776855469
2398,62.99861526489258,-199.36285400390625,73.7452163696289,438.4041748046875
2399,51.69663619995117,-203.6525115966797,69.67994689941406,426.6982727050781
2400,51.76769638061523,-202.27996826171875,66.91616058349611,423.8447265625
2401,66.09525299072266,-182.7202911376953,80.11800384521484,436.47064208984375
2402,55.025146484375,-188.9434814453125,71.62469482421875,418.8781433105469
2403,47.84828186035156,-193.64454650878903,71.08615112304688,406.7533874511719
2404,57.81885147094727,-193.1059875488281,70.42792510986328,403.1369018554688
2405,64.10936737060547,-186.93516540527344,77.4776382446289,403.86993408203125
2406,58.776268005371094,-180.58106994628903,81.89071655273438,411.1664733886719
2407,44.75912094116211,-191.6661376953125,72.51104736328125,395.7580871582031
2408,46.11670684814453,-191.00042724609372,71.90892791748047,406.0203552246094
2409,50.56344604492188,-189.51194763183597,76.19859313964844,415.53466796875
2410,49.14976501464844,-193.80535888671875,71.78550720214844,423.27252197265625
2411,36.733299255371094,-206.7229766845703,69.48172760009766,420.0823974609375
2412,48.74211502075195,-202.24444580078125,71.04313659667969,433.3328552246094
2413,54.32952499389648,-198.67657470703125,76.33509826660156,445.3416748046875
2414,49.98750305175781,-210.07952880859372,72.38202667236328,447.4621887207031
2415,39.8598518371582,-220.20718383789062,62.65828323364258,439.279296875
2416,44.44123077392578,-209.5858612060547,61.27452087402344,445.7306213378906
2417,59.75238037109375,-203.08966064453125,74.15099334716797,450.58502197265625
2418,48.51398086547852,-208.31430053710938,64.07944488525389,446.6431579589844
2419,33.95081329345703,-218.54666137695312,61.71208953857422,432.5362548828125
2420,46.1802864074707,-211.9345245361328,69.59205627441406,432.34552001953125
2421,53.40951156616211,-193.84835815429688,78.66879272460938,437.4168395996094
2422,45.05457305908203,-197.98843383789062,67.43413543701172,414.8315734863281
2423,38.10958099365234,-196.10726928710938,71.31989288330078,400.3506774902344
2424,43.07990646362305,-188.8294219970703,73.72464752197266,396.28167724609375
2425,59.1689567565918,-180.67269897460938,79.110107421875,407.0076904296875
2426,51.51338195800781,-193.2238006591797,69.58457946777344,398.0394287109375
2427,43.06868743896485,-201.0439300537109,64.47587585449219,391.30010986328125
2428,45.64547729492188,-193.0068817138672,70.59809112548828,401.4801330566406
2429,65.39962768554689,-190.9985656738281,73.511474609375,418.7023620605469
2430,56.67444229125977,-200.49790954589844,69.40132141113281,426.4925842285156
2431,41.32963562011719,-204.21910095214844,69.02359008789061,422.49462890625
2432,41.13515853881836,-205.22140502929688,67.14990234375,427.6669006347656
2433,54.49408340454102,-201.12994384765625,72.80089569091797,440.7827453613281
2434,52.87096405029297,-206.2349090576172,68.2943115234375,450.33819580078125
2435,50.0436019897461,-214.82546997070312,63.967247009277344,438.164794921875
2436,48.44666290283203,-211.48573303222656,69.30408477783203,439.032470703125
2437,59.9318962097168,-197.8201446533203,76.06208801269531,459.5570373535156
2438,54.12757110595703,-203.94235229492188,70.57191467285156,445.5025024414063
2439,47.85950088500977,-202.26687622070312,66.45428466796875,426.6795654296875
2440,54.733436584472656,-201.3992156982422,66.79087066650389,417.79730224609375
2441,73.86676025390625,-190.8601837158203,76.57819366455078,421.1781921386719
2442,63.6867561340332,-191.0995330810547,75.72175598144531,413.245849609375
2443,50.71304321289063,-202.0948486328125,59.161476135253906,394.5201721191406
2444,52.01078796386719,-197.06842041015625,61.90282440185547,394.4827880859375
2445,62.10103988647461,-187.9430694580078,72.69243621826172,408.3839721679688
2446,55.728248596191406,-195.97262573242188,68.43643188476561,411.566650390625
2447,43.5399169921875,-212.0915985107422,62.43389129638672,408.1034851074219
2448,53.94431686401367,-198.17916870117188,73.66107177734375,424.75726318359375
2449,70.13434600830078,-193.4668884277344,82.6854476928711,438.8716430664063
2450,57.51218032836914,-200.40814208984372,73.05894470214844,442.764892578125
2451,39.20162963867188,-208.2021026611328,66.8507080078125,435.72637939453125
2452,41.75224304199219,-205.3148956298828,71.23013305664062,439.7767028808594
2453,51.64801788330078,-194.3495178222656,78.26488494873047,451.1086120605469
2454,44.02610397338867,-200.8943328857422,71.86217498779297,451.1160888671875
2455,47.23119735717773,-207.0988311767578,65.38841247558594,437.19244384765625
2456,55.96386337280274,-199.9219665527344,72.490478515625,435.8198852539063
2457,73.4104995727539,-187.1614227294922,76.50713348388672,446.25421142578125
2458,68.96001434326172,-190.1869964599609,78.34716796875,439.8814086914063
2459,42.41046524047852,-202.18833923339844,65.48564910888672,409.9397888183594
2460,50.05855941772461,-201.51141357421875,60.16376876831055,403.9035949707031
2461,55.23084259033203,-188.03656005859372,69.51725769042969,411.719970703125
2462,53.16267776489258,-185.41488647460938,59.88701629638672,410.885986328125
2463,41.10150146484375,-207.0315093994141,48.67853927612305,388.0464172363281
2464,39.46342468261719,-199.7424468994141,48.480323791503906,392.8521728515625
2465,53.4469108581543,-185.5570068359375,61.446556091308594,417.7337341308594
2466,48.9814682006836,-186.67149353027344,63.45114135742188,423.6315612792969
2467,38.25543594360352,-200.5652313232422,53.46186828613281,411.7872924804688
2468,53.92935562133789,-193.38461303710938,68.6346435546875,422.22161865234375
2469,64.9022216796875,-185.9422149658203,69.88377380371094,436.4369812011719
2470,52.45209503173828,-193.0255889892578,67.55755615234375,431.051513671875
2471,48.1362533569336,-202.03500366210938,64.41603851318361,425.6847534179688
2472,52.08932495117188,-197.722900390625,66.61883544921875,428.8935852050781
2473,60.50784301757813,-194.40187072753903,74.22579193115234,442.5404968261719
2474,60.19369125366211,-198.7850341796875,77.19153594970703,439.8066101074219
2475,50.94117736816406,-207.3381805419922,66.44680023193361,422.6105651855469
2476,55.82548522949219,-199.8060302734375,72.69991302490234,423.8746643066406
2477,64.90596008300781,-190.86392211914062,78.43692016601562,425.9877014160156
2478,54.28464889526367,-196.2456359863281,68.70196533203125,414.5024719238281
2479,50.08848190307617,-201.1598663330078,70.05206298828125,409.4648132324219
2480,48.00909423828125,-197.9659881591797,67.912841796875,405.1788940429688
2481,61.95144271850586,-180.1603240966797,71.27501678466797,415.74786376953125
2482,51.490943908691406,-187.61395263671875,67.53885650634766,409.6480712890625
2483,41.57646942138672,-199.3834228515625,53.94805526733398,399.9430236816406
2484,44.56464767456055,-197.2030487060547,56.00126266479492,410.5531311035156
2485,54.16497039794922,-194.75341796875,59.63270568847656,419.4391174316406
2486,56.29297256469727,-194.6748809814453,59.45318984985352,424.28228759765625
2487,41.32589340209961,-207.9365692138672,50.49612808227539,414.1434326171875
2488,46.45703887939453,-203.1831512451172,53.79098129272461,421.3016052246094
2489,51.95843124389648,-203.3028259277344,61.47273635864258,433.6694641113281
2490,53.35715103149414,-202.69696044921875,65.119140625,439.29425048828125
2491,40.25628280639648,-204.6342315673828,60.60881805419922,428.0072326660156
2492,53.18511581420898,-199.81724548339844,62.403968811035156,438.0376586914063
2493,65.06678009033203,-188.8668212890625,73.90790557861328,454.3361511230469
2494,51.65549850463867,-202.52867126464844,65.46694946289061,435.96575927734375
2495,47.46306991577149,-197.7602996826172,67.18730163574219,432.0201416015625
2496,46.34109878540039,-189.8391876220703,72.23990631103516,425.28460693359375
2497,57.75901412963867,-177.65086364746094,80.45646667480469,429.7051696777344
2498,52.867225646972656,-181.85824584960938,80.32930755615234,421.3464660644531
2499,42.90787124633789,-189.5250396728516,70.25775909423828,405.87451171875
2500,49.37416076660156,-185.57569885253903,71.86592102050781,403.9484558105469
2501,64.06074523925781,-172.7515869140625,69.29660797119139,404.1429443359375
2502,59.93563842773438,-179.77137756347656,70.16426086425781,402.6282653808594
2503,47.96795654296875,-194.44674682617188,59.07172012329102,388.4054260253906
2504,57.50096130371094,-190.3515625,66.02793121337889,401.2706909179688
2505,65.48938751220703,-193.08917236328125,67.34812164306639,414.6258850097656
2506,56.92875671386719,-191.3575897216797,63.79147338867188,418.8108215332031
2507,44.04480361938477,-207.4877777099609,52.672752380371094,411.57037353515625
2508,49.04878616333008,-208.32177734375,58.14796447753906,421.9523315429688
2509,64.11310577392578,-197.30776977539062,64.37863922119139,442.8396911621094
2510,57.66177749633789,-208.6172332763672,61.51013565063477,439.9898681640625
2511,50.0361213684082,-221.3702850341797,57.934791564941406,431.17120361328125
2512,50.22311782836914,-213.7895050048828,60.915489196777344,435.113037109375
2513,58.4060173034668,-205.2999420166016,62.39649200439453,448.3448181152344
2514,53.4693489074707,-205.21017456054688,72.13519287109375,446.13079833984375
2515,41.95419692993164,-209.44749450683597,67.40422058105469,429.7575073242188
2516,47.73234176635742,-203.25421142578125,71.18899536132812,426.9264221191406
2517,60.5938606262207,-190.78912353515625,68.92261505126953,428.1568298339844
2518,61.68590927124024,-185.9347381591797,73.13374328613281,419.97393798828125
2519,46.36354064941406,-202.52867126464844,66.83575439453125,409.4498596191406
2520,45.237831115722656,-193.45567321777344,68.06617736816406,414.2593688964844
2521,62.87893676757813,-183.6982727050781,78.13398742675781,430.61767578125
2522,51.98086929321289,-186.9071044921875,69.33774566650389,433.2730102539063
2523,29.27967643737793,-194.3195953369141,60.115150451660156,422.236572265625
2524,37.29054260253906,-193.2425079345703,60.20116806030274,424.5590515136719
2525,47.78096008300781,-183.54119873046875,68.44017028808594,437.1064147949219
2526,45.02091598510742,-189.82797241210938,65.119140625,427.82025146484375
2527,32.099559783935554,-197.66680908203125,60.08897399902344,417.7823486328125
2528,39.07073593139648,-202.19207763671875,59.99547576904297,421.03607177734375
2529,56.07979965209961,-193.8745422363281,67.91658020019531,439.5335998535156
2530,59.84587860107422,-192.81988525390625,72.80089569091797,438.176025390625
2531,43.36040115356445,-211.796142578125,61.03890609741211,426.3691711425781
2532,51.09077453613281,-210.67417907714844,66.02793121337889,435.3337097167969
2533,64.80872344970703,-199.00942993164062,67.77446746826172,442.3834228515625
2534,58.357398986816406,-203.45616149902344,66.99656677246094,441.51202392578125
2535,46.69639205932617,-208.72569274902344,57.73657608032226,424.1102600097656
2536,57.022254943847656,-197.8911895751953,60.42182540893555,423.5492858886719
2537,61.61111068725586,-194.0054473876953,69.33026885986328,425.7520751953125
2538,59.097900390625,-192.0980987548828,73.14122009277344,418.11895751953125
2539,45.99702835083008,-197.3788299560547,76.1817626953125,407.2994079589844
2540,60.29840850830078,-192.3374481201172,79.49531555175781,417.2438049316406
2541,67.47527313232422,-183.66835021972656,84.99296569824219,422.04583740234375
2542,55.07002639770508,-187.5354156494141,78.91937255859375,422.4048767089844
2543,38.98845672607422,-198.0669708251953,65.13035583496094,412.224853515625
2544,43.663330078125,-197.7303771972656,68.27935028076172,415.7066955566406
2545,58.166664123535156,-196.10353088378903,68.55984497070311,436.4257507324219
2546,55.63849258422852,-199.48065185546875,75.37020111083984,431.9116821289063
2547,42.32818603515625,-214.765625,61.99258041381836,421.6793212890625
2548,44.62822723388672,-209.03610229492188,64.24400329589844,426.0475463867188
2549,61.7906265258789,-199.5778961181641,67.14616394042969,433.78912353515625
2550,64.56937408447266,-202.300537109375,71.45079040527344,438.5500183105469
2551,42.496482849121094,-216.26158142089844,66.22615051269531,428.9870910644531
2552,43.12852478027344,-208.08616638183597,64.58433532714844,428.66546630859375
2553,62.1309585571289,-198.88226318359372,68.27935028076172,440.7677917480469
2554,55.96386337280274,-199.8920440673828,73.00658416748047,445.1285095214844
2555,41.40817260742188,-212.73486328125,63.122032165527344,429.0618896484375
2556,46.13540649414063,-213.7109680175781,61.63355255126953,421.742919921875
2557,64.861083984375,-197.4311828613281,65.13035583496094,424.0840759277344
2558,61.97388076782226,-195.60986328125,72.84203338623047,409.32269287109375
2559,54.39684295654297,-197.1394805908203,65.34352874755861,391.89849853515625
2560,57.51592254638672,-201.58995056152344,66.14012908935547,393.05413818359375
2561,67.59869384765625,-192.49826049804688,71.29745483398438,409.12823486328125
2562,59.45692825317383,-193.27615356445312,74.30807495117188,416.96331787109375
2563,42.69469833374024,-205.33734130859372,68.50748443603516,412.3407897949219
2564,47.3658332824707,-199.4021148681641,68.11853790283203,415.08587646484375
2565,56.528587341308594,-198.9533233642578,67.748291015625,424.8133544921875
2566,56.569725036621094,-201.14117431640625,68.88147735595703,425.0115661621094
2567,46.90582656860352,-207.3157501220703,59.26245498657226,416.7800598144531
2568,45.59312057495117,-208.8715362548828,62.553565979003906,415.35888671875
2569,63.122032165527344,-195.8978271484375,67.52389526367189,427.5247802734375
2570,62.03372192382813,-208.2207946777344,66.06533050537111,429.86224365234375
2571,41.7036247253418,-215.43881225585938,60.67239761352539,416.9072265625
2572,40.742469787597656,-212.2224884033203,58.38357925415039,424.1588745117188
2573,64.23651885986328,-196.701904296875,73.1487045288086,446.52349853515625
2574,65.52678680419922,-196.6158905029297,72.13893127441406,438.6584777832031
2575,52.336158752441406,-204.11065673828125,63.3950424194336,424.8619995117188
2576,56.58842468261719,-197.62940979003903,65.02564239501953,425.3032836914063
2577,62.16461563110352,-190.2617950439453,76.03964233398438,431.5190124511719
2578,59.78604125976562,-193.1228179931641,73.75830841064453,427.1620178222656
2579,44.09716033935547,-201.52638244628903,63.62691879272461,406.7047729492188
2580,59.28863525390625,-193.79600524902344,74.58482360839844,406.5215148925781
2581,72.75975036621094,-185.09326171875,80.56118774414062,404.1653747558594
2582,70.10068511962889,-186.0357208251953,80.87533569335938,398.7200927734375
2583,58.87350463867188,-198.80372619628903,77.2663345336914,395.4588928222656
2584,63.15195083618164,-193.29486083984372,77.01576232910156,406.8955078125
2585,71.5442886352539,-190.02618408203125,78.65757751464844,420.81915283203125
2586,60.97158813476562,-193.08541870117188,74.26319122314453,421.6718444824219
2587,51.65923690795898,-205.58790588378903,58.14048385620117,416.1255798339844
2588,54.1612319946289,-209.8887939453125,56.25183486938477,413.3056945800781
2589,63.64187622070313,-200.55026245117188,65.71378326416016,432.5998229980469
2590,56.910057067871094,-200.69985961914062,61.68965148925781,430.0978393554688
2591,46.55427551269531,-214.20089721679688,57.65803909301758,428.0521240234375
2592,42.156150817871094,-211.291259765625,51.21792984008789,427.0946960449219
2593,59.8496208190918,-202.805419921875,64.01960754394531,445.0873718261719
2594,49.51253509521485,-202.1322479248047,60.57141876220703,449.1002807617188
2595,41.273536682128906,-203.5234832763672,58.30503845214844,445.0761413574219
2596,41.61012649536133,-205.0082244873047,60.53401947021485,445.734375
2597,56.66322326660156,-193.9456024169922,64.41977691650389,451.32177734375
2598,67.96894073486328,-182.8979339599609,69.00489044189453,440.1731262207031
2599,55.20092391967773,-192.8834686279297,67.64730834960939,414.9662170410156
2600,60.95663070678711,-185.57196044921875,69.25920867919922,411.1627197265625
2601,68.11106109619139,-179.85739135742188,77.09803771972656,407.07501220703125
2602,66.51412200927734,-180.10049438476562,78.38082122802734,402.34405517578125
2603,53.8096809387207,-196.1334381103516,69.31904602050781,382.3355712890625
2604,53.1065788269043,-193.1003875732422,69.73417663574219,387.6013488769531
2605,67.75202941894531,-182.40426635742188,73.11878204345703,408.5373229980469
2606,65.42207336425781,-184.2143859863281,66.16256713867189,409.0347290039063
2607,40.02814865112305,-199.6265106201172,61.33061981201172,410.358642578125
2608,39.69155883789063,-202.70819091796875,58.97822189331055,418.421875
2609,55.69084930419922,-193.37713623046875,66.43184661865234,436.0218505859375
2610,49.51627731323242,-194.07275390625,58.3760986328125,433.3627624511719
2611,38.40129089355469,-202.1771240234375,51.44606399536133,425.3818359375
2612,44.07472229003906,-200.9766082763672,54.61001968383789,428.4523010253906
2613,59.120338439941406,-191.9279327392578,62.29551315307617,447.8044128417969
2614,57.48226165771485,-199.95748901367188,63.48106002807617,445.18646240234375
2615,44.23179626464844,-208.9257659912109,60.17499160766602,431.7864074707031
2616,46.692649841308594,-211.6409454345703,56.70810317993164,431.1319274902344
2617,60.38442611694336,-198.8093414306641,60.56019973754883,435.6011047363281
2618,63.97472763061523,-195.11058044433597,66.53656005859375,433.63018798828125
2619,48.43544387817383,-209.77847290039062,58.71268844604492,417.1260070800781
2620,57.100791931152344,-202.7100524902344,62.93877792358398,409.69482421875
2621,67.01900482177734,-191.25474548339844,75.17572784423828,414.4781494140625
2622,64.13554382324219,-191.6549072265625,72.35958099365234,408.5578918457031
2623,52.42217636108398,-203.3121795654297,66.60762023925781,397.4429016113281
2624,54.65863800048828,-197.7210235595703,69.33774566650389,397.37933349609375
2625,61.70460891723633,-192.4664764404297,69.98101043701172,410.7943420410156
2626,53.0542221069336,-196.7823181152344,72.7672348022461,413.838623046875
2627,34.399600982666016,-208.2899932861328,62.10103988647461,408.89447021484375
2628,31.011249542236328,-201.51702880859372,60.26848602294922,415.2186584472656
2629,43.88772583007813,-196.89825439453125,68.32423400878906,432.44464111328125
2630,47.10029983520508,-201.51702880859372,68.64212036132811,436.1434020996094
2631,37.52615737915039,-212.07476806640625,58.21154403686523,421.5615234375
2632,36.13865280151367,-203.5777130126953,61.19598388671875,426.5281066894531
2633,57.6243782043457,-194.56455993652344,72.67373657226562,436.3341369628906
2634,47.90063858032226,-200.3165283203125,66.88436889648439,436.3154296875
2635,33.094375610351555,-214.22520446777344,57.52714157104492,423.43896484375
2636,38.09088134765625,-209.86822509765625,59.79352188110352,427.0367431640625
2637,56.41638946533203,-198.6485290527344,68.10731506347656,441.1174621582031
2638,47.13396072387695,-203.5777130126953,63.82887268066406,434.47540283203125
2639,45.85491180419922,-208.40966796875,57.14941024780274,416.1985168457031
2640,56.46126937866211,-204.6398468017578,65.02564239501953,418.4573974609375
2641,76.2827377319336,-186.88653564453125,80.6172866821289,431.3600463867188
2642,73.82188415527344,-194.4224395751953,78.46684265136719,416.9577026367188
2643,55.30189895629883,-206.0572662353516,68.79171752929689,399.2081298828125
2644,51.150611877441406,-201.61801147460938,69.46115875244139,401.4446105957031
2645,65.89329528808594,-189.78121948242188,80.21711730957031,419.6616516113281
2646,50.0660400390625,-192.6459808349609,72.41194152832031,415.8581848144531
2647,39.56440353393555,-204.15365600585938,69.41628265380861,413.344970703125
2648,42.18981170654297,-208.38722229003903,63.275367736816406,418.36016845703125
2649,56.59216690063477,-199.7779693603516,71.65274047851562,428.06146240234375
2650,40.04310989379883,-204.0003204345703,63.41748428344727,428.932861328125
2651,37.96746444702149,-208.7612152099609,64.79002380371094,421.1314392089844
2652,38.21055603027344,-208.7350311279297,67.54633331298828,422.324462890625
2653,53.62268447875977,-198.9439849853516,70.87484741210938,439.3222961425781
2654,50.03238296508789,-207.9720916748047,65.57166290283203,432.77374267578125
2655,42.40298461914063,-207.4260711669922,63.82139205932617,429.7145080566406
2656,42.12249374389648,-207.95339965820312,64.38611602783203,429.7668762207031
2657,54.77083587646485,-196.92068481445312,65.541748046875,441.0015258789063
2658,50.35401153564453,-201.5394744873047,64.35245513916016,433.192626953125
2659,42.608680725097656,-216.3906097412109,55.46271514892578,417.0885925292969
2660,51.1393928527832,-209.38951110839844,58.40975570678711,425.53704833984375
2661,64.72270965576172,-196.13157653808597,75.80029296875,434.0901794433594
2662,63.76903533935547,-196.4644317626953,71.99681091308594,422.8218688964844
2663,48.66731643676758,-203.3869781494141,67.22096252441406,410.1361389160156
2664,53.06917953491211,-198.9552001953125,70.41109466552734,415.8320007324219
2665,62.73308181762695,-193.4463195800781,72.01177215576172,422.50396728515625
2666,60.53028106689453,-192.5450134277344,74.95881652832031,422.7695007324219
2667,44.18691635131836,-205.8740081787109,68.67204284667969,408.7935180664063
2668,49.98002243041992,-202.4258270263672,68.78424072265625,422.25341796875
2669,64.54319000244139,-197.57144165039062,72.29974365234375,434.8680725097656
2670,62.362831115722656,-196.5093078613281,70.13434600830078,435.9713439941406
2671,42.21599197387695,-208.62283325195312,60.85191345214844,422.62738037109375
2672,46.954444885253906,-200.67181396484372,68.08113861083984,428.6636047363281
2673,63.29780578613281,-191.80450439453125,79.12132263183594,437.9422912597656
2674,64.98824310302734,-193.0124969482422,80.94639587402344,437.3289489746094
2675,52.23892211914063,-201.50955200195312,70.48963165283203,418.5995178222656
2676,55.578651428222656,-191.5240173339844,79.32328033447266,423.0649719238281
2677,67.20226287841797,-183.397216796875,82.20674133300781,439.3484802246094
2678,68.02130126953125,-188.92852783203125,80.91647338867188,431.5133972167969
2679,51.65923690795898,-200.61196899414062,70.43353271484375,415.30841064453125
2680,56.84647750854492,-197.3844451904297,71.26005554199219,419.9458923339844
2681,70.17922210693361,-186.6060485839844,81.54851531982422,436.4537963867188
2682,66.84696960449219,-189.4782867431641,78.51545715332031,428.5140075683594
2683,54.96905136108398,-199.47503662109372,71.03192138671875,408.8009948730469
2684,55.98630142211914,-203.43185424804688,73.76952362060547,406.220458984375
2685,66.01671600341797,-191.0303497314453,79.1288070678711,422.0290222167969
2686,59.8496208190918,-195.11431884765625,74.192138671875,415.00921630859375
2687,49.15350341796875,-204.8866729736328,72.20250701904297,408.18017578125
2688,58.15544509887695,-201.2888946533203,72.86073303222656,414.9830322265625
2689,67.65479278564453,-190.9630279541016,79.07644653320312,428.5588684082031
2690,66.79461669921875,-190.20382690429688,79.37189483642578,434.13507080078125
2691,51.16557312011719,-204.0975646972656,71.11793518066406,423.9812316894531
2692,55.62353134155274,-203.30470275878903,69.12831115722656,426.6515197753906
2693,62.54608535766602,-200.6044921875,66.02045440673828,428.4728698730469
2694,70.93842315673828,-196.17645263671875,72.73357391357422,428.86181640625
2695,54.2098503112793,-206.19190979003903,71.61908721923828,425.2901916503906
2696,54.5726203918457,-199.9948883056641,69.98848724365234,423.5586242675781
2697,65.87833404541016,-184.55657958984372,82.87244415283203,437.3326721191406
2698,55.18970489501953,-186.2919006347656,82.9061050415039,435.9638671875
2699,46.18776321411133,-187.75045776367188,79.61125183105469,420.7125549316406
2700,48.21105194091797,-189.56805419921875,77.19901275634766,425.98956298828125
2701,64.61051177978516,-181.366455078125,77.89837646484375,437.10455322265625
2702,58.43967819213867,-187.1782531738281,77.66650390625,432.5643005371094
2703,43.37910079956055,-192.8404541015625,67.21348571777344,417.10357666015625
2704,51.91728973388672,-196.08670043945312,68.90017700195311,411.9088439941406
2705,64.61051177978516,-191.3519744873047,77.17283630371094,422.0589294433594
2706,62.83779907226562,-193.64454650878903,74.89897918701172,420.0842590332031
2707,50.33157348632813,-197.7995758056641,66.63005828857422,408.6326904296875
2708,52.96820449829102,-201.12060546875,68.99367523193361,412.8737487792969
2709,63.49228286743164,-192.99005126953125,72.55780029296875,429.8266906738281
2710,61.89160537719727,-193.24436950683597,72.13893127441406,431.7190856933594
2711,41.6849250793457,-208.29747009277344,59.63270568847656,416.37054443359375
2712,48.820655822753906,-205.80670166015625,65.49686431884766,419.9683227539063
2713,61.4166374206543,-194.71041870117188,68.27935028076172,429.52001953125
2714,54.72595596313477,-195.89596557617188,71.38720703125,434.9578552246094
2715,49.59107208251953,-198.66722106933597,68.83660125732422,422.5563354492188
2716,42.10005569458008,-204.6211395263672,64.48709869384766,418.22552490234375
2717,59.85709762573242,-194.0222625732422,75.14581298828125,429.1983947753906
2718,52.3436393737793,-197.7958221435547,74.74189758300781,429.8192138671875
2719,40.77238845825195,-203.66372680664062,61.28200149536133,412.1743774414063
2720,51.1805305480957,-196.4868621826172,70.7813491821289,405.96240234375
2721,67.32567596435547,-178.50543212890625,82.96968078613281,420.9257507324219
2722,66.59639739990234,-185.73838806152344,76.97087860107422,407.7612915039063
2723,51.9098129272461,-194.4635772705078,68.09609985351561,397.32696533203125
2724,58.98196029663086,-196.7523956298828,76.903564453125,410.4091491699219
2725,66.83575439453125,-194.2803192138672,78.75481414794922,417.99365234375
2726,67.86048126220703,-200.4025421142578,75.26174926757812,424.6469421386719
2727,53.52544784545898,-215.9605255126953,66.08029174804689,417.51495361328125
2728,50.58214569091797,-211.39036560058597,63.19683074951172,416.314453125
2729,61.34183883666992,-198.54380798339844,73.72838592529297,441.28948974609375
2730,57.85625076293945,-200.99343872070312,72.85699462890625,436.7455139160156
2731,38.17316055297852,-214.8123779296875,68.94131469726561,421.84576416015625
2732,55.343040466308594,-203.8918609619141,72.63633728027344,433.97052001953125
2733,68.69074249267578,-202.62777709960938,74.91393280029297,446.3907165527344
2734,65.17523956298828,-206.1619873046875,76.2827377319336,445.470703125
2735,51.34508514404297,-216.0016632080078,70.48963165283203,429.6434326171875
2736,59.45318984985352,-202.5716857910156,82.69667053222656,438.9109191894531
2737,74.56238555908203,-189.8859405517578,89.85857391357422,443.3800964355469
2738,62.07112121582031,-196.97679138183597,84.14026641845703,425.6567077636719
2739,52.3249397277832,-200.72042846679688,83.60172271728516,414.6913146972656
2740,52.78494644165039,-200.89620971679688,79.27839660644531,413.0083618164063
2741,69.80149078369139,-182.7651672363281,90.3185806274414,424.4300231933594
2742,67.59495544433594,-187.8065490722656,83.4895248413086,420.13287353515625
2743,50.46247100830078,-197.15257263183597,77.27754974365234,399.9336853027344
2744,58.23398208618164,-196.29986572265625,69.37140655517578,402.323486328125
2745,74.51002502441406,-187.22686767578125,80.62476348876953,419.426025390625
2746,61.446556091308594,-195.58929443359372,71.34233093261719,416.8529968261719
2747,49.89026641845703,-209.4344024658203,58.71268844604492,415.27099609375
2748,54.34074783325195,-205.62718200683597,65.85589599609375,422.7208862304688
2749,68.79545593261719,-196.72247314453125,69.77531433105469,442.2282104492188
2750,55.98630142211914,-205.8814849853516,68.87400054931639,439.37841796875
2751,37.83282852172852,-212.41136169433597,66.31590270996094,436.84649658203125
2752,41.38573455810547,-212.5272979736328,64.50205230712889,439.0231018066406
2753,57.88617324829102,-200.31277465820312,68.66456604003906,442.9051208496094
2754,57.62811660766602,-202.23509216308597,63.92985153198242,440.5714416503906
2755,49.29936218261719,-211.5811004638672,57.17932891845703,417.1409606933594
2756,51.26280975341797,-206.5023193359375,67.25836181640625,418.6518859863281
2757,65.53426361083984,-193.4912109375,75.21312713623047,427.5864868164063
2758,59.9019775390625,-185.95904541015625,81.18949127197266,418.7229309082031
2759,45.26400756835938,-192.0850067138672,77.41967010498047,400.3413391113281
2760,43.33795928955078,-187.0772705078125,74.26319122314453,403.2696838378906
2761,57.77397537231445,-181.20188903808597,77.9469985961914,407.83233642578125
2762,53.8994369506836,-188.3600616455078,66.55525970458984,397.9664916992188
2763,46.20646286010742,-190.7984771728516,59.9318962097168,396.7846984863281
2764,54.33700561523438,-193.96990966796875,62.07485961914063,411.0262145996094
2765,63.48480224609375,-193.1882781982422,64.33001708984375,423.9288940429688
2766,63.72041702270508,-191.8306884765625,73.04398345947266,436.2368774414063
2767,41.61012649536133,-205.67953491210938,65.68386077880861,426.21771240234375
2768,47.88941955566406,-206.9137115478516,61.36053848266602,429.9725646972656
2769,61.26330184936523,-195.4434356689453,71.80607604980469,442.49749755859375
2770,54.00041580200195,-203.6861724853516,67.12746429443361,434.8232116699219
2771,43.35665893554688,-215.4145050048828,62.88641738891602,435.29443359375
2772,51.001014709472656,-214.3000030517578,67.98764038085939,441.996337890625
2773,59.56912612915039,-199.79293823242188,68.12227630615234,445.6651916503906
2774,48.35316467285156,-204.2396697998047,62.149658203125,439.0455627441406
2775,48.61869812011719,-206.4200439453125,62.36657333374024,435.376708984375
2776,44.362693786621094,-208.34608459472656,61.56997299194336,431.2179565429688
2777,61.7382698059082,-195.2003326416016,72.62886047363281,439.9618225097656
2778,63.18935012817383,-192.31314086914062,70.65045166015625,428.9029541015625
2779,50.43255233764648,-200.21554565429688,64.36741638183594,407.87347412109375
2780,50.447509765625,-198.22218322753903,69.42002105712889,410.7494812011719
2781,68.00634002685547,-186.16847229003903,72.8906478881836,411.6732177734375
2782,55.42905807495117,-195.69400024414062,70.459716796875,391.0813293457031
2783,50.36149215698242,-192.7095642089844,66.37574768066406,384.7010803222656
2784,53.92187881469727,-192.036376953125,65.52678680419922,392.6969604492188
2785,59.51676940917969,-179.17486572265625,77.14665985107422,415.2597961425781
2786,56.50240707397461,-188.1768035888672,74.10985565185547,419.1904296875
2787,44.35147476196289,-191.51654052734372,64.7376708984375,416.0040283203125
2788,44.22431564331055,-185.7757873535156,68.50000762939453,423.8690490722656
2789,56.02370071411133,-189.2052764892578,71.6041259765625,438.4883117675781
2790,61.8504638671875,-188.6330718994141,76.78762817382812,438.1666870117188
2791,54.87555313110352,-198.3942108154297,72.41567993164062,431.5395812988281
2792,56.49493026733398,-197.1226501464844,68.84407806396484,426.08306884765625
2793,70.31759643554689,-185.39805603027344,81.90754699707031,448.36163330078125
2794,61.56249237060547,-197.16004943847656,75.71053314208984,448.8515625
2795,51.573219299316406,-201.85736083984372,67.25462341308594,432.3287048339844
2796,44.07472229003906,-207.1829833984375,65.6651611328125,425.6193237304688
2797,70.9832992553711,-187.5073699951172,74.53994750976562,444.2215881347656
2798,63.42122268676758,-190.23374938964844,74.07994079589844,424.1009216308594
2799,44.366432189941406,-197.4068756103516,62.935035705566406,399.1146545410156
2800,51.81257247924805,-191.08270263671875,64.73018646240234,397.9029235839844
2801,61.98510360717773,-186.58360290527344,74.81295776367188,404.5973510742188
2802,60.65743637084961,-185.0240631103516,74.88401794433594,400.5806884765625
2803,38.00112533569336,-197.3358154296875,60.38068389892578,385.2433471679688
2804,46.845985412597656,-188.3563232421875,61.69338989257813,394.3350524902344
2805,62.28429412841797,-180.1322784423828,75.58712005615234,414.4856262207031
2806,57.76649475097656,-183.9432373046875,78.36212158203125,417.6458435058594
2807,39.65042114257813,-195.46212768554688,71.13663482666016,407.2937927246094
2808,39.85611343383789,-200.3988037109375,71.68266296386719,419.7588806152344
2809,55.86288452148438,-188.139404296875,79.18864440917969,440.0328979492188
2810,57.17932891845703,-190.3908233642578,79.57759094238281,440.0067138671875
2811,45.4771842956543,-191.08270263671875,74.89149475097656,429.1722106933594
2812,57.82259368896485,-194.90489196777344,73.81814575195312,437.7141418457031
2813,74.24075317382812,-192.26451110839844,79.34571838378906,455.4038696289063
2814,59.03245162963867,-206.1470184326172,78.47618865966797,443.9635314941406
2815,51.82940292358398,-208.01698303222656,72.81398010253906,432.2389526367188
2816,54.96343994140625,-208.3311309814453,72.17072296142578,428.02032470703125
2817,64.03269958496094,-196.68881225585938,70.01279449462889,428.169921875
2818,59.90758895874024,-193.15087890625,68.15406799316406,414.95684814453125
2819,52.165992736816406,-204.2022705078125,57.48039245605469,396.19378662109375
2820,50.87947082519531,-200.3165283203125,60.26661682128906,400.5283203125
2821,68.06056976318361,-191.15750122070312,71.66583251953125,411.1646118164063
2822,56.23126602172852,-203.0279541015625,59.559776306152344,405.86517333984375
2823,35.11952972412109,-208.3348693847656,52.68584060668945,404.2233581542969
2824,39.41667556762695,-192.4552459716797,60.663047790527344,410.37548828125
2825,59.10725021362305,-180.9363555908203,69.87442016601561,426.3448486328125
2826,50.98418426513672,-188.6517791748047,62.8022689819336,415.5739440917969
2827,47.09843063354492,-191.531494140625,62.63771438598633,412.8774719238281
2828,50.9991455078125,-191.88677978515625,74.94572448730469,421.2959899902344
2829,68.0418701171875,-186.2470245361328,87.78854370117188,433.0130920410156
2830,60.50223159790039,-190.66009521484372,89.2583236694336,432.08935546875
2831,53.87138748168945,-197.0665435791016,85.14069366455078,429.76312255859375
2832,55.65906143188477,-195.1405029296875,80.76500701904297,432.5568237304688
2833,70.43540954589844,-189.2838134765625,86.3299789428711,441.8130798339844
2834,67.56690216064453,-191.8119964599609,76.00037384033203,428.4504089355469
2835,49.222694396972656,-205.8253936767578,68.86838531494139,410.1959533691406
2836,57.98154067993164,-192.1298828125,68.32610321044922,415.4767150878906
2837,70.371826171875,-193.9437255859375,73.61805725097656,421.0042724609375
2838,58.65472030639648,-198.0613555908203,67.80999755859375,415.19622802734375
2839,48.55324935913086,-203.98536682128903,60.33019638061523,409.0328674316406
2840,47.06476974487305,-196.4980773925781,63.02292251586914,408.57659912109375
2841,66.44493103027344,-183.53184509277344,73.67041778564453,428.1213073730469
2842,53.06731033325195,-188.55453491210938,63.22113800048828,418.6219482421875
2843,43.49690628051758,-197.2984161376953,61.81867599487305,414.68011474609375
2844,46.22329330444336,-199.82286071777344,58.53878402709961,413.67034912109375
2845,58.377967834472656,-190.1290283203125,62.38714218139648,430.09222412109375
2846,55.39352798461914,-184.99041748046875,65.22572326660156,434.94287109375
2847,43.859676361083984,-196.5728759765625,59.72807312011719,423.4688720703125
2848,55.25515365600586,-191.84190368652344,77.75813293457031,434.8680725097656
2849,65.64459228515625,-186.4265289306641,80.83606719970703,445.8446960449219
2850,54.28651809692383,-189.90838623046875,85.32020568847656,444.2477416992188
2851,50.93556594848633,-197.0441131591797,82.75089263916016,429.96881103515625
2852,51.7097282409668,-200.08839416503903,77.2981185913086,422.7769775390625
2853,63.63252639770508,-185.1287841796875,80.58549499511719,426.4570617675781
2854,60.51719284057617,-192.3505401611328,65.52117919921875,418.3639221191406
2855,52.49884414672852,-208.78366088867188,60.31149673461914,407.88470458984375
2856,57.3906364440918,-204.1611328125,60.01978302001953,416.6286010742188
2857,65.44264221191406,-189.02951049804688,65.33418273925781,424.6319885253906
2858,56.15646743774414,-188.73779296875,64.66100311279297,424.6656494140625
2859,38.08526992797852,-192.97509765625,59.94872665405274,409.7247314453125
2860,48.88610076904297,-187.5148468017578,71.04126739501953,416.9876403808594
2861,49.76123809814453,-183.64404296875,71.06370544433594,420.5180969238281
2862,47.96234512329102,-180.27813720703125,67.40982818603516,419.7140197753906
2863,37.01565933227539,-193.97738647460938,55.8460578918457,409.3395385742188
2864,45.97645950317383,-192.9788360595703,61.156715393066406,417.1334838867188
2865,59.25310516357422,-184.0741424560547,68.08674621582031,437.6505737304688
2866,53.81903076171875,-192.4963836669922,70.83931732177734,436.9811401367188
2867,36.61175155639648,-199.9462738037109,69.17131805419922,427.6612854003906
2868,44.98912811279297,-191.51654052734372,77.02510833740234,430.645751953125
2869,61.16045379638672,-186.20962524414062,80.5892333984375,435.892822265625
2870,54.33887481689453,-192.0027313232422,78.14334106445312,430.1782531738281
2871,54.96343994140625,-194.51593017578125,79.72905731201172,418.7752990722656
2872,62.56665802001953,-195.91465759277344,72.87381744384766,408.3260192871094
2873,73.2814712524414,-190.1178131103516,75.62638854980469,422.1075439453125
2874,71.2357406616211,-196.0567779541016,75.125244140625,425.3163757324219
2875,57.274696350097656,-214.35610961914062,63.22113800048828,417.6495971679688
2876,47.34526443481445,-204.56130981445312,65.80166625976561,415.6562194824219
2877,50.93556594848633,-191.92417907714844,68.32236480712889,425.4248352050781
2878,46.61972427368164,-201.77882385253903,60.65182876586914,419.5943298339844
2879,36.38361740112305,-204.27333068847656,61.60550308227539,414.85589599609375
2880,36.525733947753906,-205.28684997558597,57.846900939941406,418.49853515625
2881,59.61961364746094,-188.04591369628903,68.70008850097656,430.5148315429688
2882,57.89926147460938,-184.7622833251953,68.79358673095703,429.4863586425781
2883,45.08636474609375,-198.8691864013672,62.94064712524414,417.0923461914063
2884,48.6991081237793,-190.2823638916016,73.47594451904297,424.7254638671875
2885,55.16913604736328,-188.0945281982422,75.49549102783203,429.59857177734375
2886,56.30606460571289,-194.8001708984375,76.135009765625,430.4774475097656
2887,40.15717697143555,-199.05242919921875,71.59851837158203,416.9464721679688
2888,46.40654754638672,-194.2578887939453,71.90518951416016,418.603271484375
2889,60.8650016784668,-185.8730316162109,72.60454559326172,422.8817138671875
2890,67.11811828613281,-188.12071228027344,69.66124725341797,423.1995849609375
2891,55.88345336914063,-198.6522674560547,68.06430816650389,412.2903137207031
2892,62.379661560058594,-188.9921112060547,71.57233428955078,410.2370910644531
2893,64.53010559082031,-181.9087371826172,75.00556182861328,419.2240905761719
2894,61.9570541381836,-184.2312164306641,73.51334381103516,414.1191101074219
2895,47.70429229736328,-194.1232452392578,72.92617797851562,414.3622131347656
2896,49.96693420410156,-194.4261779785156,67.76511383056639,419.7476806640625
2897,62.3721809387207,-188.71534729003903,72.63446807861328,436.4201354980469
2898,57.95909881591797,-191.11636352539062,75.62638854980469,437.0933227539063
2899,42.07200622558594,-199.30300903320312,67.7838134765625,418.03106689453125
2900,44.52164077758789,-197.7883453369141,65.94752502441406,426.6216125488281
2901,55.77125930786133,-189.56056213378903,67.86235809326172,429.6509399414063
2902,55.9395523071289,-190.5628662109375,66.68802642822266,433.9219055175781
2903,36.34621810913086,-204.2471618652344,59.87392807006836,417.6234130859375
2904,47.17696762084961,-192.48516845703125,66.10459899902344,426.9694213867188
2905,50.49799728393555,-183.40843200683597,73.04959869384766,436.67071533203125
2906,51.81818389892578,-179.9677276611328,76.1125717163086,430.294189453125
2907,34.47252655029297,-188.62559509277344,69.70612335205078,417.0063171386719
2908,48.04836654663086,-188.96218872070312,70.18482971191406,412.0883483886719
2909,76.08639526367188,-172.9217529296875,86.73014831542969,428.4317321777344
2910,75.46183013916016,-189.4072265625,80.67525482177734,415.529052734375
2911,63.28471755981445,-192.212158203125,78.45748901367188,408.6962585449219
2912,55.25889205932617,-194.4598388671875,69.43311309814453,408.68505859375
2913,66.12329864501953,-187.06231689453125,77.11860656738281,431.9247741699219
2914,61.77753829956055,-189.05194091796875,71.99868774414062,433.42822265625
2915,44.36456298828125,-203.7422637939453,59.75799179077149,417.2681274414063
2916,42.82746505737305,-199.8976593017578,61.2763900756836,425.364990234375
2917,58.95391464233398,-190.9069366455078,71.97250366210938,443.9934387207031
2918,48.306419372558594,-195.7837677001953,66.87876129150389,427.736083984375
2919,44.36830139160156,-201.64791870117188,67.06201934814453,426.3336486816406
2920,47.666893005371094,-195.6491241455078,64.83677673339844,427.40325927734375
2921,63.5352897644043,-189.60171508789062,69.16010284423828,433.6788024902344
2922,60.61816787719727,-198.9738922119141,61.05947494506836,425.87738037109375
2923,46.14849472045898,-203.48048400878903,56.6912727355957,406.9759216308594
2924,50.67003631591797,-193.36778259277344,63.04910278320313,408.7037353515625
2925,60.4236946105957,-181.42254638671875,70.58499908447266,420.0393981933594
2926,47.03111267089844,-180.07244873046875,67.31632995605469,408.4456787109375
2927,45.04522323608398,-185.6448974609375,68.16154479980469,396.80712890625
2928,50.80093002319336,-177.52183532714844,75.57776641845703,404.4664306640625
2929,73.61431884765625,-172.4206085205078,86.29631805419922,418.3975524902344
2930,81.14273834228516,-178.2997283935547,88.3757095336914,412.1182861328125
2931,64.37677001953125,-187.7616729736328,79.32514953613281,404.4701843261719
2932,65.65581512451172,-181.33653259277344,85.55582427978516,414.33978271484375
2933,70.36808776855469,-180.2145538330078,83.1996841430664,428.4466857910156
2934,68.71504974365234,-183.49444580078125,80.68273162841797,436.4351196289063
2935,45.146202087402344,-190.5292053222656,71.78550720214844,434.0639953613281
2936,46.54118347167969,-193.4388427734375,80.91834259033203,440.1338806152344
2937,58.867897033691406,-183.03070068359372,81.15396118164062,453.0514831542969
2938,52.37542724609375,-191.39312744140625,73.0645523071289,441.34185791015625
2939,45.37059783935547,-199.14219665527344,66.74038696289061,434.1687316894531
2940,45.3369369506836,-201.26271057128903,66.46736907958984,428.345703125
2941,56.18264770507813,-193.5024261474609,67.54446411132811,439.43450927734375
2942,49.17407608032226,-199.1758575439453,69.13391876220703,424.6544189453125
2943,40.24693298339844,-202.8297271728516,65.4127197265625,419.25775146484375
2944,49.70140075683594,-192.7357482910156,63.4829330444336,417.0362548828125
2945,60.30027770996094,-186.30685424804688,64.12993621826172,423.521240234375
2946,51.7733039855957,-191.33702087402344,63.66992568969727,411.3703002929688
2947,33.825523376464844,-199.3404083251953,51.25345993041992,390.0678405761719
2948,50.35588455200195,-185.3681488037109,62.09169006347656,401.455810546875
2949,64.23838806152344,-173.28826904296875,71.3516845703125,416.3481140136719
2950,66.14574432373047,-181.3514862060547,74.53433990478516,420.974365234375
2951,53.19072723388672,-187.14085388183597,73.42732238769531,415.364501953125
2952,55.2252311706543,-189.676513671875,78.7005844116211,427.4406433105469
2953,65.30052185058594,-191.1799468994141,89.41913604736328,442.75927734375
2954,58.53130340576172,-200.6007537841797,77.73568725585938,434.9316711425781
2955,46.50752639770508,-205.85157775878903,63.9578971862793,417.911376953125
2956,53.02991104125977,-193.9100799560547,73.81627655029297,429.4826354980469
2957,57.55892944335938,-191.0228729248047,70.70468139648438,435.0139465332031
2958,57.62624740600586,-191.76336669921875,64.43286895751953,433.9779968261719
2959,48.6504898071289,-197.27598571777344,69.05538177490234,429.6546630859375
2960,45.86052322387695,-200.58953857421875,66.42249298095703,428.36065673828125
2961,59.46253967285156,-192.32809448242188,68.28870391845703,432.5194396972656
2962,61.96453094482422,-202.1715087890625,65.80541229248047,424.8077697753906
2963,52.00143814086914,-205.5187225341797,58.61358261108398,409.9566040039063
2964,50.34840393066406,-202.10044860839844,64.51140594482422,407.0133056640625
2965,65.02377319335939,-190.0916290283203,73.82001495361328,414.85589599609375
2966,54.61936950683594,-191.707275390625,69.73604583740234,405.4201049804688
2967,47.31908416748047,-192.7619171142578,61.2876091003418,390.1538391113281
2968,50.557838439941406,-198.62982177734372,63.05658340454102,396.3919982910156
2969,69.61262512207031,-179.09632873535156,70.8131332397461,408.8009948730469
2970,70.55882263183594,-177.2001953125,72.56340789794922,411.4189147949219
2971,57.55892944335938,-193.19949340820312,63.29967498779297,415.89556884765625
2972,49.79863739013672,-190.170166015625,67.83617401123047,431.0421752929688
2973,57.16624069213867,-185.52896118164062,73.4011459350586,440.96038818359375
2974,51.14874267578125,-188.37501525878903,73.6592025756836,444.18792724609375
2975,34.891395568847656,-215.20132446289062,56.508018493652344,420.1740112304688
2976,43.50438690185547,-209.77099609375,62.14404678344727,425.86614990234375
2977,63.1126823425293,-196.9281768798828,72.70926666259766,442.4114685058594
2978,51.07394409179688,-206.9436187744141,63.09024047851562,436.4725036621094
2979,43.582923889160156,-209.02674865722656,56.63517379760742,431.0608825683594
2980,44.81709289550781,-211.7045135498047,58.47146606445313,434.2098693847656
2981,60.30775833129883,-192.3355712890625,68.12788391113281,444.04205322265625
2982,49.41716766357422,-192.66842651367188,66.30281829833984,437.2242126464844
2983,41.885009765625,-199.0038146972656,59.92254638671875,416.03021240234375
2984,49.75001907348633,-197.1787414550781,60.80142211914063,409.5901184082031
2985,66.11208343505861,-180.20333862304688,75.43191528320312,420.3348388671875
2986,69.78840637207031,-183.7861633300781,79.66921997070312,420.8509521484375
2987,53.85643005371094,-193.5360870361328,67.40982818603516,395.1278991699219
2988,64.63855743408203,-181.2280731201172,75.1476821899414,403.0677185058594
2989,78.87635803222656,-176.5569305419922,86.1654281616211,420.0655517578125
2990,67.07697296142578,-179.75454711914062,77.9002456665039,415.386962890625
2991,49.4022102355957,-187.60086059570312,77.8965072631836,415.5215759277344
2992,47.476158142089844,-188.1543731689453,78.9586410522461,419.5158081054688
2993,58.16105270385742,-184.758544921875,77.78430938720703,432.9607238769531
2994,50.84954833984375,-189.4147186279297,74.8484878540039,433.0093688964844
2995,44.54781723022461,-197.6948547363281,68.78237152099611,434.2809143066406
2996,49.35733032226562,-199.1085357666016,73.4422836303711,432.8747253417969
2997,69.68742370605469,-189.8485412597656,80.46955871582031,447.6099243164063
2998,66.87128448486328,-199.7704925537109,74.01074981689453,440.11517333984375
2999,53.27300643920898,-202.74371337890625,68.93196868896484,435.5188293457031
3000,58.50512313842773,-203.89935302734372,73.64424133300781,434.8493957519531
3001,66.30281829833984,-194.47105407714844,73.7452163696289,443.0584716796875
3002,60.86874008178711,-199.7031707763672,71.29183959960938,436.1321716308594
3003,40.755558013916016,-200.3165283203125,68.58789825439453,423.16595458984375
3004,54.7540054321289,-193.0050201416016,73.67415618896484,423.7418823242188
3005,58.93147277832031,-180.3940734863281,78.07601928710938,432.4072265625
3006,55.40100860595703,-184.2050323486328,74.0818099975586,419.1754760742188
3007,48.42235565185547,-188.4423370361328,63.06780242919922,403.25469970703125
3008,59.42887878417969,-184.7622833251953,69.33587646484375,400.786376953125
3009,78.39017486572266,-171.62774658203125,79.78889465332031,417.900146484375
3010,77.70577239990234,-174.241943359375,87.96057891845703,411.6470336914063
3011,63.59886932373047,-185.7757873535156,82.90423583984375,401.3286743164063
3012,59.19700622558594,-187.2829742431641,85.31646728515625,413.0233459472656
3013,57.89552307128906,-175.6481475830078,88.69733428955078,431.07208251953125
3014,54.55205154418945,-184.5790252685547,82.81073760986328,429.1161193847656
3015,39.29325866699219,-197.86875915527344,76.10322570800781,419.2876586914063
3016,50.69247436523438,-194.8319549560547,71.76493835449219,420.046875
3017,64.88165283203125,-186.72386169433597,77.00080108642578,438.87725830078125
3018,58.01893615722656,-188.80697631835938,73.44041442871094,434.9279174804688
3019,55.03823852539063,-201.8442687988281,73.4478988647461,430.9710998535156
3020,56.92688751220703,-210.80880737304688,72.20999145507812,433.2038269042969
3021,64.95271301269531,-197.36761474609372,80.22085571289062,444.1729431152344
3022,69.23490142822266,-198.0258331298828,75.45622253417969,441.985107421875
3023,51.67232894897461,-206.48175048828125,65.89329528808594,422.42169189453125
3024,46.39906692504883,-202.0125732421875,69.09465026855469,416.6136474609375
3025,50.38954162597656,-184.94366455078125,70.49711608886719,426.902099609375
3026,47.65941619873047,-180.2500915527344,72.86073303222656,419.283935546875
3027,44.40196228027344,-188.1749420166016,67.65479278564453,396.1563720703125
3028,49.02447891235352,-173.2677001953125,74.47636413574219,399.1819763183594
3029,53.52357864379883,-170.56375122070312,78.89692687988281,408.8795166015625
3030,51.7620849609375,-166.2666015625,83.3661117553711,407.37982177734375
3031,46.63842391967773,-173.46591186523438,80.50508880615234,402.3160095214844
3032,45.90540313720703,-183.50006103515625,75.79281616210938,407.4957580566406
3033,63.79334259033203,-179.38990783691406,81.30916595458984,430.1632995605469
3034,61.75883865356445,-183.9189300537109,83.43342590332031,428.2858581542969
3035,50.49425888061523,-190.4375762939453,77.3897476196289,436.7193298339844
3036,48.50837326049805,-195.78189086914062,73.39553833007812,433.5142517089844
3037,60.053443908691406,-185.69163513183597,73.22350311279297,449.1133728027344
3038,57.30835723876953,-188.64242553710938,76.20793914794922,450.2465515136719
3039,47.74543380737305,-203.79275512695312,63.76155471801758,436.3191833496094
3040,56.01435089111328,-201.46653747558597,67.61365509033203,436.738037109375
3041,72.238037109375,-195.5051422119141,75.99850463867188,446.89935302734375
3042,68.18772888183594,-192.74884033203125,77.07186126708984,439.9057312011719
3043,50.18010711669922,-200.6549835205078,68.253173828125,425.9933166503906
3044,47.62201690673828,-194.52902221679688,64.47213745117189,424.4711608886719
3045,58.61358261108398,-184.16575622558597,66.48793792724611,428.07269287109375
3046,52.79055786132813,-190.5609893798828,64.71148681640625,425.63427734375
3047,46.35792922973633,-191.73532104492188,56.71558380126953,407.82861328125
3048,45.60620880126953,-191.93353271484372,64.81246948242189,399.1707458496094
3049,58.34431076049805,-179.6217803955078,69.33026885986328,405.1358947753906
3050,66.10086059570311,-174.67015075683594,75.48988342285156,402.62640380859375
3051,48.03340530395508,-186.38352966308597,70.22409820556639,388.16796875
3052,50.9879264831543,-181.24490356445312,70.30264282226561,394.1480712890625
3053,66.57582855224611,-179.26275634765625,76.11070251464844,411.9013671875
3054,58.44154739379883,-184.6781311035156,75.73297119140625,416.19476318359375
3055,48.41861343383789,-200.5876617431641,74.45392608642578,420.6788940429688
3056,53.02617263793945,-194.083984375,78.934326171875,433.00189208984375
3057,59.88514709472656,-185.2989501953125,83.54936218261719,442.85650634765625
3058,58.677162170410156,-188.92665100097656,80.91273498535156,437.231689453125
3059,42.80876541137695,-196.9599609375,68.01756286621094,425.5632019042969
3060,44.70863342285156,-193.71746826171875,63.45862197875977,421.5690002441406
3061,56.53045654296875,-188.3058319091797,66.12891387939453,424.6731262207031
3062,63.13886260986328,-194.23731994628903,65.10791778564453,426.5692443847656
3063,44.16634750366211,-210.8237762451172,58.735130310058594,415.8095703125
3064,51.96778106689453,-208.30308532714844,62.33665084838867,421.5428161621094
3065,78.80530548095703,-192.55810546875,73.20106506347656,429.5611572265625
3066,71.00012969970703,-191.2678375244141,73.171142578125,418.3975524902344
3067,57.91421890258789,-188.42176818847656,68.57480621337889,405.1022338867188
3068,59.42140197753906,-187.52793884277344,71.58916473388672,395.44580078125
3069,66.75908660888672,-168.6938018798828,79.14002227783203,398.9874877929688
3070,64.86669158935547,-177.1085662841797,73.60871124267578,388.1380310058594
3071,56.05175018310547,-183.84039306640625,69.05351257324219,379.0874938964844
3072,57.90299987792969,-185.0521240234375,70.96086120605469,387.1881103515625
3073,72.01364135742188,-169.1164093017578,78.68375396728516,404.36920166015625
3074,63.714805603027344,-177.75930786132812,73.97148132324219,413.17291259765625
3075,49.39098739624024,-191.30523681640625,70.48589324951172,417.571044921875
3076,52.68957901000977,-187.65509033203125,72.63633728027344,431.5844421386719
3077,60.8350830078125,-180.8110656738281,77.81610107421875,450.7925720214844
3078,52.34550857543945,-185.53082275390625,74.92889404296875,443.1070861816406
3079,37.16151428222656,-196.372802734375,68.90391540527344,429.75189208984375
3080,43.53056716918945,-197.01605224609372,64.58807373046875,427.1564025878906
3081,57.98154067993164,-188.12257385253903,72.0491714477539,435.810546875
3082,58.57244491577149,-189.4539794921875,68.82911682128906,428.3419494628906
3083,48.37373733520508,-194.7197570800781,61.48021697998047,415.4542541503906
3084,52.64096069335938,-192.9844512939453,61.22964096069336,412.7091674804688
3085,62.13282775878906,-188.45542907714844,64.64417266845703,419.601806640625
3086,63.4829330444336,-185.3774871826172,66.59265899658203,420.1964721679688
3087,53.9798469543457,-198.568115234375,59.37091064453125,401.2725524902344
3088,60.91361999511719,-193.8296661376953,61.12118530273438,398.6060180664063
3089,70.78321838378906,-190.3141632080078,70.17548370361328,404.6496887207031
3090,66.53469085693361,-187.05296325683597,73.4478988647461,403.6286926269531
3091,49.091796875,-192.9844512939453,74.07994079589844,391.22344970703125
3092,57.824462890625,-181.88442993164062,79.85808563232422,403.004150390625
3093,58.86415481567383,-174.834716796875,85.42305755615234,419.9720764160156
3094,50.41197967529297,-171.07611083984375,87.7268295288086,420.3011779785156
3095,31.90695571899414,-184.6519470214844,71.11045837402344,411.40020751953125
3096,32.32208633422852,-182.804443359375,71.52932739257812,423.4090270996094
3097,46.29435348510742,-182.69224548339844,76.6268081665039,438.76507568359375
3098,51.71720504760742,-193.8147125244141,69.97726440429689,435.7319946289063
3099,40.4301872253418,-206.2498779296875,58.47707748413086,418.3115539550781
3100,45.16490173339844,-207.15866088867188,60.88183212280274,419.8785705566406
3101,63.09024047851562,-194.4916229248047,66.50289916992189,430.645751953125
3102,59.7505111694336,-189.80552673339844,66.52159881591797,420.4133605957031
3103,46.7730598449707,-200.2660369873047,63.76155471801758,411.1197204589844
3104,52.82795715332031,-191.18556213378903,68.99367523193361,408.51300048828125
3105,66.39631652832031,-180.66522216796875,76.93347930908203,426.7749328613281
3106,74.38848114013672,-185.0895233154297,83.16415405273438,429.0001831054688
3107,56.18264770507813,-200.41937255859372,74.22579193115234,413.7526245117188
3108,52.32307052612305,-203.7104797363281,76.2453384399414,419.5906066894531
3109,63.486671447753906,-186.1404266357422,82.37503814697266,431.7340393066406
3110,60.71540451049805,-191.4398651123047,80.3592300415039,422.0589294433594
3111,47.38266372680664,-191.8325653076172,79.955322265625,405.7903747558594
3112,47.76413345336914,-180.53805541992188,88.3700942993164,410.5063781738281
3113,62.611534118652344,-168.00192260742188,94.18190002441406,427.2349548339844
3114,53.00373077392578,-179.6629180908203,85.23979949951172,426.53558349609375
3115,49.09927749633789,-188.4367218017578,82.15438079833984,422.0476989746094
3116,53.17950820922852,-190.72555541992188,84.28238677978516,426.4009399414063
3117,61.57184219360352,-186.76873779296875,86.03266143798828,443.82513427734375
3118,56.72119140625,-190.15708923339844,77.78617858886719,438.8024597167969
3119,46.462646484375,-196.2905120849609,70.87858581542969,421.7560119628906
3120,49.89961624145508,-187.4680938720703,75.08596801757812,417.1222534179688
3121,68.78237152099611,-179.16925048828125,79.46165466308594,426.0344543457031
3122,65.25190734863281,-182.86427307128903,78.93806457519531,417.32421875
3123,50.89442825317383,-183.76559448242188,74.35295104980469,414.0779724121094
3124,52.27819061279297,-185.7701873779297,79.62246704101562,412.6455993652344
3125,71.0300521850586,-174.21388244628906,91.3620147705078,426.6889343261719
3126,75.79842376708984,-180.8671722412109,85.76338958740234,429.3255615234375
3127,72.00242614746094,-199.52926635742188,76.2004623413086,417.6982116699219
3128,66.51225280761719,-202.20704650878903,72.01925659179688,419.1642456054688
3129,77.12608337402344,-188.80323791503903,77.81983947753906,426.8048706054688
3130,58.36301040649414,-188.9042205810547,73.66854858398438,418.5022888183594
3131,44.5029411315918,-196.68695068359372,69.51351928710939,404.9077453613281
3132,45.59498977661133,-186.0132751464844,73.65733337402344,413.591796875
3133,55.43092727661133,-171.16212463378906,85.54273223876953,426.6029052734375
3134,50.73361206054688,-172.27662658691406,84.27116394042969,422.7134094238281
3135,43.16779708862305,-177.62841796875,74.73442077636719,410.37548828125
3136,40.53864669799805,-181.5740203857422,69.68181610107422,411.9985961914063
3137,54.93352127075195,-178.84762573242188,76.50713348388672,420.3011779785156
3138,53.01495361328125,-176.2296905517578,76.32013702392578,429.7257385253906
3139,37.2961540222168,-194.9665985107422,68.64960479736328,416.35931396484375
3140,41.79525375366211,-194.5514678955078,71.15533447265625,423.2108154296875
3141,57.62250900268555,-181.84703063964844,83.15667724609375,434.9316711425781
3142,53.2879638671875,-187.39703369140625,74.11734008789062,427.1825866699219
3143,42.78258514404297,-194.1176300048828,67.19852447509766,415.2822265625
3144,48.90106201171875,-193.04054260253903,65.70256042480469,414.7212524414063
3145,63.03040313720703,-182.13873291015625,68.62716674804689,419.5494689941406
3146,57.30087661743164,-183.2719268798828,71.12541961669922,424.0859680175781
3147,43.006980895996094,-196.1895446777344,64.96580505371094,411.9237976074219
3148,48.37373733520508,-188.02908325195312,61.04638671875,410.97760009765625
3149,59.98986434936523,-184.74171447753903,72.0454330444336,429.0562744140625
3150,62.50307846069336,-193.08541870117188,65.81849670410156,432.06689453125
3151,42.54697036743164,-202.57354736328125,63.76529312133789,424.5646667480469
3152,50.66255569458008,-200.1875,69.14327239990234,429.03759765625
3153,65.84281158447266,-191.0509185791016,75.36646270751953,439.6776123046875
3154,60.98468017578125,-190.598388671875,74.68579864501953,436.9212951660156
3155,43.67267990112305,-194.58139038085938,70.91972351074219,422.25341796875
3156,38.91552734375,-189.51382446289062,72.3895034790039,416.6622619628906
3157,52.88031387329102,-174.56918334960938,78.71367645263672,428.56634521484375
3158,47.31160354614258,-180.54928588867188,76.32762145996094,427.2723388671875
3159,33.38421630859375,-192.7338714599609,61.03142547607422,415.9179992675781
3160,41.84012985229492,-189.588623046875,73.80692291259766,423.1210632324219
3161,56.72493362426758,-188.4105529785156,74.51002502441406,430.5484924316406
3162,68.43081665039061,-192.39727783203125,80.79679870605469,428.9627990722656
3163,50.748573303222656,-210.0196990966797,71.19273376464844,407.4583740234375
3164,52.352989196777344,-205.4869384765625,68.79171752929689,406.9273071289063
3165,59.53359603881836,-181.29725646972656,69.93238830566406,416.7931518554688
3166,54.47351455688477,-181.34588623046875,66.14386749267578,416.138671875
3167,34.644561767578125,-195.99880981445312,54.23603057861328,400.93597412109375
3168,45.20230102539063,-188.37315368652344,60.305885314941406,402.3646240234375
3169,56.87452697753906,-173.65664672851562,72.8906478881836,425.5594787597656
3170,46.75436019897461,-186.3087310791016,65.85964202880861,425.4996337890625
3171,35.35140609741211,-194.18869018554688,64.03830718994139,421.49420166015625
3172,37.24753189086914,-196.8365478515625,62.5199089050293,427.0142822265625
3173,43.44828796386719,-185.6991271972656,69.31156921386719,438.4060363769531
3174,53.418861389160156,-190.32537841796875,75.3963851928711,439.6439514160156
3175,41.02109146118164,-206.52288818359372,66.65249633789061,424.09716796875
3176,45.90166091918945,-199.11788940429688,76.16680145263672,441.1959838867188
3177,60.73410415649414,-189.33056640625,87.23690795898438,449.1844177246094
3178,60.68174743652344,-183.23452758789062,81.69063568115234,449.1657104492188
3179,49.35733032226562,-195.46774291992188,78.90067291259766,432.7438354492188
3180,52.33055114746094,-195.74822998046875,75.12711334228516,423.48382568359375
3181,67.73893737792969,-185.6355438232422,84.28986358642578,440.41436767578125
3182,63.13886260986328,-186.619140625,87.4837417602539,429.22833251953125
3183,46.47012710571289,-202.52867126464844,72.45682525634766,407.2077941894531
3184,56.84460830688477,-194.69358825683597,80.40785217285156,417.0325012207031
3185,61.78127670288086,-191.25286865234372,76.57819366455078,418.7154541015625
3186,54.0621223449707,-190.15708923339844,76.39867401123047,417.8141479492188
3187,43.197715759277344,-193.72494506835938,67.66974639892578,405.4201049804688
3188,52.36795043945313,-188.1300506591797,72.97293090820312,403.15374755859375
3189,73.30390930175781,-182.86427307128903,84.83963012695312,421.4493408203125
3190,67.90349578857422,-185.20172119140625,80.91647338867188,419.8449096679688
3191,53.96488571166992,-197.69297790527344,68.15967559814453,416.0601196289063
3192,50.1763687133789,-201.4141845703125,66.88436889648439,418.0684509277344
3193,63.68488693237305,-188.8518524169922,72.0903091430664,438.7164306640625
3194,57.77584457397461,-196.3540954589844,71.97811126708984,436.0124816894531
3195,49.75001907348633,-195.3293609619141,70.08198547363281,435.3280944824219
3196,41.73541259765625,-197.75656127929688,71.1628189086914,429.3255615234375
3197,55.80117797851562,-198.67657470703125,77.55804443359375,438.4995422363281
3198,57.58510971069336,-189.31935119628903,82.39373779296875,444.356201171875
3199,37.23631286621094,-210.786376953125,70.27272033691406,418.71173095703125
3200,45.07140350341797,-205.78237915039062,75.62077331542969,418.57708740234375
3201,61.40354919433594,-194.34576416015625,82.74528503417969,430.20068359375
3202,56.16020584106445,-196.3578338623047,81.21192932128906,423.7904968261719
3203,55.43466567993164,-202.5885162353516,71.98933410644531,409.085205078125
3204,58.27325057983398,-198.53819274902344,74.39035034179688,416.83428955078125
3205,63.72228622436523,-189.46519470214844,77.37104797363281,424.4300231933594
3206,59.64579391479492,-186.73133850097656,80.07125854492188,428.1213073730469
3207,43.36227035522461,-201.47401428222656,67.99886322021484,408.7598571777344
3208,41.331504821777344,-194.24105834960938,67.09006500244139,406.654296875
3209,54.49595260620117,-184.9212188720703,76.47721099853516,424.8264465332031
3210,52.5025863647461,-185.0147247314453,71.91827392578125,421.1613464355469
3211,43.94569396972656,-195.58741760253903,66.34956359863281,405.47247314453125
3212,53.01495361328125,-188.0103759765625,70.85614776611328,415.5365295410156
3213,69.97165679931639,-181.17758178710938,73.12252044677734,427.73236083984375
3214,65.87646484375,-192.61045837402344,76.12940216064453,426.0980224609375
3215,51.64614868164063,-197.6256561279297,63.09585189819336,415.4318237304688
3216,60.41808319091797,-197.47232055664062,68.44951629638672,416.0675964355469
3217,67.51641082763672,-195.15733337402344,67.42478942871094,428.2447204589844
3218,66.222412109375,-193.96429443359372,66.57956695556639,428.9478149414063
3219,49.33676147460938,-211.1080017089844,60.49101257324219,421.9467468261719
3220,51.150611877441406,-205.40464782714844,58.987571716308594,422.829345703125
3221,60.84069061279297,-194.93667602539062,71.69200897216797,442.1085205078125
3222,57.403724670410156,-195.8940887451172,72.14827728271484,440.66119384765625
3223,40.11042785644531,-203.9460906982422,65.00132751464844,433.00189208984375
3224,45.92597198486328,-206.73605346679688,73.95838928222656,437.4112243652344
3225,54.07521438598633,-192.15792846679688,78.86514282226562,451.6752014160156
3226,44.41131210327149,-188.0664825439453,72.72422790527344,428.7907409667969
3227,37.96372604370117,-201.47027587890625,65.00881195068361,423.0387878417969
3228,44.53099060058594,-191.103271484375,74.07807159423828,419.8898010253906
3229,61.30818176269531,-186.7088928222656,76.99893188476562,424.9872741699219
3230,55.533775329589844,-184.08721923828125,82.04031372070312,417.70941162109375
3231,54.007896423339844,-191.3912506103516,64.86669158935547,398.908935546875
3232,61.4390754699707,-189.52130126953125,68.57293701171875,400.5881652832031
3233,70.62052917480469,-183.23452758789062,73.15057373046875,407.7799987792969
3234,67.89414215087889,-188.69851684570312,71.10858917236328,413.14300537109375
3235,47.27981567382813,-198.9009704589844,59.19326782226562,406.2017517089844
3236,49.84538650512695,-194.5888671875,68.33358001708984,412.0883483886719
3237,54.46416473388672,-180.71383666992188,78.47992706298828,430.3802185058594
3238,50.30913543701172,-183.21957397460938,77.5150375366211,435.39166259765625
3239,42.081356048583984,-197.6855010986328,72.2604751586914,419.8636169433594
3240,51.25532913208008,-194.21861267089844,77.82544708251953,432.8859252929688
3241,58.31251907348633,-188.63121032714844,80.69769287109375,439.6813354492188
3242,62.5311279296875,-185.53456115722656,84.12718200683594,447.3556213378906
3243,41.58768844604492,-196.279296875,74.0631103515625,433.5628662109375
3244,39.34000778198242,-201.9003753662109,68.94692230224611,437.418701171875
3245,56.03866195678711,-185.4448089599609,81.06420135498047,454.872802734375
3246,54.393104553222656,-188.4890899658203,80.77996826171875,448.6645812988281
3247,42.818115234375,-196.80288696289062,78.07975769042969,429.3255615234375
3248,44.85261917114258,-196.1521453857422,70.98516845703125,421.995361328125
3249,58.29756164550781,-177.80419921875,78.52107238769531,430.3016662597656
3250,51.32264709472656,-182.94281005859372,74.79986572265625,416.8941345214844
3251,43.977481842041016,-188.7209625244141,70.91785430908203,403.9839782714844
3252,53.75358200073242,-187.57655334472656,75.7348403930664,408.04925537109375
3253,69.01985168457031,-185.4934234619141,78.02740478515625,405.9474487304688
3254,79.5925521850586,-182.19857788085938,78.85018157958984,404.63848876953125
3255,68.02130126953125,-198.403564453125,68.67391204833984,396.8706970214844
3256,63.17065048217773,-194.06153869628903,65.35288238525389,398.3853759765625
3257,76.43981170654297,-188.8705596923828,70.18482971191406,418.9735107421875
3258,73.4890365600586,-190.05984497070312,75.57402801513672,423.8914794921875
3259,45.75393676757813,-206.51541137695312,58.90529251098633,408.55413818359375
3260,50.57092666625977,-202.3828125,63.70358657836914,428.2671508789063
3261,62.89015579223633,-194.083984375,71.66957092285156,442.1122741699219
3262,54.87181091308594,-191.76150512695312,73.16179656982422,449.4200439453125
3263,34.70627212524414,-201.3842620849609,62.82471084594727,436.6856689453125
3264,30.32684898376465,-192.74884033203125,69.25360107421875,441.9364929199219
3265,36.0040168762207,-184.4163360595703,80.21898651123047,449.614501953125
3266,41.995338439941406,-193.16395568847656,77.8553695678711,441.5101623535156
3267,31.538576126098636,-203.79275512695312,66.75534057617189,419.5831298828125
3268,36.43036651611328,-193.4070587158203,67.96333312988281,416.5986633300781
3269,57.76275634765625,-185.351318359375,73.24781036376953,422.1075439453125
3270,47.96421813964844,-190.8676605224609,70.65605926513672,405.6968688964844
3271,40.64897155761719,-193.00314331054688,68.52057647705078,398.0711975097656
3272,48.35316467285156,-184.0273895263672,70.23719024658203,398.53497314453125
3273,69.04977416992189,-174.4981231689453,76.94657135009766,412.7652893066406
3274,56.82403945922852,-185.8113250732422,74.85596466064453,408.5167541503906
3275,51.89111328125,-191.08831787109372,68.28870391845703,399.29791259765625
3276,54.924171447753906,-188.7508850097656,68.19894409179689,404.0700073242188
3277,60.878089904785156,-182.82313537597656,73.22911071777344,422.0476989746094
3278,50.4774284362793,-187.89817810058597,71.1123275756836,422.9078979492188
3279,35.592628479003906,-195.5126190185547,72.15202331542969,427.06292724609375
3280,36.53508377075195,-199.0281219482422,69.17131805419922,429.6509399414063
3281,57.26534652709961,-191.98590087890625,77.71324920654297,446.2934875488281
3282,55.32059860229492,-196.6495513916016,73.30390930175781,442.6358642578125
3283,50.55222702026367,-204.48089599609372,68.67017364501953,436.68194580078125
3284,53.99293518066406,-211.208984375,67.05453491210939,432.9644775390625
3285,57.99089050292969,-202.3454132080078,70.60369873046875,441.5064086914063
3286,59.01562118530274,-202.3042755126953,79.85247039794922,447.9315490722656
3287,41.41191101074219,-204.23033142089844,67.88479614257811,430.77288818359375
3288,49.815467834472656,-201.05514526367188,75.06539916992188,429.0039367675781
3289,52.56803512573242,-192.03451538085938,75.79468536376953,426.20648193359375
3290,50.71678161621094,-189.62228393554688,81.21379852294922,421.4979553222656
3291,39.556922912597656,-196.72808837890625,74.14164733886719,406.82257080078125
3292,45.1592903137207,-187.6251678466797,80.83606719970703,408.15771484375
3293,55.39913940429688,-179.9134979248047,78.88009643554688,416.2247009277344
3294,43.40527725219727,-182.1050720214844,72.04730224609375,408.06048583984375
3295,33.430965423583984,-189.917724609375,61.10809707641602,394.9596252441406
3296,42.20103073120117,-186.38726806640625,61.35866928100586,408.767333984375
3297,53.56658554077149,-181.7797088623047,72.50357055664062,420.6864013671875
3298,58.62293243408203,-190.56846618652344,71.4339599609375,426.408447265625
3299,50.0361213684082,-199.91448974609372,68.35227966308594,417.2830810546875
3300,53.30479431152344,-207.6448516845703,67.72771453857422,415.4580078125
3301,68.37659454345703,-198.64291381835938,78.3602523803711,436.4762573242188
3302,60.492881774902344,-211.5081787109375,64.50018310546875,432.5082092285156
3303,59.17269897460938,-219.1824493408203,68.24008178710939,429.6883239746094
3304,59.961814880371094,-210.47970581054688,78.681884765625,436.2929992675781
3305,65.28742980957031,-203.0859222412109,84.10474395751953,438.593017578125
3306,57.73283386230469,-197.98095703125,80.66777038574219,431.6330871582031
3307,44.45619201660156,-197.30776977539062,73.4460220336914,416.314453125
3308,46.09052658081055,-196.95248413085938,76.85307312011719,421.5091552734375
3309,50.41011047363281,-186.8136138916016,79.8487319946289,428.54766845703125
3310,41.886878967285156,-194.86935424804688,74.81856536865234,426.8833923339844
3311,33.78999710083008,-203.3701477050781,71.8752670288086,414.7287292480469
3312,43.42771911621094,-190.3066864013672,76.88673400878906,419.4185485839844
3313,55.997520446777344,-187.0380096435547,81.43070983886719,422.78448486328125
3314,56.38273239135742,-186.61166381835938,78.82025909423828,415.6337890625
3315,45.69035720825195,-202.0163116455078,68.79358673095703,399.45123291015625
3316,48.43544387817383,-196.95248413085938,70.78695678710938,404.1410827636719
3317,68.48130798339844,-180.9157867431641,81.16517639160156,422.0177917480469
3318,60.67987823486328,-192.3262176513672,78.5584716796875,421.8270568847656
3319,46.73004913330078,-207.1549224853516,68.83098602294922,415.0316467285156
3320,46.74126815795898,-194.56642150878903,67.01713562011719,415.8581848144531
3321,57.74779510498047,-183.29437255859372,70.08011627197266,426.3336486816406
3322,53.52544784545898,-189.31935119628903,68.75618743896484,431.3675537109375
3323,43.323001861572266,-202.03500366210938,65.76801300048828,421.6662292480469
3324,45.58190155029297,-205.3560333251953,71.16468811035156,430.94866943359375
3325,62.95747756958008,-192.0457305908203,84.36653137207031,447.3855285644531
3326,59.58408737182617,-197.3302154541016,78.01618194580078,446.9891052246094
3327,48.62617874145508,-203.57958984375,73.3001708984375,437.0858459472656
3328,46.995582580566406,-202.60720825195312,75.27483367919922,441.06884765625
3329,49.43773651123047,-205.3934326171875,76.09013366699219,447.1087646484375
3330,47.26111602783203,-197.31524658203125,74.21270751953125,442.97991943359375
3331,33.995689392089844,-206.5939483642578,67.90349578857422,436.2256774902344
3332,32.70542526245117,-197.5957489013672,74.81108856201172,433.9967041015625
3333,46.16906356811523,-190.50863647460938,76.44916534423828,437.0970764160156
3334,46.78988647460938,-189.42779541015625,73.52456665039062,425.87738037109375
3335,41.3445930480957,-189.48764038085938,70.02775573730469,410.26702880859375
3336,44.68058395385742,-192.78623962402344,63.30341720581055,403.0826721191406
3337,56.43508911132813,-186.5817413330078,71.27688598632812,417.5486145019531
3338,52.6241340637207,-193.94186401367188,70.67475891113281,424.026123046875
3339,43.17714309692383,-198.5569000244141,69.15261840820311,421.34088134765625
3340,50.39889144897461,-199.88082885742188,72.59333038330078,429.2657165527344
3341,65.38467407226561,-190.95367431640625,79.87491607666016,441.5475463867188
3342,61.91030502319336,-193.9979553222656,81.4157485961914,442.7779846191406
3343,48.0876350402832,-200.4380645751953,75.74980163574219,430.9112854003906
3344,44.85261917114258,-193.8221893310547,74.44084167480469,431.1693115234375
3345,52.42591857910156,-185.4373321533203,79.8861312866211,439.6065368652344
3346,52.99812316894531,-189.5474853515625,80.20402526855469,440.6013488769531
3347,37.33916091918945,-195.1236724853516,75.00556182861328,424.0709838867188
3348,39.72521591186523,-189.0126800537109,77.5561752319336,427.02178955078125
3349,49.59855270385742,-179.2777099609375,85.2267074584961,438.933349609375
3350,39.38862609863281,-183.32427978515625,81.69624328613281,432.7363586425781
3351,28.59527587890625,-192.5132141113281,71.92388916015625,424.7366943359375
3352,28.28486251831055,-194.24105834960938,65.32295989990234,419.1006774902344
3353,41.13890075683594,-180.19024658203125,70.52890014648438,430.2455749511719
3354,53.79471969604492,-187.9916839599609,75.71614074707031,426.4271240234375
3355,40.45075607299805,-196.4214172363281,64.58994293212889,407.899658203125
3356,46.99932098388672,-192.6216735839844,68.72627258300781,410.37921142578125
3357,62.39649200439453,-194.36073303222656,70.82809448242188,414.3210754394531
3358,55.114906311035156,-193.6426696777344,67.84739685058594,412.64935302734375
3359,55.22710418701172,-202.95501708984372,64.10749816894531,409.3993835449219
3360,57.88243103027344,-206.3209381103516,67.87731170654297,411.478759765625
3361,67.01152801513672,-195.54254150390625,74.40718078613281,429.54620361328125
3362,68.26065063476561,-200.75596618652344,72.49609375,423.005126953125
3363,53.398292541503906,-205.95068359375,79.34758758544922,417.3429260253906
3364,54.75213623046875,-200.7297821044922,76.0115966796875,418.9660339355469
3365,67.31072235107422,-193.8670654296875,87.7960205078125,429.3367614746094
3366,52.63161087036133,-198.16421508789062,81.60274505615234,423.10235595703125
3367,43.07242965698242,-204.5556945800781,74.77742767333984,418.6705932617188
3368,41.09402084350586,-199.2413024902344,70.15491485595703,427.994140625
3369,58.776268005371094,-184.56967163085938,81.90193939208984,438.6341552734375
3370,53.589027404785156,-197.32647705078125,78.47992706298828,435.5823974609375
3371,38.984718322753906,-205.9768524169922,71.19834899902344,422.62738037109375
3372,50.58962631225586,-199.31983947753903,70.66353607177734,422.1636352539063
3373,62.31047439575195,-192.10183715820312,79.54954528808594,428.1512145996094
3374,50.15205764770508,-190.79660034179688,72.8588638305664,422.335693359375
3375,41.64752578735352,-200.7223052978516,65.35662078857422,404.7880859375
3376,44.54220962524414,-197.3900451660156,62.192665100097656,413.5843200683594
3377,62.75178146362305,-187.05296325683597,69.79588317871094,431.05712890625
3378,60.58638000488281,-190.2655334472656,69.526611328125,424.8675842285156
3379,52.6839714050293,-202.71566772460938,68.38967895507811,415.716064453125
3380,53.90317916870117,-208.75559997558597,72.1333236694336,416.7781982421875
3381,62.98739624023438,-198.88975524902344,76.62867736816406,419.73272705078125
3382,61.027687072753906,-199.65269470214844,74.99434661865234,418.8426208496094
3383,47.61640548706055,-204.0283660888672,74.39595794677734,397.1063232421875
3384,52.89340591430664,-193.6239776611328,73.76017761230469,408.9767456054688
3385,50.63824462890625,-191.4847412109375,79.1456298828125,420.1777648925781
3386,50.02490234375,-197.7640380859375,77.98626708984375,425.376220703125
3387,36.08629608154297,-205.352294921875,69.88189697265625,416.42291259765625
3388,39.0744743347168,-202.7007141113281,76.4529037475586,427.5790100097656
3389,40.37221908569336,-192.74508666992188,80.75379180908203,439.09417724609375
3390,37.76551055908203,-198.04827880859372,78.7454605102539,436.6146240234375
3391,28.12404823303223,-198.6466522216797,74.36978149414062,424.7815856933594
3392,33.502025604248054,-197.41249084472656,72.65690612792969,424.4898681640625
3393,53.57032775878906,-187.89817810058597,80.17784881591797,433.15521240234375
3394,50.91499710083008,-190.78912353515625,76.94283294677734,431.50592041015625
3395,37.37282180786133,-198.59803771972656,64.38050842285156,414.7810974121094
3396,47.20127868652344,-199.6826019287109,68.59163665771484,419.7850646972656
3397,70.21288299560547,-190.53482055664062,81.49803161621094,433.4917907714844
3398,72.26982879638672,-198.4521789550781,76.12005615234375,419.3138427734375
3399,55.73199081420898,-210.64425659179688,67.53324127197266,399.6868591308594
3400,49.86408615112305,-209.56716918945312,63.38195419311523,404.2532653808594
3401,73.81814575195312,-202.4351806640625,72.69804382324219,420.2450866699219
3402,67.77072906494139,-200.9018096923828,76.02281951904297,422.92657470703125
3403,54.93912887573242,-202.9774627685547,68.80107116699219,409.18994140625
3404,52.332420349121094,-200.17626953125,74.35108184814453,416.4415893554688
3405,57.09331130981445,-191.51092529296875,79.58319854736328,430.7018432617188
3406,48.18487167358398,-199.21511840820312,73.05707550048828,432.6951904296875
3407,33.31502914428711,-207.53265380859372,70.86923217773438,424.3963623046875
3408,37.71689224243164,-209.5858612060547,68.27374267578125,424.8489074707031
3409,48.97772979736328,-196.76548767089844,80.26012420654297,440.6686706542969
3410,42.61241912841797,-193.2051086425781,76.93909454345703,434.3070983886719
3411,24.458946228027344,-202.10232543945312,68.74123382568361,420.2637634277344
3412,36.531341552734375,-190.0411529541016,83.23334503173828,432.0407104492188
3413,51.32638549804688,-184.52479553222656,88.25602722167969,438.18536376953125
3414,51.05337524414063,-186.28628540039062,89.77442932128906,432.78497314453125
3415,45.35376739501953,-203.07095336914062,81.34095764160156,422.48529052734375
3416,49.56115341186523,-212.9704742431641,79.18302917480469,420.7499694824219
3417,68.19520568847656,-201.6703643798828,82.89301300048828,428.2559509277344
3418,68.93944549560547,-211.74191284179688,71.78176879882812,413.7638244628906
3419,58.295692443847656,-212.01492309570312,65.7530517578125,396.5415954589844
3420,68.57667541503906,-201.6703643798828,72.54844665527344,407.5929870605469
3421,72.39884948730469,-188.95095825195312,77.0138931274414,415.1139221191406
3422,67.74267578125,-193.07981872558597,80.9520034790039,417.76177978515625
3423,52.43526840209961,-203.46177673339844,79.34758758544922,410.22589111328125
3424,52.4539680480957,-203.49169921875,84.20198059082031,425.9708557128906
3425,56.49305725097656,-197.16378784179688,86.82364654541016,431.0795593261719
3426,50.067909240722656,-204.924072265625,81.46063232421875,426.03070068359375
3427,41.387603759765625,-203.057861328125,78.93994140625,420.15533447265625
3428,41.36516189575195,-199.65081787109372,76.59127807617188,422.0252685546875
3429,56.87078857421875,-186.2320556640625,88.177490234375,442.5535888671875
3430,51.61996841430664,-192.036376953125,79.10823059082031,432.8709716796875
3431,33.68341064453125,-197.95664978027344,74.94198608398438,413.2477111816406
3432,34.81659698486328,-200.8475799560547,75.39451599121094,414.3696899414063
3433,48.6504898071289,-196.1614990234375,80.38353729248047,423.9400939941406
3434,38.97536849975586,-198.8691864013672,75.28605651855469,421.1613464355469
3435,22.71054267883301,-205.36538696289062,69.01050567626953,411.0523986816406
3436,29.57699966430664,-200.87376403808597,69.33961486816406,417.0212707519531
3437,48.05584335327149,-191.79702758789062,75.12898254394531,425.28271484375
3438,54.29399871826172,-188.00103759765625,80.9295654296875,418.74163818359375
3439,40.92385482788086,-201.82369995117188,72.5185317993164,404.4776611328125
3440,58.84919738769531,-198.18104553222656,73.91351318359375,404.7357177734375
3441,76.13875579833984,-194.81512451171875,81.54290771484375,424.6469421386719
3442,66.13825988769531,-207.811279296875,74.03692626953125,421.40069580078125
3443,52.76437759399414,-212.2131500244141,69.11521911621094,409.41058349609375
3444,51.96030044555664,-213.3575592041016,69.04042053222656,407.0058288574219
3445,66.29533386230469,-206.47987365722656,86.30380249023438,425.4622497558594
3446,61.66160202026367,-198.5363311767578,89.3031997680664,425.48468017578125
3447,46.3915901184082,-202.61656188964844,82.79951477050781,412.840087890625
3448,51.4105339050293,-194.38504028320312,84.3029556274414,419.70654296875
3449,58.68463897705078,-184.5416259765625,92.02210998535156,436.5285949707031
3450,50.26986694335938,-196.4382476806641,87.90821838378906,429.8753356933594
3451,33.51885223388672,-203.71609497070312,77.40283966064453,415.9927978515625
3452,39.16610336303711,-201.44223022460938,73.59561920166016,415.5814208984375
3453,44.50667953491211,-194.44113159179688,74.4632797241211,423.2557067871094
3454,47.11713027954102,-197.23110961914062,64.98262786865234,412.993408203125
3455,34.87643814086914,-200.72042846679688,59.34286117553711,400.3562927246094
3456,38.79585266113281,-199.44512939453125,58.39666748046875,402.63763427734375
3457,60.58076858520508,-186.0375823974609,74.1640853881836,422.1187744140625
3458,50.30352401733398,-199.86773681640625,70.54386138916016,411.6844482421875
3459,48.47845458984375,-208.54803466796875,68.50935363769531,410.4502868652344
3460,54.66798782348633,-205.8179168701172,71.83039093017578,421.25860595703125
3461,61.09687423706055,-196.7673492431641,81.6326675415039,436.7006530761719
3462,61.45964431762695,-201.57687377929688,78.44627380371094,435.9825744628906
3463,49.64904022216797,-218.9599151611328,69.99784088134766,420.5180969238281
3464,56.39582061767578,-206.2928771972656,78.67066192626953,423.7568359375
3465,63.74098587036133,-197.10394287109372,90.23443603515624,433.0317993164063
3466,57.75714492797852,-199.48252868652344,91.8874740600586,428.5027770996094
3467,42.539493560791016,-206.2068634033203,88.39814758300781,409.5527038574219
3468,53.88634872436523,-190.45440673828125,99.67394256591795,429.3180847167969
3469,66.38509368896484,-183.64404296875,104.0982437133789,438.19287109375
3470,66.06346130371094,-183.6739654541016,102.21707916259766,427.0965881347656
3471,44.39074325561523,-203.9629211425781,84.31791687011719,405.0049743652344
3472,41.21930694580078,-198.0538787841797,84.3029556274414,406.6131286621094
3473,48.88610076904297,-196.1278381347656,85.0621566772461,412.6418762207031
3474,47.09843063354492,-200.87750244140625,85.0658950805664,414.1864318847656
3475,41.75785446166992,-209.58399963378903,78.97359466552734,405.67816162109375
3476,41.716712951660156,-207.8150177001953,80.15914916992188,418.2778930664063
3477,56.79225158691406,-202.0967102050781,83.65221405029297,433.7610778808594
3478,57.312095642089844,-206.9698028564453,75.02426147460938,435.4664611816406
3479,45.70344924926758,-213.4061737060547,67.66413879394531,427.1302490234375
3480,49.38724899291992,-211.61476135253903,69.25360107421875,429.1759643554688
3481,61.78127670288086,-206.3302764892578,76.72591400146484,439.4419860839844
3482,57.53274917602539,-207.78509521484372,78.59587097167969,431.1730651855469
3483,45.74458694458008,-218.02120971679688,73.6629409790039,418.7266845703125
3484,45.65482711791992,-207.5607147216797,78.37895202636719,422.63861083984375
3485,58.43780517578125,-195.604248046875,87.8147201538086,435.0289001464844
3486,56.3397216796875,-195.12928771972656,82.30958557128906,429.8790588378906
3487,39.255859375,-203.5103912353516,71.02631378173828,418.932373046875
3488,47.41632080078125,-201.7115020751953,81.88697814941406,418.5471496582031
3489,61.28387069702149,-189.95700073242188,86.3711166381836,421.1725769042969
3490,60.15068054199219,-190.74237060546875,88.71229553222656,418.49853515625
3491,48.22040176391602,-198.85421752929688,89.57621002197266,407.0843811035156
3492,49.02447891235352,-192.44776916503903,87.54170989990234,411.7629699707031
3493,59.59343719482422,-188.4385986328125,83.40164184570312,416.4266357421875
3494,53.269264221191406,-197.7584228515625,77.36917877197266,418.7154541015625
3495,37.58786392211914,-204.74456787109372,68.77114868164061,413.9919738769531
3496,48.2877197265625,-199.9799346923828,71.57233428955078,428.6224670410156
3497,59.7430305480957,-202.1602935791016,75.01678466796875,437.3139953613281
3498,59.65701293945313,-208.8771514892578,73.83497619628906,436.71185302734375
3499,46.30183029174805,-218.47000122070312,67.0208740234375,424.5758972167969
3500,54.26781845092773,-214.62911987304688,71.97998809814453,424.4150695800781
3501,65.65581512451172,-200.7279052734375,82.0103988647461,443.7316589355469
3502,56.61273574829102,-211.0201110839844,70.73833465576172,431.139404296875
3503,41.45492172241211,-218.6457672119141,62.09542846679688,420.8023376464844
3504,46.45890808105469,-211.90272521972656,69.93425750732422,434.0864562988281
3505,55.71889877319336,-201.62548828125,73.84993743896484,440.6424865722656
3506,44.88814926147461,-200.9560394287109,72.7204818725586,435.70208740234375
3507,36.00214767456055,-206.73419189453125,72.79528045654297,422.9976501464844
3508,41.68305587768555,-204.14244079589844,79.3812484741211,419.09320068359375
3509,51.48159408569336,-194.11203002929688,85.2080078125,427.3770751953125
3510,59.290504455566406,-194.8787078857422,90.4251708984375,421.0042724609375
3511,45.95402145385742,-206.63694763183597,78.79034423828125,396.2611083984375
3512,48.16430282592773,-199.47129821777344,78.96611785888672,396.30596923828125
3513,56.78477096557617,-189.47454833984372,77.8591079711914,404.025146484375
3514,55.516944885253906,-194.60943603515625,77.47016143798828,414.1976623535156
3515,43.86715698242188,-214.1279754638672,65.08734893798828,407.1217651367188
3516,48.37373733520508,-206.30035400390625,67.34999084472656,412.9074096679688
3517,52.1734733581543,-200.79522705078125,69.17505645751953,428.2409973144531
3518,57.8356819152832,-209.3521270751953,74.5679931640625,428.921630859375
3519,44.77221298217773,-221.5591583251953,67.14429473876953,415.17376708984375
3520,48.65422821044922,-213.1069793701172,70.02775573730469,428.8132019042969
3521,57.75714492797852,-195.97450256347656,74.0406723022461,445.4744567871094
3522,44.44684219360352,-208.86593627929688,67.63422393798828,441.4390869140625
3523,30.00708770751953,-214.84230041503903,64.58994293212889,433.07666015625
3524,41.5035400390625,-215.03677368164062,71.59851837158203,442.0860900878906
3525,50.81214904785156,-204.26959228515625,78.0199203491211,449.0497741699219
3526,49.63408279418945,-204.71090698242188,84.11969757080078,438.8996887207031
3527,43.97561264038086,-210.5675811767578,79.7215805053711,418.0385437011719
3528,53.88261032104492,-208.80235290527344,81.44193267822266,407.3723449707031
3529,67.08071899414061,-200.62319946289062,84.45629119873047,412.8064270019531
3530,59.09602737426758,-201.57313537597656,80.23768615722656,403.7034912109375
3531,42.56193161010742,-209.13894653320312,75.91809844970703,395.7300415039063
3532,46.70574188232422,-198.1361541748047,74.52685546875,397.394287109375
3533,59.43635940551758,-192.8965606689453,77.14104461669922,407.2751159667969
3534,55.90215301513672,-195.1442413330078,69.99409484863281,402.312255859375
3535,51.62371063232422,-202.07427978515625,65.88021087646484,400.3263854980469
3536,56.87826919555664,-207.2540283203125,70.05767822265625,410.8990783691406
3537,70.4728012084961,-209.37081909179688,77.42901611328125,430.6943664550781
